# wavelength flux
       2097.4015     0.025617192
       2098.1353     0.028631524
       2098.8691     0.090113014
       2099.6029     0.052990634
       2100.3367    -0.012150572
       2101.0706     0.063589056
       2101.8044     0.022648331
       2102.5382    0.0046364543
       2103.2720     0.010472162
       2104.0058      0.10564817
       2104.7397     0.015932106
       2105.4735     0.057314054
       2106.2073    -0.025940138
       2106.9411    0.0042439962
       2107.6749      0.16477663
       2108.4087      0.15454078
       2109.1426     0.076253483
       2109.8764     0.022295909
       2110.6102      0.13264593
       2111.3440      0.13964883
       2112.0778      0.10130365
       2112.8117     0.081925431
       2113.5455     0.095946074
       2114.2793     0.060109930
       2115.0131      0.10675349
       2115.7469     0.087965388
       2116.4807     0.079935057
       2117.2146      0.13514260
       2117.9484      0.13298081
       2118.6822     0.056452780
       2119.4160      0.10951957
       2120.1498     0.096033112
       2120.8837     0.049693470
       2121.6175     0.077779822
       2122.3513      0.10936892
       2123.0851     0.010655522
       2123.8189     0.094610991
       2124.5527     0.097206813
       2125.2866     0.076386744
       2126.0204     0.061896643
       2126.7542     0.058174936
       2127.4880     0.045930297
       2128.2218    -0.015723451
       2128.9557     0.016571016
       2129.6895     0.045988713
       2130.4233    -0.034569829
       2131.1571     0.050191127
       2131.8909      0.11879429
       2132.6248     0.057588897
       2133.3586     0.086693686
       2134.0924     0.072169320
       2134.8262     0.076094724
       2135.5600     0.040399989
       2136.2938     0.052587095
       2137.0277     0.086670964
       2137.7615     0.076753779
       2138.4953     0.068538103
       2139.2291    -0.021067091
       2139.9629    -0.012144077
       2140.6968   -0.0021491876
       2141.4306     0.055515101
       2142.1644     0.042267938
       2142.8982     0.022686206
       2143.6320     0.031370352
       2144.3658    -0.025327036
       2145.0997     0.032992379
       2145.8335     0.024753358
       2146.5673    -0.026539067
       2147.3011    -0.049070301
       2148.0349   0.00093315082
       2148.7688     0.045482211
       2149.5026   -0.0081971060
       2150.2364     0.058892519
       2150.9702     0.040475980
       2151.7040     0.063290695
       2152.4378     0.085450302
       2153.1717     0.042396891
       2153.9055     0.018230379
       2154.6393     0.060834481
       2155.3731     0.064280476
       2156.1069     0.025325391
       2156.8408     0.052933334
       2157.5746     0.093967583
       2158.3084     0.069384208
       2159.0422     0.039103107
       2159.7760     0.026077871
       2160.5098     0.061652077
       2161.2437      0.11132957
       2161.9775      0.20489902
       2162.7113     0.094038064
       2163.4451      0.10806251
       2164.1789     0.069020288
       2164.9128     0.089831425
       2165.6466      0.10929202
       2166.3804     0.039411013
       2167.1142     0.024761755
       2167.8480     0.096055387
       2168.5818     0.047129485
       2169.3157     0.030601840
       2170.0495     0.020603372
       2170.7833     0.034876872
       2171.5171     0.053652747
       2172.2509     0.081146434
       2172.9848     0.048582033
       2173.7186      0.10982740
       2174.4524      0.10745691
       2175.1862     0.071878871
       2175.9200     0.026415501
       2176.6538     0.074813383
       2177.3877      0.13016908
       2178.1215     0.087028581
       2178.8553    -0.039656950
       2179.5891     0.016095118
       2180.3229     0.023778553
       2181.0568     0.058516780
       2181.7906     0.040611671
       2182.5244   -0.0037069547
       2183.2582     0.015618698
       2183.9920     0.061279916
       2184.7259     0.070426430
       2185.4597     0.058823989
       2186.1935     0.038422166
       2186.9273    -0.013923011
       2187.6611     0.031107506
       2188.3949     0.021188255
       2189.1288     0.028836737
       2189.8626     0.055489181
       2190.5964     0.067256811
       2191.3302     0.071930114
       2192.0640     0.010597403
       2192.7979     0.039453567
       2193.5317     0.033471874
       2194.2655     0.059596821
       2194.9993     0.059103603
       2195.7331      0.11797541
       2196.4669     0.070155456
       2197.2008     0.051688317
       2197.9346     0.041889790
       2198.6684     0.058982424
       2199.4022     0.047108107
       2200.1360     0.064185477
       2200.8699     0.024306830
       2201.6037     0.070485478
       2202.3375     0.041014182
       2203.0713     0.065281324
       2203.8051     0.078175070
       2204.5389     0.086888509
       2205.2728     0.076776966
       2206.0066     0.064774391
       2206.7404     0.085227750
       2207.4742     0.062022685
       2208.2080     0.061378842
       2208.9419     0.091184834
       2209.6757     0.098519527
       2210.4095     0.078929100
       2211.1433     0.079352467
       2211.8771     0.071969010
       2212.6109     0.016794704
       2213.3448    0.0057618489
       2214.0786     0.028764847
       2214.8124     0.052432760
       2215.5462     0.015517727
       2216.2800     0.046902286
       2217.0139     0.086305376
       2217.7477      0.13290707
       2218.4815     0.072059703
       2219.2153     0.099301412
       2219.9491     0.080916376
       2220.6829     0.052398863
       2221.4168     0.066033632
       2222.1506     0.053057644
       2222.8844     0.093928660
       2223.6182     0.046099805
       2224.3520     0.057010157
       2225.0859     0.056059380
       2225.8197     0.089280631
       2226.5535      0.15669892
       2227.2873      0.12897205
       2228.0211      0.12297349
       2228.7550     0.064111106
       2229.4888     0.082301258
       2230.2226     0.070804671
       2230.9564     0.048840035
       2231.6902     0.071462267
       2232.4240     0.075767433
       2233.1579     0.049912716
       2233.8917     0.039393777
       2234.6255     0.017177922
       2235.3593     0.059506934
       2236.0931     0.075906236
       2236.8270     0.095190659
       2237.5608     0.069778851
       2238.2946     0.087057227
       2239.0284     0.086561181
       2239.7622     0.061273120
       2240.4960     0.054227986
       2241.2299     0.066229414
       2241.9637     0.090842993
       2242.6975      0.10813671
       2243.4313      0.11386418
       2244.1651     0.052133814
       2244.8990     0.067355174
       2245.6328     0.054195441
       2246.3666     0.052199211
       2247.1004     0.059362425
       2247.8342     0.035301805
       2248.5680     0.045225204
       2249.3019     0.035237134
       2250.0357     0.053560399
       2250.7695    0.0031729782
       2251.5033     0.064521095
       2252.2371     0.050219441
       2252.9710     0.056439605
       2253.7048     0.037010591
       2254.4386     0.041448625
       2255.1724     0.068579905
       2255.9062     0.069678062
       2256.6400     0.023108115
       2257.3739     0.072479827
       2258.1077     0.045999841
       2258.8415     0.082515395
       2259.5753     0.066486854
       2260.3091     0.057184741
       2261.0430    0.0030752555
       2261.7768     0.055611015
       2262.5106     0.011685997
       2263.2444     0.056365557
       2263.9782     0.061524896
       2264.7120     0.029747726
       2265.4459     0.049727715
       2266.1797     0.054052156
       2266.9135     0.036688518
       2267.6473     0.040258883
       2268.3811     0.038866211
       2269.1150     0.022003733
       2269.8488     0.038006040
       2270.5826    0.0074616915
       2271.3164     0.054555039
       2272.0502     0.052730168
       2272.7840     0.052827063
       2273.5179     0.031576478
       2274.2517     0.079790455
       2274.9855     0.059677738
       2275.7193     0.060622578
       2276.4531      0.11679544
       2277.1870      0.10512221
       2277.9208     0.093473678
       2278.6546      0.11437536
       2279.3884      0.14963366
       2280.1222      0.11991639
       2280.8561     0.072816882
       2281.5899     0.081536930
       2282.3237     0.084854132
       2283.0575     0.077484461
       2283.7913      0.10447891
       2284.5251     0.094014488
       2285.2590     0.063203014
       2285.9928     0.090222670
       2286.7266     0.037237570
       2287.4604     0.053093376
       2288.1942     0.054278858
       2288.9281      0.10197360
       2289.6619     0.072404735
       2290.3957     0.036885399
       2291.1295     0.058371369
       2291.8633     0.061970196
       2292.5971     0.037999696
       2293.3310     0.050850460
       2294.0648     0.046654264
       2294.7986     0.055691058
       2295.5324     0.030011799
       2296.2662     0.034942103
       2297.0001     0.054763817
       2297.7339     0.047963034
       2298.4677     0.040463777
       2299.2015     0.076882063
       2299.9353     0.071924620
       2300.6691     0.058301721
       2301.4030     0.027597662
       2302.1368     0.017733209
       2302.8706     0.048660889
       2303.6044     0.036942705
       2304.3382     0.023638162
       2305.0721     0.047557104
       2305.8059     0.027084033
       2306.5397     0.022943851
       2307.2735    0.0061241304
       2308.0073     0.025932891
       2308.7411     0.041418875
       2309.4750     0.069847397
       2310.2088     0.017837291
       2310.9426     0.052858042
       2311.6764     0.019014803
       2312.4102     0.042053313
       2313.1441   -0.0018310113
       2313.8779     0.020524070
       2314.6117    -0.010638327
       2315.3455   -0.0088197350
       2316.0793     0.044274167
       2316.8131     0.040892921
       2317.5470     0.017802511
       2318.2808     0.079407441
       2319.0146     0.057463625
       2319.7484     0.031914954
       2320.4822     0.043692040
       2321.2161     0.070938761
       2321.9499     0.054251159
       2322.6837     0.063249256
       2323.4175     0.073443252
       2324.1513     0.054644274
       2324.8851     0.072858379
       2325.6190     0.018404225
       2326.3528     0.030842499
       2327.0866     0.084374469
       2327.8204     0.030155048
       2328.5542     0.038203633
       2329.2881     0.053512743
       2330.0219     0.052046676
       2330.7557     0.022902808
       2331.4895     0.041763300
       2332.2233     0.037653009
       2332.9572     0.044319546
       2333.6910     0.028002526
       2334.4248     0.023280384
       2335.1586     0.041858576
       2335.8924     0.069402025
       2336.6262     0.036984989
       2337.3601     0.075255671
       2338.0939     0.066750558
       2338.8277     0.079470778
       2339.5615     0.053985219
       2340.2953     0.083537918
       2341.0292     0.056228934
       2341.7630     0.069526775
       2342.4968     0.020485093
       2343.2306     0.049528678
       2343.9644     0.054916415
       2344.6982     0.078260545
       2345.4321     0.083071004
       2346.1659     0.059965871
       2346.8997     0.073974272
       2347.6335     0.033346965
       2348.3673      0.12869073
       2349.1012      0.13291611
       2349.8350    -0.064499015
       2350.5688    -0.028361088
       2351.3026     -0.12798360
       2352.0364     -0.12051755
       2352.7702    -0.088321001
       2353.5041    -0.040367895
       2354.2379    -0.019590799
       2354.9717     0.020036038
       2355.7055     0.038993476
       2356.4393     0.032479725
       2357.1732     0.037053560
       2357.9070     0.057363017
       2358.6408     0.063799541
       2359.3746     0.064940590
       2360.1084     0.035179795
       2360.8422     0.036600505
       2361.5761     0.054303550
       2362.3099      0.10107247
       2363.0437     0.073366104
       2363.7775     0.024772797
       2364.5113     0.032553983
       2365.2452     0.070723802
       2365.9790     0.036040690
       2366.7128     0.062598114
       2367.4466   -0.0034154345
       2368.1804     0.031639029
       2368.9142     0.068667962
       2369.6481     0.062273741
       2370.3819     0.029414902
       2371.1157     0.042327229
       2371.8495     0.056812986
       2372.5833     0.018100179
       2373.3172     0.024864690
       2374.0510    0.0083635648
       2374.7848     0.014626724
       2375.5186    0.0062919736
       2376.2524     0.032705259
       2376.9862     0.011396302
       2377.7201   -0.0046639653
       2378.4539     0.056340151
       2379.1877     0.010693026
       2379.9215    -0.012723611
       2380.6553     0.034250286
       2381.3892     0.014726368
       2382.1230     0.026696776
       2382.8568     0.035689302
       2383.5906     0.036154541
       2384.3244     0.017380188
       2385.0583     0.037379945
       2385.7921     0.032738864
       2386.5259     0.089711111
       2387.2597     0.075532002
       2387.9935     0.040788272
       2388.7273     0.041379318
       2389.4612     0.038911188
       2390.1950     0.022471321
       2390.9288     0.032108150
       2391.6626     0.032724696
       2392.3964     0.032658688
       2393.1303     0.024344431
       2393.8641     0.017043735
       2394.5979     0.050593956
       2395.3317     0.037122130
       2396.0655     0.021956634
       2396.7993     0.042207398
       2397.5332     0.027317865
       2398.2670     0.050719024
       2399.0008     0.060754677
       2399.7346     0.032418957
       2400.4684     0.038189961
       2401.2023     0.051317309
       2401.9361     0.058198941
       2402.6699     0.063253790
       2403.4037     0.024630343
       2404.1375     0.072079986
       2404.8713     0.039088384
       2405.6052     0.074974012
       2406.3390     0.073747156
       2407.0728      0.13984137
       2407.8066     0.062029600
       2408.5404     0.054750889
       2409.2743     0.074611089
       2410.0081     0.090794399
       2410.7419     0.077452301
       2411.4757     0.094661320
       2412.2095      0.12745229
       2412.9433     0.063097526
       2413.6772     0.064628129
       2414.4110     0.074712304
       2415.1448     0.063698805
       2415.8786     0.068067322
       2416.6124      0.11272433
       2417.3463     0.085134876
       2418.0801     0.056987013
       2418.8139     0.059609067
       2419.5477     0.014759115
       2420.2815     0.060026206
       2421.0153    -0.017038804
       2421.7492     0.048290008
       2422.4830     0.023237448
       2423.2168     0.061657336
       2423.9506     0.039108757
       2424.6844     0.024908131
       2425.4183     0.026850524
       2426.1521     0.047274390
       2426.8859     0.026918248
       2427.6197     0.027162936
       2428.3535     0.035116631
       2429.0873     0.063750066
       2429.8212     0.049864352
       2430.5550     0.031515486
       2431.2888     0.061270133
       2432.0226     0.050357302
       2432.7564     0.039178579
       2433.4903     0.026668633
       2434.2241     0.024108629
       2434.9579     0.031753737
       2435.6917     0.023551651
       2436.4255     0.014347442
       2437.1594     0.030065057
       2437.8932     0.038440398
       2438.6270     0.026026465
       2439.3608     0.024293600
       2440.0946     0.025854050
       2440.8284     0.039944668
       2441.5623     0.045952873
       2442.2961     0.041063577
       2443.0299     0.050296427
       2443.7637     0.045601825
       2444.4975     0.048292368
       2445.2314     0.014910692
       2445.9652     0.022956017
       2446.6990     0.036751018
       2447.4328     0.031864375
       2448.1666     0.027731236
       2448.9004     0.042348527
       2449.6343     0.061094440
       2450.3681     0.039215557
       2451.1019     0.024041435
       2451.8357     0.017373404
       2452.5695    0.0018807038
       2453.3034     0.050313819
       2454.0372     0.019939051
       2454.7710     0.042733279
       2455.5048     0.056725375
       2456.2386     0.064333158
       2456.9724     0.050455820
       2457.7063     0.087420764
       2458.4401     0.059216051
       2459.1739     0.067736830
       2459.9077     0.050607116
       2460.6415     0.038336944
       2461.3754     0.040230401
       2462.1092     0.042448884
       2462.8430     0.081076924
       2463.5768     0.057582763
       2464.3106     0.063902744
       2465.0444     0.036624502
       2465.7783     0.074478348
       2466.5121     0.048105121
       2467.2459     0.026969958
       2467.9797     0.033245536
       2468.7135     0.036199208
       2469.4474     0.023565223
       2470.1812     0.045813883
       2470.9150     0.088903589
       2471.6488   -0.0024328369
       2472.3826     0.030411904
       2473.1164     0.059204559
       2473.8503     0.021030136
       2474.5841     0.045688191
       2475.3179     0.092309211
       2476.0517     0.053875754
       2476.7855     0.040144838
       2477.5194     0.052136804
       2478.2532     0.058220700
       2478.9870     0.038277270
       2479.7208     0.022606507
       2480.4546     0.030131268
       2481.1885     0.019823696
       2481.9223     0.067437849
       2482.6561     0.063515797
       2483.3899     0.015643973
       2484.1237     0.020639369
       2484.8575     0.049618209
       2485.5914     0.053289327
       2486.3252     0.039458110
       2487.0590     0.052652116
       2487.7928     0.042457322
       2488.5266     0.047344985
       2489.2605     0.046638926
       2489.9943     0.046862334
       2490.7281     0.010956580
       2491.4619     0.029806097
       2492.1957     0.026424414
       2492.9295     0.044103541
       2493.6634     0.017594995
       2494.3972     0.055133890
       2495.1310     0.042305604
       2495.8648     0.038129432
       2496.5986     0.048141884
       2497.3325    -0.017029682
       2498.0663     0.039848857
       2498.8001     0.057352199
       2499.5339     0.015956685
       2500.2677     0.054834974
       2501.0015     0.057855696
       2501.7354     0.040586311
       2502.4692     0.030651716
       2503.2030     0.044849115
       2503.9368     0.019563868
       2504.6706     0.011889709
       2505.4045     0.033107158
       2506.1383     0.021578123
       2506.8721     0.020118481
       2507.6059     0.017237434
       2508.3397     0.020032432
       2509.0735     0.044081344
       2509.8074     0.021084594
       2510.5412     0.055425658
       2511.2750     0.084083173
       2512.0088     0.036705770
       2512.7426     0.074221238
       2513.4765     0.073418284
       2514.2103     0.071714388
       2514.9441     0.036637530
       2515.6779     0.072375719
       2516.4117     0.027897472
       2517.1455     0.045567295
       2517.8794   -0.0063823048
       2518.6132     0.063041734
       2519.3470     0.041937716
       2520.0808     0.044455138
       2520.8146     0.064203127
       2521.5485     0.056222113
       2522.2823     0.047500945
       2523.0161     0.040866873
       2523.7499     0.019365209
       2524.4837     0.042655845
       2525.2175     0.053827909
       2525.9514     0.041799108
       2526.6852    0.0027905066
       2527.4190     0.027196643
       2528.1528     0.011012638
       2528.8866    0.0095684723
       2529.6205     0.054278612
       2530.3543     0.032917515
       2531.0881     0.036412940
       2531.8219    0.0083873628
       2532.5557     0.023145016
       2533.2896     0.039178185
       2534.0234     0.082513081
       2534.7572     0.059995235
       2535.4910     0.043350581
       2536.2248     0.066666084
       2536.9586     0.056479573
       2537.6925     0.032894011
       2538.4263     0.053249215
       2539.1601     0.040516941
       2539.8939     0.035051612
       2540.6277     0.073997622
       2541.3616     0.066392609
       2542.0954     0.036768239
       2542.8292     0.047084993
       2543.5630     0.021193310
       2544.2968    0.0097488095
       2545.0306    0.0051186542
       2545.7645     0.053551051
       2546.4983    0.0064581739
       2547.2321     0.037880147
       2547.9659     0.048502723
       2548.6997     0.033825653
       2549.4336    0.0029330944
       2550.1674     0.055303222
       2550.9012     0.069074097
       2551.6350     0.063029861
       2552.3688     0.058555059
       2553.1026     0.055599711
       2553.8365     0.037144417
       2554.5703     0.051513954
       2555.3041     0.062325647
       2556.0379     0.062797844
       2556.7717     0.046814346
       2557.5056     0.049661190
       2558.2394     0.018637233
       2558.9732     0.097398939
       2559.7070    0.0010132000
       2560.4408     0.025802533
       2561.1746     0.046568028
       2561.9085     0.058779008
       2562.6423     0.070669497
       2563.3761     0.065182599
       2564.1099     0.041654336
       2564.8437     0.018299001
       2565.5776     0.026850860
       2566.3114     0.045210225
       2567.0452     0.051107635
       2567.7790     0.040657126
       2568.5128     0.037384437
       2569.2466     0.034347248
       2569.9805     0.056092989
       2570.7143     0.032459742
       2571.4481     0.044212413
       2572.1819     0.023813267
       2572.9157     0.020641040
       2573.6496     0.021555411
       2574.3834     0.057188637
       2575.1172     0.069504209
       2575.8510     0.020617897
       2576.5848     0.021234993
       2577.3186     0.021018178
       2578.0525     0.023348902
       2578.7863     0.044411989
       2579.5201     0.085254854
       2580.2539    0.0071617624
       2580.9877     0.054841526
       2581.7216     0.051645783
       2582.4554     0.032677492
       2583.1892     0.064574977
       2583.9230     0.036371759
       2584.6568     0.044047346
       2585.3907    0.0076758244
       2586.1245     0.029504540
       2586.8583     0.021637153
       2587.5921     0.031755833
       2588.3259     0.017791295
       2589.0597     0.029611481
       2589.7936     0.015488782
       2590.5274     0.063583424
       2591.2612     0.033328594
       2591.9950     0.031024987
       2592.7288     0.041681404
       2593.4627     0.019480061
       2594.1965     0.021994126
       2594.9303     0.044691135
       2595.6641     0.068940501
       2596.3979     0.035510583
       2597.1317     0.041958224
       2597.8656     0.066862783
       2598.5994     0.052836310
       2599.3332     0.046123418
       2600.0670     0.018460553
       2600.8008     0.027066174
       2601.5347    0.0039410534
       2602.2685     0.032110078
       2603.0023     0.033925129
       2603.7361     0.022293023
       2604.4699     0.049237625
       2605.2037     0.019104072
       2605.9376     0.038279535
       2606.6714     0.053453516
       2607.4052     0.057232883
       2608.1390     0.020276198
       2608.8728     0.020953600
       2609.6067     0.014609748
       2610.3405     0.057873201
       2611.0743     0.038860013
       2611.8081     0.074345498
       2612.5419     0.042439598
       2613.2757    0.0095110822
       2614.0096     0.042833892
       2614.7434     0.038431288
       2615.4772     0.054357515
       2616.2110     0.062312309
       2616.9448     0.028351874
       2617.6787     0.049226663
       2618.4125     0.052899220
       2619.1463     0.070283477
       2619.8801     0.017058933
       2620.6139     0.014723063
       2621.3477    0.0046517624
       2622.0816     0.037994502
       2622.8154     0.022021089
       2623.5492     0.017405648
       2624.2830     0.033309597
       2625.0168     0.024591621
       2625.7507     0.045042951
       2626.4845     0.039040252
       2627.2183     0.039617811
       2627.9521     0.047288381
       2628.6859     0.022752490
       2629.4197     0.038776794
       2630.1536     0.049587527
       2630.8874     0.055269945
       2631.6212     0.047110167
       2632.3550     0.025890299
       2633.0888     0.029894975
       2633.8227     0.040910745
       2634.5565     0.021348215
       2635.2903     0.041828760
       2636.0241     0.034672090
       2636.7579     0.046280589
       2637.4918     0.068662722
       2638.2256     0.021538019
       2638.9594     0.019552502
       2639.6932     0.045960492
       2640.4270     0.029103337
       2641.1608     0.046643232
       2641.8947     0.066433973
       2642.6285     0.033863931
       2643.3623     0.048954550
       2644.0961     0.032294096
       2644.8299     0.039320177
       2645.5638     0.047492441
       2646.2976     0.051617634
       2647.0314     0.040938071
       2647.7652     0.012387357
       2648.4990     0.038330042
       2649.2328     0.034111217
       2649.9667     0.050373015
       2650.7005     0.047377309
       2651.4343     0.051670769
       2652.1681     0.063892386
       2652.9019     0.023285640
       2653.6358     0.055336973
       2654.3696     0.038872825
       2655.1034     0.018955900
       2655.8372     0.036189909
       2656.5710     0.058348431
       2657.3048     0.071583307
       2658.0387     0.018247266
       2658.7725     0.090270633
       2659.5063     0.047688652
       2660.2401     0.029423664
       2660.9739     0.039419032
       2661.7078     0.069163232
       2662.4416     0.039218145
       2663.1754     0.046088695
       2663.9092     0.035933732
       2664.6430     0.045941197
       2665.3768     0.055176729
       2666.1107     0.042829833
       2666.8445     0.041123481
       2667.5783     0.050103329
       2668.3121     0.017292154
       2669.0459     0.044717852
       2669.7798     0.060527123
       2670.5136     0.054438356
       2671.2474     0.028006889
       2671.9812     0.046673508
       2672.7150     0.051065280
       2673.4488     0.029817258
       2674.1827     0.019854872
       2674.9165     0.034543971
       2675.6503     0.050492198
       2676.3841     0.057735334
       2677.1179     0.038899795
       2677.8518     0.043925779
       2678.5856     0.044680184
       2679.3194     0.040334439
       2680.0532     0.039648764
       2680.7870     0.041004930
       2681.5208     0.038416251
       2682.2547     0.048813991
       2682.9885     0.044208661
       2683.7223     0.027123197
       2684.4561     0.041650279
       2685.1899     0.062660312
       2685.9238     0.074163538
       2686.6576     0.040563035
       2687.3914     0.024598930
       2688.1252     0.059842138
       2688.8590     0.042926203
       2689.5929     0.058421445
       2690.3267     0.037855269
       2691.0605     0.018416562
       2691.7943     0.047854722
       2692.5281     0.038360073
       2693.2619     0.036521103
       2693.9958     0.055853895
       2694.7296     0.049306303
       2695.4634     0.056407122
       2696.1972     0.056975168
       2696.9310     0.053032154
       2697.6649     0.053880579
       2698.3987     0.037220017
       2699.1325     0.032487072
       2699.8663     0.032549824
       2700.6001     0.056997859
       2701.3339     0.034885368
       2702.0678     0.073543861
       2702.8016     0.047236467
       2703.5354     0.051709751
       2704.2692     0.047257020
       2705.0030     0.036646003
       2705.7369     0.026423223
       2706.4707    0.0073281016
       2707.2045     0.015693509
       2707.9383     0.043958834
       2708.6721     0.048675984
       2709.4059     0.049140575
       2710.1398     0.036330528
       2710.8736     0.022766995
       2711.6074     0.069344409
       2712.3412     0.042118405
       2713.0750     0.035922312
       2713.8089     0.049112687
       2714.5427     0.043401554
       2715.2765     0.047709153
       2716.0103     0.032211823
       2716.7441     0.028669981
       2717.4779     0.050063466
       2718.2118     0.051504552
       2718.9456     0.058345760
       2719.6794     0.042660737
       2720.4132     0.050794773
       2721.1470     0.061116336
       2721.8809     0.052998259
       2722.6147     0.063367215
       2723.3485     0.059843867
       2724.0823     0.040164960
       2724.8161     0.054882463
       2725.5499     0.064787003
       2726.2838     0.054790570
       2727.0176     0.036260149
       2727.7514     0.043914816
       2728.4852     0.060842855
       2729.2190     0.026178479
       2729.9529     0.030509141
       2730.6867     0.045508484
       2731.4205     0.053006216
       2732.1543     0.024260160
       2732.8881     0.092587662
       2733.6220     0.065828667
       2734.3558     0.030668494
       2735.0896     0.050174132
       2735.8234     0.038069006
       2736.5572     0.032645730
       2737.2910     0.053372481
       2738.0249     0.031093774
       2738.7587     0.050702268
       2739.4925     0.038129991
       2740.2263     0.041107818
       2740.9601     0.042213004
       2741.6940     0.047106818
       2742.4278     0.051827110
       2743.1616     0.039254283
       2743.8954     0.025854999
       2744.6292     0.063808811
       2745.3630     0.019495543
       2746.0969     0.040425085
       2746.8307     0.030953504
       2747.5645     0.038977347
       2748.2983     0.084793509
       2749.0321     0.057640175
       2749.7660     0.041262400
       2750.4998    0.0071623223
       2751.2336     0.024096479
       2751.9674    0.0080207165
       2752.7012     0.042902402
       2753.4350     0.051272738
       2754.1689     0.045878138
       2754.9027     0.019260271
       2755.6365     0.049632897
       2756.3703     0.048257700
       2757.1041     0.054144089
       2757.8380     0.036517722
       2758.5718     0.058922752
       2759.3056     0.048489792
       2760.0394     0.034515284
       2760.7732     0.042014779
       2761.5070     0.058267021
       2762.2409     0.061774692
       2762.9747     0.044416867
       2763.7085     0.048871185
       2764.4423     0.057321247
       2765.1761     0.077933485
       2765.9100     0.046490836
       2766.6438     0.042640850
       2767.3776     0.054982777
       2768.1114     0.046105627
       2768.8452     0.037139384
       2769.5790     0.045446948
       2770.3129    0.0067191179
       2771.0467     0.062049827
       2771.7805     0.044366299
       2772.5143     0.061603796
       2773.2481     0.039649264
       2773.9820     0.077617082
       2774.7158     0.088627554
       2775.4496     0.062861469
       2776.1834     0.068409896
       2776.9172     0.060089280
       2777.6510     0.047321113
       2778.3849     0.042296124
       2779.1187     0.033245225
       2779.8525     0.070930097
       2780.5863     0.063996681
       2781.3201      0.10175072
       2782.0540     0.051081651
       2782.7878     0.020921944
       2783.5216     0.054830247
       2784.2554     0.049884634
       2784.9892     0.049770091
       2785.7231     0.019260270
       2786.4569     0.056411034
       2787.1907     0.051178767
       2787.9245     0.059447040
       2788.6583     0.050409124
       2789.3921     0.031606991
       2790.1260     0.058065485
       2790.8598     0.045098870
       2791.5936     0.020923445
       2792.3274     0.058541274
       2793.0612     0.030100939
       2793.7951     0.047949592
       2794.5289     0.054795500
       2795.2627     0.076050417
       2795.9965     0.056957162
       2796.7303     0.046475627
       2797.4641     0.051445472
       2798.1980     0.048624940
       2798.9318     0.037338004
       2799.6656     0.045160116
       2800.3994     0.068863512
       2801.1332     0.037172459
       2801.8671     0.036861354
       2802.6009     0.046690215
       2803.3347     0.016353363
       2804.0685     0.028627953
       2804.8023    0.0085200383
       2805.5361  -0.00021533213
       2806.2700   -0.0050258329
       2807.0038    0.0099876391
       2807.7376     0.040053858
       2808.4714     0.026074944
       2809.2052     0.056693917
       2809.9391     0.046095728
       2810.6729     0.036627769
       2811.4067    -0.016788221
       2812.1405    0.0047116179
       2812.8743     0.035183206
       2813.6081     0.021668313
       2814.3420     0.031396831
       2815.0758     0.048682991
       2815.8096     0.059139721
       2816.5434     0.040987413
       2817.2772     0.048506762
       2818.0111     0.080634949
       2818.7449     0.068175628
       2819.4787     0.076279635
       2820.2125     0.068091462
       2820.9463     0.051368008
       2821.6801     0.049961741
       2822.4140     0.065458387
       2823.1478     0.039654506
       2823.8816     0.046908960
       2824.6154     0.056387049
       2825.3492     0.067428404
       2826.0831     0.071355033
       2826.8169     0.036968319
       2827.5507     0.016400732
       2828.2845     0.056575550
       2829.0183     0.050036912
       2829.7521     0.053496861
       2830.4860     0.039771425
       2831.2198     0.059928467
       2831.9536     0.053550717
       2832.6874     0.056009799
       2833.4212     0.078641077
       2834.1551     0.083419035
       2834.8889     0.065709214
       2835.6227     0.072158114
       2836.3565     0.072038691
       2837.0903     0.033912688
       2837.8242     0.059668187
       2838.5580     0.052243889
       2839.2918     0.038489577
       2840.0256     0.056027056
       2840.7594     0.053643348
       2841.4932     0.045181403
       2842.2271     0.046986455
       2842.9609     0.044829021
       2843.6947     0.071184802
       2844.4285     0.042404790
       2845.1623     0.047727497
       2845.8962     0.043970615
       2846.6300     0.056133439
       2847.3638     0.047181386
       2848.0976     0.055231854
       2848.8314     0.051966987
       2849.5652     0.055143539
       2850.2991     0.070398095
       2851.0329     0.060073249
       2851.7667     0.064514613
       2852.5005     0.070421997
       2853.2343     0.058220391
       2853.9682     0.077020075
       2854.7020     0.053500462
       2855.4358     0.053256716
       2856.1696     0.046385666
       2856.9034     0.044981487
       2857.6372     0.050220841
       2858.3711     0.040855247
       2859.1049     0.035667915
       2859.8387     0.052627095
       2860.5725     0.052612175
       2861.3063     0.031028342
       2862.0402     0.052773980
       2862.7740     0.044571032
       2863.5078     0.041715548
       2864.2416     0.061600909
       2864.9754     0.077775595
       2865.7092     0.090871462
       2866.4431     0.063803310
       2867.1769     0.063651395
       2867.9107     0.043753578
       2868.6445     0.065278420
       2869.3783     0.061094109
       2870.1122     0.079911883
       2870.8460     0.061000247
       2871.5798     0.056531466
       2872.3136     0.048803564
       2873.0474     0.055081085
       2873.7812     0.054716281
       2874.5151     0.051017543
       2875.2489     0.060625715
       2875.9827     0.063699719
       2876.7165     0.013729200
       2877.4503     0.034779328
       2878.1842     0.068014825
       2878.9180     0.085019607
       2879.6518     0.039056307
       2880.3856     0.058156984
       2881.1194     0.071338589
       2881.8532     0.034893568
       2882.5871     0.029691767
       2883.3209     0.024389253
       2884.0547     0.063093817
       2884.7885     0.046091665
       2885.5223     0.046976460
       2886.2562     0.053142992
       2886.9900     0.074261296
       2887.7238     0.059110714
       2888.4576     0.055093003
       2889.1914     0.055552922
       2889.9253     0.080569945
       2890.6591     0.035183591
       2891.3929     0.045504214
       2892.1267     0.062168291
       2892.8605     0.053909354
       2893.5943     0.091767141
       2894.3282     0.058084680
       2895.0620     0.057914315
       2895.7958     0.055869121
       2896.5296     0.058708941
       2897.2634     0.057448265
       2897.9973     0.042680608
       2898.7311     0.043747696
       2899.4649     0.066146033
       2900.1987     0.080391026
       2900.9325     0.064159049
       2901.6663     0.064396767
       2902.4002     0.067442876
       2903.1340     0.056547618
       2903.8678     0.035350038
       2904.6016     0.062194248
       2905.3354     0.070357329
       2906.0693     0.048911884
       2906.8031     0.051978783
       2907.5369     0.033204227
       2908.2707     0.047503289
       2909.0045     0.060767238
       2909.7383     0.049682825
       2910.4722     0.057403858
       2911.2060     0.066939562
       2911.9398     0.071533403
       2912.6736     0.055852435
       2913.4074     0.050503145
       2914.1413     0.054380651
       2914.8751     0.075481189
       2915.6089     0.081466235
       2916.3427     0.076271794
       2917.0765     0.058361836
       2917.8103     0.062148121
       2918.5442     0.082269283
       2919.2780     0.077179313
       2920.0118     0.087700760
       2920.7456     0.071230496
       2921.4794     0.063328557
       2922.2133     0.079736750
       2922.9471     0.060196096
       2923.6809     0.064402489
       2924.4147     0.058081515
       2925.1485     0.045939829
       2925.8823     0.068163058
       2926.6162     0.071278404
       2927.3500     0.068975696
       2928.0838     0.052580786
       2928.8176     0.050535511
       2929.5514     0.044169995
       2930.2853     0.069193130
       2931.0191     0.054048911
       2931.7529     0.054049955
       2932.4867     0.056319001
       2933.2205     0.041831275
       2933.9543     0.054025423
       2934.6882     0.079731132
       2935.4220     0.039383861
       2936.1558     0.039597212
       2936.8896     0.068279656
       2937.6234     0.074131511
       2938.3573     0.046028492
       2939.0911     0.070772553
       2939.8249     0.071394372
       2940.5587     0.034363000
       2941.2925     0.053906084
       2942.0264     0.078884991
       2942.7602     0.060194511
       2943.4940     0.046336176
       2944.2278     0.060482541
       2944.9616     0.050634673
       2945.6954     0.056006965
       2946.4293     0.067969567
       2947.1631     0.067617593
       2947.8969     0.056243812
       2948.6307     0.092256759
       2949.3645     0.089765393
       2950.0984     0.060762359
       2950.8322     0.059020599
       2951.5660     0.048516120
       2952.2998     0.033051937
       2953.0336     0.038091457
       2953.7674     0.046304808
       2954.5013     0.069416595
       2955.2351     0.070460519
       2955.9689     0.072861695
       2956.7027     0.071810931
       2957.4365     0.072710645
       2958.1704     0.090788636
       2958.9042     0.094644663
       2959.6380     0.068301612
       2960.3718     0.074863120
       2961.1056     0.062012830
       2961.8394     0.057074433
       2962.5733     0.056353995
       2963.3071     0.073165327
       2964.0409     0.071525311
       2964.7747     0.061000639
       2965.5085     0.085761514
       2966.2424     0.077866594
       2966.9762     0.067953722
       2967.7100     0.088011491
       2968.4438     0.077483259
       2969.1776      0.10041189
       2969.9114      0.10297988
       2970.6453     0.074789299
       2971.3791     0.064124856
       2972.1129     0.071667177
       2972.8467     0.093078813
       2973.5805     0.079991386
       2974.3144     0.054489187
       2975.0482     0.060046039
       2975.7820     0.061125205
       2976.5158     0.080909243
       2977.2496     0.061787157
       2977.9834     0.070149762
       2978.7173     0.067879898
       2979.4511     0.057938140
       2980.1849     0.082904675
       2980.9187     0.064353924
       2981.6525     0.069109393
       2982.3864     0.087800968
       2983.1202     0.057077633
       2983.8540     0.046958149
       2984.5878     0.070608752
       2985.3216     0.098073082
       2986.0554     0.095097134
       2986.7893     0.081898894
       2987.5231     0.049264607
       2988.2569     0.058312719
       2988.9907     0.067230507
       2989.7245     0.062004666
       2990.4584     0.085447759
       2991.1922     0.066831164
       2991.9260     0.063391595
       2992.6598     0.061071512
       2993.3936     0.078645942
       2994.1275     0.061153876
       2994.8613     0.052939291
       2995.5951     0.042244069
       2996.3289     0.047753714
       2997.0627     0.093310343
       2997.7965     0.073318773
       2998.5304     0.071307187
       2999.2642     0.084429031
       2999.9980     0.081528493
       3000.7318     0.065446734
       3001.4656     0.081480147
       3002.1995     0.064738726
       3002.9333     0.061329694
       3003.6671     0.075181317
       3004.4009     0.083681445
       3005.1347     0.068858542
       3005.8685     0.063535840
       3006.6024     0.062303392
       3007.3362     0.080954527
       3008.0700     0.065458865
       3008.8038     0.064606994
       3009.5376     0.082137804
       3010.2715     0.069732187
       3011.0053     0.055214310
       3011.7391     0.049070554
       3012.4729     0.073290582
       3013.2067     0.073870191
       3013.9405     0.078634144
       3014.6744     0.078824593
       3015.4082     0.073883208
       3016.1420     0.077828755
       3016.8758     0.077818350
       3017.6096     0.091326013
       3018.3435     0.097835755
       3019.0773      0.11554566
       3019.8111     0.097964548
       3020.5449     0.068147009
       3021.2787      0.10016430
       3022.0125     0.071979512
       3022.7464     0.072256788
       3023.4802     0.087470027
       3024.2140     0.076245238
       3024.9478     0.078811508
       3025.6816     0.096261830
       3026.4155     0.090045495
       3027.1493      0.10605522
       3027.8831     0.095294914
       3028.6169     0.083859235
       3029.3507     0.071633445
       3030.0845     0.083174499
       3030.8184     0.088298458
       3031.5522     0.068189438
       3032.2860     0.090625314
       3033.0198     0.079754791
       3033.7536     0.089089298
       3034.4875      0.10458243
       3035.2213     0.079068109
       3035.9551     0.054851401
       3036.6889     0.091413480
       3037.4227      0.10521556
       3038.1566     0.097132923
       3038.8904      0.10703452
       3039.6242     0.095050491
       3040.3580     0.097659013
       3041.0918     0.076657773
       3041.8256     0.099203038
       3042.5595     0.085909198
       3043.2933     0.073409374
       3044.0271     0.078700375
       3044.7609     0.076189423
       3045.4947      0.10117971
       3046.2286     0.097878663
       3046.9624     0.074806058
       3047.6962     0.069825458
       3048.4300     0.056599767
       3049.1638     0.084721315
       3049.8976     0.091415206
       3050.6315     0.096206003
       3051.3653     0.070248506
       3052.0991     0.070169956
       3052.8329     0.079681961
       3053.5667     0.065470634
       3054.3006     0.062299215
       3055.0344     0.090542307
       3055.7682     0.067119792
       3056.5020     0.068663691
       3057.2358     0.048350225
       3057.9696     0.073887796
       3058.7035     0.086237775
       3059.4373     0.086775385
       3060.1711     0.094965395
       3060.9049      0.10631613
       3061.6387     0.094233808
       3062.3726     0.089273017
       3063.1064     0.051679991
       3063.8402     0.059554143
       3064.5740     0.093110133
       3065.3078     0.067126571
       3066.0416     0.070339113
       3066.7755     0.054222811
       3067.5093     0.045791483
       3068.2431     0.070793843
       3068.9769      0.10309892
       3069.7107      0.10922577
       3070.4446     0.096777689
       3071.1784     0.093447416
       3071.9122      0.10138418
       3072.6460     0.071879130
       3073.3798     0.054467207
       3074.1136     0.066489796
       3074.8475     0.095530753
       3075.5813     0.075228673
       3076.3151     0.062475823
       3077.0489     0.079223838
       3077.7827     0.074917529
       3078.5166     0.050464387
       3079.2504     0.043585905
       3079.9842     0.064644645
       3080.7180     0.079016908
       3081.4518     0.076061590
       3082.1856     0.084927063
       3082.9195     0.093767447
       3083.6533     0.078254730
       3084.3871     0.091730721
       3085.1209     0.077302405
       3085.8547     0.072846106
       3086.5886     0.072944233
       3087.3224     0.087771600
       3088.0562     0.099793403
       3088.7900     0.072650532
       3089.5238     0.070767728
       3090.2577     0.073685932
       3090.9915     0.096430354
       3091.7253      0.11654168
       3092.4591      0.12256863
       3093.1929     0.094449678
       3093.9267     0.071149644
       3094.6606     0.075586226
       3095.3944      0.10714722
       3096.1282     0.097518098
       3096.8620     0.078011974
       3097.5958     0.069201851
       3098.3297     0.076935479
       3099.0635     0.081382046
       3099.7973     0.057857054
       3100.5311     0.065981310
       3101.2649     0.064972080
       3101.9987     0.070886324
       3102.7326     0.093465750
       3103.4664     0.085792815
       3104.2002     0.057299730
       3104.9340     0.057795060
       3105.6678     0.072791746
       3106.4017     0.094990267
       3107.1355     0.085431301
       3107.8693     0.086908249
       3108.6031     0.085354368
       3109.3369     0.069813814
       3110.0707     0.079538600
       3110.8046     0.077777098
       3111.5384     0.081708809
       3112.2722      0.10012695
       3113.0060      0.11199411
       3113.7398     0.095703632
       3114.4737     0.096547431
       3115.2075     0.081539527
       3115.9413     0.053138627
       3116.6751     0.071379507
       3117.4089     0.090957855
       3118.1427     0.087782581
       3118.8766     0.081708016
       3119.6104     0.093306463
       3120.3442      0.11399515
       3121.0780      0.11833563
       3121.8118      0.10995781
       3122.5457      0.10640169
       3123.2795     0.090365932
       3124.0133     0.061448477
       3124.7471     0.083302208
       3125.4809      0.10942647
       3126.2147      0.10489291
       3126.9486     0.095370504
       3127.6824      0.10960798
       3128.4162     0.091100713
       3129.1500     0.082189448
       3129.8838     0.096903673
       3130.6177     0.084336269
       3131.3515     0.080783027
       3132.0853     0.089630361
       3132.8191     0.092125565
       3133.5529     0.089304989
       3134.2867     0.088098052
       3135.0206     0.068841579
       3135.7544     0.070476406
       3136.4882     0.094192183
       3137.2220     0.074095204
       3137.9558     0.069981089
       3138.6897     0.066622388
       3139.4235     0.063441829
       3140.1573     0.079478613
       3140.8911      0.10017462
       3141.6249      0.10319583
       3142.3588      0.11452099
       3143.0926      0.11750074
       3143.8264      0.11258013
       3144.5602     0.083781106
       3145.2940     0.076953328
       3146.0278      0.12557024
       3146.7617      0.11490679
       3147.4955     0.091603182
       3148.2293     0.076273104
       3148.9631     0.073577314
       3149.6969     0.085260039
       3150.4308     0.097923802
       3151.1646      0.10575103
       3151.8984     0.089926924
       3152.6322     0.077207112
       3153.3660     0.083529511
       3154.0998     0.058937741
       3154.8337     0.069553067
       3155.5675     0.099860253
       3156.3013     0.076312413
       3157.0351     0.066839758
       3157.7689     0.081191695
       3158.5028     0.088967680
       3159.2366     0.082955603
       3159.9704     0.058655644
       3160.7042     0.069057401
       3161.4380     0.095202440
       3162.1718      0.10395100
       3162.9057      0.10773166
       3163.6395     0.099451533
       3164.3733     0.099541737
       3165.1071     0.096108377
       3165.8409     0.081628436
       3166.5748     0.081546162
       3167.3086     0.089556772
       3168.0424     0.094322040
       3168.7762      0.10664640
       3169.5100      0.10565120
       3170.2438     0.097731924
       3170.9777     0.096958057
       3171.7115     0.092407819
       3172.4453     0.076182033
       3173.1791     0.095312441
       3173.9129      0.11156302
       3174.6468     0.098252827
       3175.3806     0.087440117
       3176.1144     0.081124469
       3176.8482     0.086977689
       3177.5820     0.086136271
       3178.3158      0.10526681
       3179.0497     0.083262466
       3179.7835     0.089056551
       3180.5173     0.089248172
       3181.2511     0.082699348
       3181.9849      0.10116496
       3182.7188     0.089857254
       3183.4526     0.090480032
       3184.1864     0.084302597
       3184.9202     0.097676521
       3185.6540     0.091216426
       3186.3878     0.061614165
       3187.1217     0.091552536
       3187.8555      0.10729661
       3188.5893     0.097211143
       3189.3231      0.10427016
       3190.0569      0.11098339
       3190.7908      0.10690166
       3191.5246     0.099051010
       3192.2584     0.076901670
       3192.9922     0.090820243
       3193.7260      0.11342446
       3194.4599      0.12826875
       3195.1937     0.096830735
       3195.9275     0.074864193
       3196.6613     0.076280220
       3197.3951      0.10265845
       3198.1289      0.10578216
       3198.8628     0.082974444
       3199.5966     0.081385433
       3200.3304     0.059495095
       3201.0642     0.043545128
       3201.7980     0.094620128
       3202.5319      0.10640462
       3203.2657      0.10536443
       3203.9995      0.10580940
       3204.7333     0.085130750
       3205.4671     0.084585864
       3206.2009      0.10730975
       3206.9348     0.092217898
       3207.6686     0.075342170
       3208.4024     0.087629587
       3209.1362      0.10511654
       3209.8700     0.081350231
       3210.6039      0.11201624
       3211.3377      0.12047451
       3212.0715     0.096516873
       3212.8053     0.084159328
       3213.5391     0.083065001
       3214.2729     0.097859229
       3215.0068     0.093819572
       3215.7406     0.094837742
       3216.4744     0.081085773
       3217.2082     0.045043681
       3217.9420     0.077848139
       3218.6759      0.11126320
       3219.4097     0.086125339
       3220.1435     0.099373186
       3220.8773     0.096472470
       3221.6111     0.091487266
       3222.3449     0.084724793
       3223.0788      0.10835619
       3223.8126      0.10211142
       3224.5464      0.11002393
       3225.2802     0.096580317
       3226.0140     0.090584279
       3226.7479     0.088477781
       3227.4817      0.10915549
       3228.2155      0.11286937
       3228.9493     0.077562897
       3229.6831     0.091580291
       3230.4169      0.11072221
       3231.1508     0.090968686
       3231.8846     0.086297725
       3232.6184     0.082914257
       3233.3522     0.071245963
       3234.0860     0.063200862
       3234.8199     0.073914829
       3235.5537      0.10459549
       3236.2875      0.11513246
       3237.0213     0.088691105
       3237.7551     0.082556805
       3238.4889     0.071505158
       3239.2228     0.092205243
       3239.9566      0.10214210
       3240.6904      0.10528927
       3241.4242      0.11240537
       3242.1580     0.091504228
       3242.8919     0.085328759
       3243.6257     0.096086479
       3244.3595      0.11380779
       3245.0933      0.14043238
       3245.8271      0.12135046
       3246.5610      0.10565177
       3247.2948     0.099604626
       3248.0286      0.10129983
       3248.7624     0.094958618
       3249.4962     0.076678102
       3250.2300      0.11223406
       3250.9639      0.12775721
       3251.6977     0.087372847
       3252.4315     0.078940898
       3253.1653     0.080862216
       3253.8991     0.097781775
       3254.6330     0.074833013
       3255.3668     0.093733075
       3256.1006     0.099351915
       3256.8344     0.089303386
       3257.5682     0.083570413
       3258.3020     0.095708296
       3259.0359     0.095911457
       3259.7697     0.088144355
       3260.5035     0.088251110
       3261.2373     0.096007528
       3261.9711      0.12664743
       3262.7050      0.11978662
       3263.4388     0.089043484
       3264.1726     0.086193384
       3264.9064      0.11274604
       3265.6402      0.11819121
       3266.3740      0.10169968
       3267.1079     0.075737051
       3267.8417     0.080457657
       3268.5755     0.089164641
       3269.3093     0.081564916
       3270.0431      0.10333826
       3270.7770     0.079959008
       3271.5108     0.085158890
       3272.2446      0.10882311
       3272.9784      0.13151571
       3273.7122      0.10595505
       3274.4460      0.11605458
       3275.1799      0.10444895
       3275.9137     0.095669265
       3276.6475      0.11626719
       3277.3813      0.11081271
       3278.1151     0.092172722
       3278.8490     0.080286052
       3279.5828      0.10220506
       3280.3166      0.11396247
       3281.0504      0.11326606
       3281.7842      0.11001245
       3282.5180     0.084948749
       3283.2519     0.073145973
       3283.9857     0.099577529
       3284.7195     0.086993584
       3285.4533     0.090748667
       3286.1871      0.10546675
       3286.9210     0.095608491
       3287.6548      0.11314579
       3288.3886      0.10654886
       3289.1224     0.094332138
       3289.8562      0.10734525
       3290.5901      0.12401456
       3291.3239      0.11854738
       3292.0577      0.11240199
       3292.7915      0.11701731
       3293.5253      0.11544602
       3294.2591      0.11819095
       3294.9930     0.091231702
       3295.7268     0.094948075
       3296.4606      0.11004896
       3297.1944      0.12504164
       3297.9282      0.13699712
       3298.6621      0.12393354
       3299.3959     0.062931289
       3300.1297     0.077748341
       3300.8635      0.12179165
       3301.5973      0.12054978
       3302.3311      0.10347325
       3303.0650      0.11840883
       3303.7988      0.10297918
       3304.5326     0.090862390
       3305.2664     0.094238566
       3306.0002     0.098838241
       3306.7341      0.11519215
       3307.4679      0.11518869
       3308.2017      0.11980615
       3308.9355      0.12174537
       3309.6693      0.10107548
       3310.4031      0.10600809
       3311.1370     0.099052805
       3311.8708     0.084504731
       3312.6046      0.13349281
       3313.3384      0.12576732
       3314.0722      0.12655700
       3314.8061      0.13234848
       3315.5399      0.12314165
       3316.2737      0.11651664
       3317.0075      0.15664454
       3317.7413      0.14938966
       3318.4751      0.14901722
       3319.2090      0.13993464
       3319.9428     0.081374707
       3320.6766     0.075157820
       3321.4104     0.091176531
       3322.1442     0.091154940
       3322.8781      0.11536663
       3323.6119      0.13433293
       3324.3457     0.095175892
       3325.0795      0.10265620
       3325.8133     0.091219031
       3326.5471     0.091661706
       3327.2810      0.10053097
       3328.0148     0.094568464
       3328.7486     0.097815731
       3329.4824     0.088999981
       3330.2162      0.11659867
       3330.9501      0.11652772
       3331.6839      0.12493031
       3332.4177      0.11954773
       3333.1515     0.099384419
       3333.8853      0.10129817
       3334.6191      0.10641786
       3335.3530     0.078075288
       3336.0868     0.087474731
       3336.8206      0.11441791
       3337.5544      0.10003300
       3338.2882     0.084244951
       3339.0221     0.092036372
       3339.7559      0.10326833
       3340.4897      0.10681703
       3341.2235     0.092958984
       3341.9573      0.10205719
       3342.6912     0.090575653
       3343.4250      0.11491770
       3344.1588      0.10125363
       3344.8926      0.10178333
       3345.6264      0.12228011
       3346.3602      0.10721639
       3347.0941     0.088762653
       3347.8279     0.079479134
       3348.5617      0.10045310
       3349.2955     0.094397708
       3350.0293      0.11679554
       3350.7632      0.11825150
       3351.4970      0.10440869
       3352.2308     0.073389165
       3352.9646     0.077429008
       3353.6984      0.12089080
       3354.4322      0.11171023
       3355.1661     0.087905415
       3355.8999      0.11150753
       3356.6337      0.11970783
       3357.3675      0.10393873
       3358.1013      0.10789503
       3358.8352     0.087704649
       3359.5690      0.11043101
       3360.3028      0.12818379
       3361.0366      0.12902101
       3361.7704      0.12184834
       3362.5042      0.10197905
       3363.2381      0.10274597
       3363.9719      0.11715419
       3364.7057      0.11341308
       3365.4395      0.11582327
       3366.1733     0.099547619
       3366.9072      0.12387394
       3367.6410      0.10382018
       3368.3748      0.11939809
       3369.1086      0.10564679
       3369.8424      0.10364959
       3370.5762      0.11125110
       3371.3101      0.12178636
       3372.0439      0.11118306
       3372.7777     0.099525501
       3373.5115     0.055339694
       3374.2453     0.072405104
       3374.9792      0.10588238
       3375.7130      0.12790075
       3376.4468     0.097744729
       3377.1806     0.078007833
       3377.9144     0.061043682
       3378.6482     0.072767699
       3379.3821     0.099989641
       3380.1159      0.10443855
       3380.8497      0.10324687
       3381.5835     0.072517424
       3382.3173      0.11502849
       3383.0512     0.082044420
       3383.7850     0.081630993
       3384.5188      0.10496670
       3385.2526     0.088800963
       3385.9864     0.084137487
       3386.7202      0.11073980
       3387.4541      0.11000990
       3388.1879      0.11886019
       3388.9217      0.10207712
       3389.6555      0.14061715
       3390.3893      0.13251747
       3391.1232     0.087111502
       3391.8570      0.10705530
       3392.5908      0.11039764
       3393.3246      0.11516111
       3394.0584     0.094027453
       3394.7923     0.091309349
       3395.5261     0.076647553
       3396.2599     0.097099790
       3396.9937      0.10245282
       3397.7275     0.071931026
       3398.4613     0.094142983
       3399.1952      0.11629911
       3399.9290      0.11615670
       3400.6628      0.11870843
       3401.3966      0.10391283
       3402.1304     0.083365660
       3402.8643     0.090737753
       3403.5981     0.078893700
       3404.3319     0.086473678
       3405.0657      0.11860063
       3405.7995     0.095181716
       3406.5333      0.10738858
       3407.2672      0.13545308
       3408.0010      0.13496014
       3408.7348      0.11143400
       3409.4686      0.12276087
       3410.2024      0.12016221
       3410.9363      0.12186726
       3411.6701      0.10884773
       3412.4039     0.092762401
       3413.1377     0.078093266
       3413.8715     0.098583642
       3414.6053     0.088918445
       3415.3392      0.12409388
       3416.0730     0.092142844
       3416.8068     0.086181804
       3417.5406      0.11393897
       3418.2744      0.12228301
       3419.0083      0.11683732
       3419.7421     0.091432842
       3420.4759     0.098318615
       3421.2097      0.10320859
       3421.9435      0.10730913
       3422.6773      0.12522118
       3423.4112     0.088488201
       3424.1450      0.12502050
       3424.8788      0.13004751
       3425.6126     0.097039463
       3426.3464     0.097399150
       3427.0803     0.097105643
       3427.8141      0.11561088
       3428.5479      0.10258967
       3429.2817     0.091267731
       3430.0155      0.12667223
       3430.7493     0.087380905
       3431.4832      0.10413076
       3432.2170      0.12077029
       3432.9508      0.13749943
       3433.6846      0.10832796
       3434.4184      0.12135872
       3435.1523      0.11558986
       3435.8861     0.085190029
       3436.6199      0.11447027
       3437.3537      0.12985696
       3438.0875      0.13214527
       3438.8213     0.082339413
       3439.5552     0.067180651
       3440.2890     0.062192512
       3441.0228     0.062606122
       3441.7566     0.094794051
       3442.4904      0.11821750
       3443.2243      0.10715180
       3443.9581      0.11150912
       3444.6919      0.11065695
       3445.4257      0.13024646
       3446.1595      0.13021980
       3446.8934      0.12908060
       3447.6272      0.12147608
       3448.3610      0.13922794
       3449.0948     0.098451198
       3449.8286     0.074694470
       3450.5624     0.096951022
       3451.2963      0.13555585
       3452.0301      0.12388037
       3452.7639      0.11224873
       3453.4977      0.12502448
       3454.2315      0.11432242
       3454.9654      0.10603004
       3455.6992     0.061122505
       3456.4330     0.095788349
       3457.1668     0.097293685
       3457.9006     0.097295960
       3458.6344      0.11484982
       3459.3683      0.11176142
       3460.1021      0.10573254
       3460.8359     0.099635611
       3461.5697      0.11736639
       3462.3035     0.098895681
       3463.0374      0.13266256
       3463.7712      0.10601104
       3464.5050      0.11338987
       3465.2388      0.12087362
       3465.9726      0.13582425
       3466.7064      0.11653479
       3467.4403      0.11913799
       3468.1741      0.13294266
       3468.9079     0.094150361
       3469.6417      0.11866693
       3470.3755      0.11913477
       3471.1094      0.11962855
       3471.8432      0.10235810
       3472.5770     0.099513822
       3473.3108      0.11743083
       3474.0446      0.13340049
       3474.7784      0.12169581
       3475.5123      0.15641519
       3476.2461     0.096474834
       3476.9799      0.10528533
       3477.7137      0.12702983
       3478.4475      0.14150650
       3479.1814      0.15139844
       3479.9152      0.11306535
       3480.6490      0.12029413
       3481.3828     0.084402013
       3482.1166      0.11232084
       3482.8504      0.11764767
       3483.5843      0.10283458
       3484.3181      0.12611607
       3485.0519      0.10559853
       3485.7857      0.12659324
       3486.5195      0.12572281
       3487.2534      0.18187495
       3487.9872      0.15139091
       3488.7210      0.11183149
       3489.4548     0.094301952
       3490.1886     0.091226297
       3490.9224      0.11574169
       3491.6563      0.12695668
       3492.3901     0.094899933
       3493.1239     0.098428004
       3493.8577      0.11897677
       3494.5915      0.11877356
       3495.3254      0.14202253
       3496.0592      0.13277724
       3496.7930      0.12320196
       3497.5268      0.13818482
       3498.2606      0.12101933
       3498.9945      0.15781834
       3499.7283      0.11257027
       3500.4621      0.11521002
       3501.1959      0.15545340
       3501.9297      0.12520269
       3502.6635      0.12923759
       3503.3974      0.11110131
       3504.1312      0.11176791
       3504.8650      0.11264233
       3505.5988      0.11882538
       3506.3326      0.14274362
       3507.0665      0.11010001
       3507.8003     0.098693693
       3508.5341      0.11616391
       3509.2679      0.12148015
       3510.0017     0.091457754
       3510.7355      0.10207059
       3511.4694      0.12532373
       3512.2032      0.11536564
       3512.9370      0.13456661
       3513.6708     0.060890997
       3514.4046     0.096124686
       3515.1385      0.11792629
       3515.8723     0.079821420
       3516.6061     0.095549661
       3517.3399      0.10543645
       3518.0737      0.10389173
       3518.8075     0.089282020
       3519.5414      0.11843794
       3520.2752     0.096329966
       3521.0090     0.078875766
       3521.7428      0.12089333
       3522.4766      0.14502169
       3523.2105      0.13980657
       3523.9443      0.13440826
       3524.6781      0.11674259
       3525.4119     0.099226517
       3526.1457      0.12029600
       3526.8795      0.13256362
       3527.6134      0.14124831
       3528.3472      0.12391606
       3529.0810      0.12733511
       3529.8148     0.095943002
       3530.5486      0.12432675
       3531.2825      0.13420843
       3532.0163      0.14661551
       3532.7501      0.10829184
       3533.4839      0.12067453
       3534.2177      0.12266748
       3534.9515      0.12728769
       3535.6854      0.16868604
       3536.4192      0.13590706
       3537.1530      0.13280724
       3537.8868      0.13510888
       3538.6206      0.10381233
       3539.3545      0.11261472
       3540.0883     0.095444294
       3540.8221      0.10050925
       3541.5559      0.11923634
       3542.2897      0.11407591
       3543.0236      0.11732954
       3543.7574      0.12738845
       3544.4912     0.087908509
       3545.2250      0.11701332
       3545.9588      0.12745137
       3546.6926      0.14833064
       3547.4265      0.14161148
       3548.1603     0.076190357
       3548.8941      0.12861446
       3549.6279      0.13263925
       3550.3617      0.15104716
       3551.0956     0.083373540
       3551.8294      0.12045499
       3552.5632      0.10864325
       3553.2970      0.14125089
       3554.0308      0.10847447
       3554.7646      0.10410203
       3555.4985      0.13833065
       3556.2323      0.11173210
       3556.9661      0.10416584
       3557.6999      0.10030189
       3558.4337      0.11560469
       3559.1676     0.072367757
       3559.9014     0.087606989
       3560.6352     0.094003549
       3561.3690      0.13728463
       3562.1028      0.11006444
       3562.8366      0.11044503
       3563.5705     0.099988736
       3564.3043      0.13237918
       3565.0381      0.11354184
       3565.7719      0.12267452
       3566.5057      0.11776095
       3567.2396     0.096251543
       3567.9734      0.13746200
       3568.7072      0.13695828
       3569.4410      0.13267635
       3570.1748      0.12675475
       3570.9086     0.095768939
       3571.6425      0.11010013
       3572.3763      0.11330529
       3573.1101     0.086376333
       3573.8439      0.10586614
       3574.5777      0.10728367
       3575.3116     0.074139900
       3576.0454      0.13443518
       3576.7792      0.14526205
       3577.5130      0.12226456
       3578.2468     0.085472911
       3578.9806      0.11228638
       3579.7145      0.10661661
       3580.4483      0.11868073
       3581.1821     0.057117924
       3581.9159     0.098120945
       3582.6497      0.11195952
       3583.3836      0.11926580
       3584.1174      0.10391117
       3584.8512      0.11018378
       3585.5850     0.099104610
       3586.3188      0.11265191
       3587.0526     0.095910249
       3587.7865     0.058676626
       3588.5203      0.11874409
       3589.2541      0.13370259
       3589.9879      0.12515473
       3590.7217     0.093555154
       3591.4556      0.11237682
       3592.1894     0.090034252
       3592.9232      0.10432235
       3593.6570      0.13217334
       3594.3908      0.11120599
       3595.1247      0.13223818
       3595.8585      0.13296568
       3596.5923      0.10411098
       3597.3261     0.072595767
       3598.0599      0.12123916
       3598.7937      0.12348340
       3599.5276      0.12186518
       3600.2614      0.10312955
       3600.9952      0.12444978
       3601.7290     0.091954068
       3602.4628      0.11070364
       3603.1967      0.12495771
       3603.9305      0.15860579
       3604.6643     0.084836285
       3605.3981     0.096743224
       3606.1319      0.10621479
       3606.8657      0.14031080
       3607.5996      0.13766723
       3608.3334      0.11254930
       3609.0672      0.15250877
       3609.8010      0.15959082
       3610.5348      0.17673838
       3611.2687     0.097534448
       3612.0025     0.097838325
       3612.7363      0.11933394
       3613.4701      0.11104668
       3614.2039      0.11171257
       3614.9377     0.080189134
       3615.6716      0.14522660
       3616.4054      0.13219709
       3617.1392      0.14880303
       3617.8730      0.14095523
       3618.6068      0.14088105
       3619.3407     0.089587323
       3620.0745     0.091644476
       3620.8083      0.13805380
       3621.5421      0.10617496
       3622.2759     0.094837881
       3623.0097      0.12682444
       3623.7436     0.090270369
       3624.4774      0.13040419
       3625.2112      0.11303034
       3625.9450      0.12386878
       3626.6788      0.11368305
       3627.4127      0.10821933
       3628.1465      0.14801248
       3628.8803      0.13757967
       3629.6141      0.13263975
       3630.3479      0.11934970
       3631.0817      0.13792311
       3631.8156     0.071616352
       3632.5494      0.12577439
       3633.2832      0.13798417
       3634.0170     0.092179975
       3634.7508      0.10581753
       3635.4847      0.13430441
       3636.2185      0.12615894
       3636.9523      0.12686835
       3637.6861      0.12113413
       3638.4199      0.10689475
       3639.1537      0.13816420
       3639.8876      0.10667831
       3640.6214     0.083134301
       3641.3552      0.12121071
       3642.0890      0.15214938
       3642.8228      0.17258086
       3643.5567      0.17210515
       3644.2905      0.12489741
       3645.0243      0.15104380
       3645.7581      0.13153227
       3646.4919      0.13621038
       3647.2258      0.14884129
       3647.9596      0.12043230
       3648.6934      0.15772003
       3649.4272      0.15520443
       3650.1610      0.11603761
       3650.8948      0.12988555
       3651.6287      0.11883173
       3652.3625     0.086136276
       3653.0963      0.12560354
       3653.8301      0.12213423
       3654.5639      0.12035697
       3655.2978      0.11554809
       3656.0316      0.12173542
       3656.7654      0.13765506
       3657.4992      0.10913276
       3658.2330     0.098850984
       3658.9668     0.094743583
       3659.7007      0.13925855
       3660.4345      0.11413654
       3661.1683     0.093958504
       3661.9021      0.12409999
       3662.6359     0.080186115
       3663.3698      0.11382971
       3664.1036      0.11248247
       3664.8374      0.14146634
       3665.5712     0.096436512
       3666.3050      0.11272178
       3667.0388      0.12661768
       3667.7727      0.13366901
       3668.5065      0.10848800
       3669.2403      0.12145699
       3669.9741      0.12407374
       3670.7079      0.12545654
       3671.4418      0.13399428
       3672.1756      0.12074694
       3672.9094     0.093581395
       3673.6432      0.10477745
       3674.3770      0.13251240
       3675.1108      0.13129843
       3675.8447      0.14034603
       3676.5785      0.11539829
       3677.3123      0.13302814
       3678.0461      0.12377935
       3678.7799      0.12991739
       3679.5138     0.093732363
       3680.2476      0.12972468
       3680.9814      0.11248662
       3681.7152      0.13679455
       3682.4490      0.11882552
       3683.1828      0.12659436
       3683.9167      0.14992252
       3684.6505     0.093116449
       3685.3843     0.099396590
       3686.1181      0.10529918
       3686.8519      0.11243072
       3687.5858     0.094205955
       3688.3196      0.13412440
       3689.0534      0.14158200
       3689.7872      0.13267631
       3690.5210     0.090825861
       3691.2548     0.086060423
       3691.9887     0.071018861
       3692.7225     0.091448912
       3693.4563     0.065152239
       3694.1901     0.084903340
       3694.9239      0.13459857
       3695.6578      0.13700004
       3696.3916      0.15509824
       3697.1254      0.15930620
       3697.8592     0.072227094
       3698.5930      0.11955395
       3699.3269     0.060928045
       3700.0607      0.13184614
       3700.7945      0.11868348
       3701.5283      0.15469728
       3702.2621      0.12392726
       3702.9959      0.12302118
       3703.7298      0.18187753
       3704.4636      0.11277566
       3705.1974      0.14333860
       3705.9312      0.16055794
       3706.6650      0.13317594
       3707.3989     0.099328483
       3708.1327     0.095188441
       3708.8665      0.13213829
       3709.6003      0.12685211
       3710.3341      0.17664315
       3711.0679      0.22601578
       3711.8018      0.29289503
       3712.5356      0.40074307
       3713.2694      0.43548173
       3714.0032      0.52177579
       3714.7370      0.53805528
       3715.4709      0.55301769
       3716.2047      0.51184206
       3716.9385      0.42014911
       3717.6723      0.31537800
       3718.4061      0.18305236
       3719.1399      0.13564033
       3719.8738     0.090894588
       3720.6076      0.13679660
       3721.3414      0.12156205
       3722.0752     0.097488748
       3722.8090      0.11216947
       3723.5429     0.093348893
       3724.2767     0.086278977
       3725.0105      0.10278181
       3725.7443      0.14453432
       3726.4781      0.12720276
       3727.2119      0.16291845
       3727.9458      0.13268035
       3728.6796     0.086358139
       3729.4134     0.093968234
       3730.1472      0.16311225
       3730.8810      0.10433872
       3731.6149     0.078198658
       3732.3487      0.10500907
       3733.0825      0.10986286
       3733.8163      0.10790388
       3734.5501     0.089761138
       3735.2839     0.062086684
       3736.0178     0.077216795
       3736.7516      0.11200375
       3737.4854      0.10421393
       3738.2192      0.11465602
       3738.9530      0.15320831
       3739.6869      0.17093081
       3740.4207      0.12507479
       3741.1545     0.085982313
       3741.8883      0.13659442
       3742.6221      0.19531586
       3743.3559      0.12650024
       3744.0898      0.14178581
       3744.8236      0.13658466
       3745.5574      0.14464606
       3746.2912      0.15989194
       3747.0250      0.15705628
       3747.7589      0.14168068
       3748.4927      0.12254174
       3749.2265      0.12898677
       3749.9603     0.097363246
       3750.6941      0.14780339
       3751.4280      0.16616757
       3752.1618      0.13492233
       3752.8956      0.15885589
       3753.6294      0.13608618
       3754.3632      0.10117682
       3755.0970     0.099846070
       3755.8309      0.11340097
       3756.5647      0.13559162
       3757.2985      0.11952882
       3758.0323     0.073213859
       3758.7661     0.074426540
       3759.5000     0.098925569
       3760.2338      0.13875591
       3760.9676      0.13053821
       3761.7014      0.15505492
       3762.4352     0.096105363
       3763.1690      0.12607750
       3763.9029     0.095327918
       3764.6367     -0.23971622
       3765.3705      0.16324800
       3766.1043      0.35154437
       3766.8381     0.088321156
       3767.5720     -0.14438324
       3768.3058     0.043497086
       3769.0396      0.24093262
       3769.7734     0.046564401
       3770.5072     -0.27914874
       3771.2410    -0.044706242
       3771.9749     0.061387280
       3772.7087      0.10730052
       3773.4425      0.11780919
       3774.1763      0.15130702
       3774.9101      0.12259708
       3775.6440      0.12527088
       3776.3778      0.14745677
       3777.1116      0.15251253
       3777.8454      0.14821142
       3778.5792      0.10281698
       3779.3130     0.040549917
       3780.0469     0.082068419
       3780.7807     0.066105068
       3781.5145      0.10254730
       3782.2483      0.10420427
       3782.9821     0.068091814
       3783.7160     0.087101542
       3784.4498      0.10628819
       3785.1836      0.11130527
       3785.9174      0.14895727
       3786.6512      0.15642557
       3787.3850     0.091596275
       3788.1189      0.10317677
       3788.8527      0.11335336
       3789.5865      0.11309713
       3790.3203      0.11535142
       3791.0541      0.11448124
       3791.7880     0.095909844
       3792.5218      0.14240414
       3793.2556      0.12308488
       3793.9894      0.11231655
       3794.7232      0.10365957
       3795.4571      0.12463006
       3796.1909      0.15266717
       3796.9247      0.11185882
       3797.6585     0.093072146
       3798.3923      0.14112550
       3799.1261      0.11380310
       3799.8600     0.051620670
       3800.5938     0.082771624
       3801.3276     0.061472235
       3802.0614      0.10907426
       3802.7952     0.073363943
       3803.5291     0.067670167
       3804.2629     0.064706153
       3804.9967      0.13235868
       3805.7305      0.13001800
       3806.4643      0.10085330
       3807.1981     0.098407506
       3807.9320      0.11218537
       3808.6658     0.085411272
       3809.3996     0.091914615
       3810.1334     0.073783300
       3810.8672     0.077440960
       3811.6011     0.049554996
       3812.3349     0.050718880
       4321.2889      0.48721192
       4322.0926      0.60973022
       4322.8962      0.61967206
       4323.6998      0.51891266
       4324.5035      0.48526976
       4325.3071      0.40170209
       4326.1107      0.39324601
       4326.9144      0.30282145
       4327.7180      0.45051247
       4328.5217      0.41100425
       4329.3253      0.38243714
       4330.1289      0.42853384
       4330.9326      0.47014202
       4331.7362      0.46461087
       4332.5399      0.50301372
       4333.3435      0.63103217
       4334.1471      0.54566177
       4334.9508      0.36518985
       4335.7544      0.38638915
       4336.5581      0.41330858
       4337.3617      0.52274670
       4338.1653      0.47734774
       4338.9690      0.48907652
       4339.7726      0.46470102
       4340.5763      0.35569718
       4341.3799      0.38628329
       4342.1835      0.46879521
       4342.9872      0.35126311
       4343.7908      0.40677373
       4344.5945      0.52458253
       4345.3981      0.49782379
       4346.2017      0.47366318
       4347.0054      0.42494566
       4347.8090      0.41917402
       4348.6127      0.38694005
       4349.4163      0.48031100
       4350.2199      0.47725288
       4351.0236      0.48797956
       4351.8272      0.38215347
       4352.6309      0.47253611
       4353.4345      0.48557195
       4354.2381      0.49123534
       4355.0418      0.60572112
       4355.8454      0.48780564
       4356.6490      0.40968492
       4357.4527      0.31497183
       4358.2563      0.45904538
       4359.0600      0.32071575
       4359.8636      0.51621250
       4360.6672      0.48160272
       4361.4709      0.54086726
       4362.2745      0.54786786
       4363.0782      0.43290672
       4363.8818      0.52995593
       4364.6854      0.53291306
       4365.4891      0.46228320
       4366.2927      0.49491710
       4367.0964      0.49762239
       4367.9000      0.36839733
       4368.7036      0.41904867
       4369.5073      0.53613441
       4370.3109      0.48901882
       4371.1146      0.44191936
       4371.9182      0.46026645
       4372.7218      0.45341253
       4373.5255      0.44153131
       4374.3291      0.49476697
       4375.1328      0.50851493
       4375.9364      0.46187318
       4376.7400      0.52312450
       4377.5437      0.52962704
       4378.3473      0.49467896
       4379.1510      0.46625357
       4379.9546      0.40807304
       4380.7582      0.50681826
       4381.5619      0.50629428
       4382.3655      0.53551552
       4383.1692      0.46103269
       4383.9728      0.51483679
       4384.7764      0.54142483
       4385.5801      0.54564352
       4386.3837      0.55087818
       4387.1873      0.54596733
       4387.9910      0.53353366
       4388.7946      0.49058331
       4389.5983      0.42673406
       4390.4019      0.50061353
       4391.2055      0.39882445
       4392.0092      0.44543821
       4392.8128      0.45266543
       4393.6165      0.42991675
       4394.4201      0.44883344
       4395.2237      0.55119939
       4396.0274      0.48532210
       4396.8310      0.49574804
       4397.6347      0.64154982
       4398.4383      0.55479314
       4399.2419      0.53571989
       4400.0456      0.60588349
       4400.8492      0.46879618
       4401.6529      0.50494611
       4402.4565      0.47902497
       4403.2601      0.54672434
       4404.0638      0.56372715
       4404.8674      0.66246435
       4405.6711      0.54625836
       4406.4747      0.55340659
       4407.2783      0.48748672
       4408.0820      0.46739896
       4408.8856      0.58275954
       4409.6893      0.56161790
       4410.4929      0.50371074
       4411.2965      0.44982255
       4412.1002      0.47847278
       4412.9038      0.47349557
       4413.7075      0.52803731
       4414.5111      0.47566340
       4415.3147      0.45035650
       4416.1184      0.52729931
       4416.9220      0.55826301
       4417.7256      0.61099074
       4418.5293      0.53886640
       4419.3329      0.39675465
       4420.1366      0.53078303
       4420.9402      0.58387522
       4421.7438      0.58142258
       4422.5475      0.53091679
       4423.3511      0.48320710
       4424.1548      0.47887865
       4424.9584      0.55801489
       4425.7620      0.60570266
       4426.5657      0.46517217
       4427.3693      0.54097765
       4428.1730      0.46657854
       4428.9766      0.52166410
       4429.7802      0.52153099
       4430.5839      0.46304921
       4431.3875      0.55092500
       4432.1912      0.52409355
       4432.9948      0.45370096
       4433.7984      0.54765150
       4434.6021      0.61160870
       4435.4057      0.54549190
       4436.2094      0.57574175
       4437.0130      0.46344513
       4437.8166      0.62370348
       4438.6203      0.59360579
       4439.4239      0.69880483
       4440.2276      0.41734000
       4441.0312      0.50044770
       4441.8348      0.58370343
       4442.6385      0.50696903
       4443.4421      0.50869989
       4444.2457      0.55183541
       4445.0494      0.50068423
       4445.8530      0.47651764
       4446.6567      0.59152570
       4447.4603      0.63317952
       4448.2639      0.65316930
       4449.0676      0.56546619
       4449.8712      0.59684093
       4450.6749      0.61232755
       4451.4785      0.54110851
       4452.2821      0.55397521
       4453.0858      0.50067641
       4453.8894      0.46916199
       4454.6931      0.37809232
       4455.4967      0.43957984
       4456.3003      0.47621653
       4457.1040      0.50434648
       4457.9076      0.46045826
       4458.7113      0.43453927
       4459.5149      0.54138491
       4460.3185      0.47711723
       4461.1222      0.41598944
       4461.9258      0.52448766
       4462.7295      0.61338037
       4463.5331      0.56367062
       4464.3367      0.56642984
       4465.1404      0.52370238
       4465.9440      0.53639705
       4466.7477      0.49954740
       4467.5513      0.40694000
       4468.3549      0.54892364
       4469.1586      0.56086523
       4469.9622      0.49105820
       4470.7659      0.57271259
       4471.5695      0.59985422
       4472.3731      0.61688070
       4473.1768      0.53848207
       4473.9804      0.49498586
       4474.7840      0.48533431
       4475.5877      0.45671914
       4476.3913      0.47979803
       4477.1950      0.55896958
       4477.9986      0.59740349
       4478.8022      0.58653086
       4479.6059      0.58408725
       4480.4095      0.59475942
       4481.2132      0.58554886
       4482.0168      0.58907274
       4482.8204      0.56047154
       4483.6241      0.56924567
       4484.4277      0.44933192
       4485.2314      0.58638086
       4486.0350      0.56900713
       4486.8386      0.59133548
       4487.6423      0.59857138
       4488.4459      0.53517485
       4489.2496      0.50085787
       4490.0532      0.59565130
       4490.8568      0.64529877
       4491.6605      0.56469858
       4492.4641      0.59133059
       4493.2678      0.56644286
       4494.0714      0.71962109
       4494.8750      0.64545443
       4495.6787      0.59111380
       4496.4823      0.53130857
       4497.2860      0.54850712
       4498.0896      0.53459477
       4498.8932      0.57445884
       4499.6969      0.62198899
       4500.5005      0.57119718
       4501.3042      0.61409199
       4502.1078      0.59179079
       4502.9114      0.51258039
       4503.7151      0.56471154
       4504.5187      0.72262148
       4505.3223      0.57816086
       4506.1260      0.59877850
       4506.9296      0.57445280
       4507.7333      0.60309469
       4508.5369      0.46032356
       4509.3405      0.57982334
       4510.1442      0.64557762
       4510.9478      0.63754535
       4511.7515      0.67136665
       4512.5551      0.55447352
       4513.3587      0.61700923
       4514.1624      0.61298309
       4514.9660      0.61985150
       4515.7697      0.64438797
       4516.5733      0.48062416
       4517.3769      0.54955225
       4518.1806      0.55249699
       4518.9842      0.60156205
       4519.7879      0.58819084
       4520.5915      0.56197075
       4521.3951      0.55321933
       4522.1988      0.65878484
       4523.0024      0.63401801
       4523.8061      0.64726494
       4524.6097      0.57741590
       4525.4133      0.55364996
       4526.2170      0.57911959
       4527.0206      0.67652795
       4527.8243      0.65261968
       4528.6279      0.72028221
       4529.4315      0.61681085
       4530.2352      0.56686695
       4531.0388      0.50352361
       4531.8425      0.57177654
       4532.6461      0.55072510
       4533.4497      0.43087866
       4534.2534      0.64770337
       4535.0570      0.77431430
       4535.8606      0.75222264
       4536.6643      0.71843473
       4537.4679      0.69200724
       4538.2716      0.62326821
       4539.0752      0.62089323
       4539.8788      0.63401313
       4540.6825      0.55844064
       4541.4861      0.61450753
       4542.2898      0.61062559
       4543.0934      0.51426999
       4543.8970      0.48880316
       4544.7007      0.49672625
       4545.5043      0.62760451
       4546.3080      0.61836772
       4547.1116      0.60890276
       4547.9152      0.56403511
       4548.7189      0.61630825
       4549.5225      0.58555336
       4550.3262      0.58041156
       4551.1298      0.65859974
       4551.9334      0.61367304
       4552.7371      0.63192899
       4553.5407      0.64311449
       4554.3444      0.64317374
       4555.1480      0.66486445
       4555.9516      0.60455215
       4556.7553      0.62614985
       4557.5589      0.62415583
       4558.3626      0.58365376
       4559.1662      0.67548167
       4559.9698      0.64885424
       4560.7735      0.68307275
       4561.5771      0.55833025
       4562.3808      0.47232554
       4563.1844      0.39552550
       4563.9880      0.42904983
       4564.7917      0.58088360
       4565.5953      0.64634061
       4566.3989      0.68275582
       4567.2026      0.62955772
       4568.0062      0.58456554
       4568.8099      0.69002049
       4569.6135      0.55232553
       4570.4171      0.66569373
       4571.2208      0.60159918
       4572.0244      0.62305337
       4572.8281      0.61088471
       4573.6317      0.55320385
       4574.4353      0.54464409
       4575.2390      0.65273730
       4576.0426      0.48708979
       4576.8463      0.58926403
       4577.6499      0.57616956
       4578.4535      0.62877717
       4579.2572      0.58851952
       4580.0608      0.64379981
       4580.8645      0.67505045
       4581.6681      0.64447932
       4582.4717      0.62880805
       4583.2754      0.61824923
       4584.0790      0.52228063
       4584.8827      0.61624060
       4585.6863      0.62051631
       4586.4899      0.66939851
       4587.2936      0.63670743
       4588.0972      0.55180839
       4588.9009      0.59798503
       4589.7045      0.57302326
       4590.5081      0.48687690
       4591.3118      0.64982646
       4592.1154      0.66832066
       4592.9191      0.67076714
       4593.7227      0.66787927
       4594.5263      0.73733188
       4595.3300      0.77242645
       4596.1336      0.69048279
       4596.9372      0.75864000
       4597.7409      0.67945056
       4598.5445      0.73490989
       4599.3482      0.68117560
       4600.1518      0.72204128
       4600.9554      0.75526152
       4601.7591      0.57861554
       4602.5627      0.64341448
       4603.3664      0.78783028
       4604.1700      0.67917593
       4604.9736      0.67728183
       4605.7773      0.66491363
       4606.5809      0.71248151
       4607.3846      0.67808457
       4608.1882      0.68803691
       4608.9918      0.68984252
       4609.7955      0.75030608
       4610.5991      0.62249754
       4611.4028      0.64581917
       4612.2064      0.61183091
       4613.0100      0.65181356
       4613.8137      0.56563496
       4614.6173      0.57570104
       4615.4210      0.66746700
       4616.2246      0.78718400
       4617.0282      0.73365141
       4617.8319      0.62095123
       4618.6355      0.62068956
       4619.4392      0.66622958
       4620.2428      0.60052356
       4621.0464      0.52363550
       4621.8501      0.60796399
       4622.6537      0.75080726
       4623.4574      0.84973406
       4624.2610      0.69410988
       4625.0646      0.64984521
       4625.8683      0.61632457
       4626.6719      0.64831141
       4627.4755      0.77959399
       4628.2792      0.75248341
       4629.0828      0.75563748
       4629.8865      0.83058445
       4630.6901      0.71977436
       4631.4937      0.61809272
       4632.2974      0.77293865
       4633.1010      0.77183424
       4633.9047      0.75292203
       4634.7083      0.70357984
       4635.5119      0.66459963
       4636.3156      0.60639165
       4637.1192      0.69248241
       4637.9229      0.64664729
       4638.7265      0.60851564
       4639.5301      0.68917187
       4640.3338      0.72301650
       4641.1374      0.70749165
       4641.9411      0.71293088
       4642.7447      0.70878350
       4643.5483      0.70654927
       4644.3520      0.65460176
       4645.1556      0.62969204
       4645.9593      0.88947489
       4646.7629      0.84375890
       4647.5665      0.75461363
       4648.3702      0.66900119
       4649.1738      0.64467535
       4649.9775      0.54006225
       4650.7811      0.51991132
       4651.5847      0.58755873
       4652.3884      0.60916579
       4653.1920      0.59892956
       4653.9956      0.60744221
       4654.7993      0.68421885
       4655.6029      0.58754825
       4656.4066      0.61458414
       4657.2102      0.68107937
       4658.0138      0.64360302
       4658.8175      0.67835051
       4659.6211      0.66360549
       4660.4248      0.66318336
       4661.2284      0.61065554
       4662.0320      0.58793221
       4662.8357      0.58672890
       4663.6393      0.65257103
       4664.4430      0.53473181
       4665.2466      0.63595200
       4666.0502      0.57857366
       4666.8539      0.65077459
       4667.6575      0.62439672
       4668.4612      0.55564662
       4669.2648      0.63351817
       4670.0684      0.61491730
       4670.8721      0.59622366
       4671.6757      0.55703597
       4672.4794      0.54482059
       4673.2830      0.63729544
       4674.0866      0.72925580
       4674.8903      0.61572361
       4675.6939      0.72322702
       4676.4976      0.64565226
       4677.3012      0.72962289
       4678.1048      0.79656403
       4678.9085      0.69617997
       4679.7121      0.56654737
       4680.5158      0.66238354
       4681.3194      0.80760012
       4682.1230      0.69049210
       4682.9267      0.54680677
       4683.7303      0.65391563
       4684.5339      0.79699267
       4685.3376      0.69748859
       4686.1412      0.70785329
       4686.9449      0.67186913
       4687.7485      0.57376782
       4688.5521      0.60337312
       4689.3558      0.64955847
       4690.1594      0.62945980
       4690.9631      0.68378624
       4691.7667      0.85969408
       4692.5703      0.78460530
       4693.3740      0.61859420
       4694.1776      0.74246545
       4694.9813      0.78905081
       4695.7849      0.80726250
       4696.5885      0.71031156
       4697.3922      0.60638331
       4698.1958      0.73519215
       4698.9995      0.75736760
       4699.8031      0.70652938
       4700.6067      0.56076698
       4701.4104      0.61629469
       4702.2140      0.76762132
       4703.0177      0.61946149
       4703.8213      0.68584002
       4704.6249      0.65773238
       4705.4286      0.71150846
       4706.2322      0.80295724
       4707.0359      0.66119261
       4707.8395      0.66181213
       4708.6431      0.80811609
       4709.4468      0.79032296
       4710.2504      0.73557453
       4711.0541      0.69820774
       4711.8577      0.68215220
       4712.6613      0.81080167
       4713.4650      0.70716229
       4714.2686      0.67674438
       4715.0722      0.68494068
       4715.8759      0.69286893
       4716.6795      0.75858384
       4717.4832      0.75919867
       4718.2868      0.87712305
       4719.0904      0.90294728
       4719.8941      0.74513818
       4720.6977      0.74058988
       4721.5014      0.79178644
       4722.3050      0.71622727
       4723.1086      0.69527239
       4723.9123      0.68169598
       4724.7159      0.68175012
       4725.5196      0.75172629
       4726.3232      0.64670476
       4727.1268      0.80957870
       4727.9305      0.75836819
       4728.7341      0.81971077
       4729.5378      0.78072027
       4730.3414      0.74855222
       4731.1450      0.73605119
       4731.9487      0.82360525
       4732.7523      0.65249728
       4733.5560      0.63465955
       4734.3596      0.72731603
       4735.1632      0.81438166
       4735.9669      0.77404175
       4736.7705      0.75421176
       4737.5742      0.72710195
       4738.3778      0.74301207
       4739.1814      0.78390802
       4739.9851      0.73170156
       4740.7887      0.75548907
       4741.5924      0.68161229
       4742.3960      0.74733996
       4743.1996      0.77122709
       4744.0033      0.66828049
       4744.8069      0.73764106
       4745.6105      0.66039474
       4746.4142      0.63470123
       4747.2178      0.76273260
       4748.0215      0.83136415
       4748.8251      0.61626236
       4749.6287      0.58274802
       4750.4324      0.73388457
       4751.2360      0.61138320
       4752.0397      0.72979946
       4752.8433      0.77047163
       4753.6469      0.78534810
       4754.4506      0.59822957
       4755.2542      0.64949003
       4756.0579      0.69380897
       4756.8615      0.71361700
       4757.6651      0.76676349
       4758.4688      0.64039296
       4759.2724      0.67215350
       4760.0761      0.69555292
       4760.8797      0.74319319
       4761.6833      0.68892736
       4762.4870      0.65347094
       4763.2906      0.71274375
       4764.0943      0.77512495
       4764.8979      0.68817694
       4765.7015      0.73875986
       4766.5052      0.82465513
       4767.3088      0.80138907
       4768.1125      0.67349298
       4768.9161      0.62139053
       4769.7197      0.74342535
       4770.5234      0.81372632
       4771.3270      0.68369400
       4772.1307      0.68092721
       4772.9343      0.71052091
       4773.7379      0.63675417
       4774.5416      0.70010893
       4775.3452      0.69053306
       4776.1488      0.79653194
       4776.9525      0.66372682
       4777.7561      0.76072494
       4778.5598      0.70296918
       4779.3634      0.73535043
       4780.1670      0.72852224
       4780.9707      0.73031209
       4781.7743      0.70355651
       4782.5780      0.75526316
       4783.3816      0.68572173
       4784.1852      0.69143159
       4784.9889      0.73679252
       4785.7925      0.73287696
       4786.5962      0.69977773
       4787.3998      0.68734679
       4788.2034      0.65792412
       4789.0071      0.67861733
       4789.8107      0.59080256
       4790.6144      0.76771459
       4791.4180      0.77462701
       4792.2216      0.75732974
       4793.0253      0.77697156
       4793.8289      0.82697503
       4794.6326      0.74070743
       4795.4362      0.80792737
       4796.2398      0.71405996
       4797.0435      0.74580801
       4797.8471      0.79812201
       4798.6508      0.87252534
       4799.4544      0.73857842
       4800.2580      0.65211578
       4801.0617      0.62981497
       4801.8653      0.80086501
       4802.6690      0.85927957
       4803.4726      0.83759248
       4804.2762      0.90420291
       4805.0799      0.82117142
       4805.8835      0.71270248
       4806.6871      0.75001666
       4807.4908      0.73403507
       4808.2944      0.72337228
       4809.0981      0.67285576
       4809.9017      0.71606361
       4810.7053      0.65945884
       4811.5090      0.76375954
       4812.3126      0.76446589
       4813.1163      0.85228533
       4813.9199      0.81668188
       4814.7235      0.81145149
       4815.5272      0.83021170
       4816.3308      0.78080040
       4817.1345      0.90481029
       4817.9381      0.75353735
       4818.7417      0.70824298
       4819.5454      0.75878292
       4820.3490      0.73058501
       4821.1527      0.83718705
       4821.9563      0.73894979
       4822.7599      0.66525862
       4823.5636      0.67274351
       4824.3672      0.71302353
       4825.1709      0.62966920
       4825.9745      0.75202556
       4826.7781      0.77839208
       4827.5818      0.89302700
       4828.3854      0.82300356
       4829.1891      0.88201564
       4829.9927      0.85828682
       4830.7963      0.87020200
       4831.6000      0.77947067
       4832.4036      0.68980397
       4833.2073      0.66955866
       4834.0109      0.88145468
       4834.8145      0.86819318
       4835.6182      0.70864474
       4836.4218      0.75021947
       4837.2254      0.67217038
       4838.0291      0.77586988
       4838.8327      0.77937900
       4839.6364      0.77725128
       4840.4400      0.79862684
       4841.2436      0.63103773
       4842.0473      0.60393427
       4842.8509      0.75295499
       4843.6546      0.73997949
       4844.4582      0.61712913
       4845.2618      0.68584077
       4846.0655      0.69556668
       4846.8691      0.61809168
       4847.6728      0.74643475
       4848.4764      0.71253356
       4849.2800      0.72826597
       4850.0837      0.70514501
       4850.8873      0.71052253
       4851.6910      0.65819469
       4852.4946      0.66367968
       4853.2982      0.71577862
       4854.1019      0.72506018
       4854.9055      0.66400518
       4855.7092      0.65063225
       4856.5128      0.95895407
       4857.3164       1.0863088
       4858.1201       1.2969508
       4858.9237       1.5354115
       4859.7274       1.5638575
       4860.5310       1.6454788
       4861.3346       1.5554523
       4862.1383       1.3810713
       4862.9419       1.1656182
       4863.7455      0.94822877
       4864.5492      0.76802959
       4865.3528      0.63832842
       4866.1565      0.71773030
       4866.9601      0.72688881
       4867.7637      0.74540169
       4868.5674      0.58052214
       4869.3710      0.59041140
       4870.1747      0.56402202
       4870.9783      0.68419242
       4871.7819      0.74509519
       4872.5856      0.58808484
       4873.3892      0.66206654
       4874.1929      0.71479231
       4874.9965      0.68106612
       4875.8001      0.76002045
       4876.6038      0.64483225
       4877.4074      0.72382255
       4878.2111      0.64834661
       4879.0147      0.74873182
       4879.8183      0.66290973
       4880.6220      0.59907639
       4881.4256      0.70265450
       4882.2293      0.70594810
       4883.0329      0.64064335
       4883.8365      0.58774957
       4884.6402      0.71892737
       4885.4438      0.68900747
       4886.2475      0.61029683
       4887.0511      0.72006713
       4887.8547      0.65757406
       4888.6584      0.69068233
       4889.4620      0.73821525
       4890.2657      0.79662902
       4891.0693      0.79854605
       4891.8729      0.66989562
       4892.6766      0.80068130
       4893.4802      0.78870873
       4894.2838      0.77299491
       4895.0875      0.75028772
       4895.8911      0.73075651
       4896.6948      0.67507832
       4897.4984      0.75593799
       4898.3020      0.69928143
       4899.1057      0.81648761
       4899.9093      0.66752584
       4900.7130      0.71560808
       4901.5166      0.66047575
       4902.3202      0.69051328
       4903.1239      0.78993073
       4903.9275      0.84390343
       4904.7312      0.81278772
       4905.5348      0.62603524
       4906.3384      0.65210740
       4907.1421      0.57178360
       4907.9457      0.76914344
       4908.7494      0.85391484
       4909.5530      0.97014125
       4910.3566      0.51233816
       4911.1603      0.81128592
       4911.9639      0.72145669
       4912.7676      0.71828528
       4913.5712      0.71734747
       4914.3748      0.77331710
       4915.1785      0.72775858
       4915.9821      0.84174425
       4916.7858      0.79231491
       4917.5894      0.90106290
       4918.3930      0.79200476
       4919.1967      0.70364287
       4920.0003      0.72019859
       4920.8040      0.79757793
       4921.6076      0.86121842
       4922.4112      0.64648963
       4923.2149      0.71844575
       4924.0185      0.66404773
       4924.8221      0.75713369
       4925.6258      0.90823839
       4926.4294      0.71134481
       4927.2331      0.70543679
       4928.0367      0.71760709
       4928.8403      0.86264844
       4929.6440      0.79649233
       4930.4476      0.66513728
       4931.2513      0.62716836
       4932.0549      0.49666543
       4932.8585      0.65887513
       4933.6622      0.84850766
       4934.4658      0.70098736
       4935.2695      0.58514949
       4936.0731      0.94991466
       4936.8767      0.94654403
       4937.6804      0.70026652
       4938.4840      0.80807485
       4939.2877      0.95505354
       4940.0913      0.72179140
       4940.8949      0.79704914
       4941.6986      0.80638379
       4942.5022      0.93841544
       4943.3059      0.79970716
       4944.1095      0.78415987
       4944.9131      0.63978853
       4945.7168      0.72787238
       4946.5204      0.71978402
       4947.3241      0.87845850
       4948.1277      0.78014648
       4948.9313      0.71252036
       4949.7350      0.71894925
       4950.5386      0.82226027
       4951.3423      0.68209601
       4952.1459      0.73246312
       4952.9495      0.70413737
       4953.7532      0.78563203
       4954.5568       1.1203554
       4955.3604       1.0677346
       4956.1641      0.84367748
       4956.9677      0.80555402
       4957.7714      0.75765904
       4958.5750      0.84477346
       4959.3786      0.75772022
       4960.1823      0.93042426
       4960.9859      0.92262615
       4961.7896      0.95073724
       4962.5932       1.1625154
       4963.3968      0.94333137
       4964.2005      0.87878868
       4965.0041      0.92437199
       4965.8078      0.68925762
       4966.6114      0.75629510
       4967.4150      0.73844905
       4968.2187      0.77019966
       4969.0223      0.68936735
       4969.8260      0.80353537
       4970.6296      0.90177826
       4971.4332      0.86645514
       4972.2369      0.92283750
       4973.0405      0.85198264
       4973.8442      0.69795381
       4974.6478      0.78251226
       4975.4514      0.65318339
       4976.2551      0.60555306
       4977.0587      0.68328596
       4977.8624      0.87621976
       4978.6660       1.0452085
       4979.4696       1.0139900
       4980.2733      0.94466163
       4981.0769      0.83248327
       4981.8806      0.85071385
       4982.6842      0.67859181
       4983.4878      0.71301442
       4984.2915      0.89437400
       4985.0951      0.73778416
       4985.8987      0.73051226
       4986.7024      0.71354430
       4987.5060      0.89121390
       4988.3097      0.90580828
       4989.1133      0.80076981
       4989.9169      0.81456512
       4990.7206       1.1049710
       4991.5242       1.1249400
       4992.3279      0.96138105
       4993.1315       1.1298597
       4993.9351       1.0412259
       4994.7388      0.96999041
       4995.5424      0.57336972
       4996.3461      0.47783444
       4997.1497      0.87636041
       4997.9533      0.86416724
       4998.7570      0.90823603
       4999.5606      0.75500005
       5000.3643       1.1079410
       5001.1679      0.92576137
       5001.9715      0.69108076
       5002.7752      0.77283088
       5003.5788      0.92273883
       5004.3825      0.98535954
       5005.1861       1.0474990
       5005.9897       1.2611504
       5006.7934       1.2767421
       5007.5970       1.3238879
       5008.4007       1.4517054
       5009.2043       1.2379198
       5010.0079       1.1109544
       5010.8116       1.1048473
       5011.6152      0.90267350
       5012.4189      0.83237768
       5013.2225      0.89546758
       5014.0261      0.93007583
       5014.8298      0.91222457
       5015.6334      0.90015055
       5016.4370      0.73722266
       5017.2407      0.77370041
       5018.0443      0.72573650
       5018.8480      0.91152099
       5019.6516      0.84005362
       5020.4552      0.89098098
       5021.2589      0.82885289
       5022.0625      0.94096231
       5022.8662      0.82487193
       5023.6698      0.86288391
       5024.4734      0.75367542
       5025.2771      0.72512848
       5026.0807      0.84561701
       5026.8844      0.85107137
       5027.6880      0.77924979
       5028.4916      0.80975328
       5029.2953      0.81121127
       5030.0989      0.74762638
       5030.9026      0.74003452
       5031.7062      0.87564439
       5032.5098      0.76400137
       5033.3135      0.82641105
       5034.1171      0.85853442
       5034.9208      0.85821579
       5035.7244      0.87060169
       5036.5280      0.72809821
       5037.3317      0.82403593
       5038.1353      0.88787164
       5038.9390       1.1539976
       5039.7426      0.88069437
       5040.5462      0.90634995
       5041.3499      0.91281612
       5042.1535      0.72004164
       5042.9572      0.85089948
       5043.7608      0.71148143
       5044.5644      0.68892196
       5045.3681      0.79402004
       5046.1717      0.88749877
       5046.9753      0.89140583
       5047.7790       1.1491423
       5048.5826      0.79796377
       5049.3863      0.71269450
       5050.1899      0.88460661
       5050.9935      0.87571206
       5051.7972      0.92936614
       5052.6008      0.94268832
       5053.4045      0.96904235
       5054.2081      0.95719911
       5055.0117      0.93120603
       5055.8154      0.84952337
       5056.6190      0.81824206
       5057.4227      0.88393309
       5058.2263      0.80072505
       5059.0299      0.87353794
       5059.8336      0.94534144
       5060.6372      0.90952489
       5061.4409      0.89804861
       5062.2445      0.97386448
       5063.0481       1.0677984
       5063.8518      0.98125135
       5064.6554      0.93968038
       5065.4591      0.89950663
       5066.2627      0.87257466
       5067.0663      0.78333693
       5067.8700      0.95604371
       5068.6736      0.99908480
       5069.4773      0.94246002
       5070.2809      0.95136515
       5071.0845      0.88719465
       5071.8882      0.84393557
       5072.6918      0.95854932
       5073.4954      0.96796953
       5074.2991      0.90093880
       5075.1027      0.83556588
       5075.9064      0.76084639
       5076.7100      0.89295266
       5077.5136       1.0118461
       5078.3173      0.73254162
       5079.1209      0.78474198
       5079.9246      0.82895105
       5080.7282      0.85332164
       5081.5318      0.88228901
       5082.3355       1.0126671
       5083.1391      0.80348655
       5083.9428      0.91160318
       5084.7464      0.77152087
       5085.5500      0.71838945
       5086.3537      0.73609533
       5087.1573      0.84269599
       5087.9610      0.76633405
       5088.7646      0.88982020
       5089.5682      0.84947022
       5090.3719      0.80353037
       5091.1755      0.95876172
       5091.9792      0.89779835
       5092.7828      0.92530890
       5093.5864      0.99746837
       5094.3901      0.99909348
       5095.1937      0.74552499
       5095.9974      0.81371421
       5096.8010      0.94499778
       5097.6046      0.91910179
       5098.4083      0.85923531
       5099.2119      0.97416000
       5100.0156      0.94634836
       5100.8192      0.97266795
       5101.6228      0.76097639
       5102.4265      0.75307791
       5103.2301      0.88617980
       5104.0337      0.96581784
       5104.8374      0.90741118
       5105.6410      0.81281782
       5106.4447      0.88193608
       5107.2483       1.0794771
       5108.0519      0.89885480
       5108.8556      0.86041179
       5109.6592      0.73296574
       5110.4629      0.99613969
       5111.2665      0.97445518
       5112.0701      0.88446513
       5112.8738      0.86747601
       5113.6774      0.76780625
       5114.4811      0.78611600
       5115.2847      0.89936812
       5116.0883      0.85720369
       5116.8920      0.80043076
       5117.6956      0.90468657
       5118.4993       1.0323074
       5119.3029      0.88855647
       5120.1065      0.89479605
       5120.9102      0.88884973
       5121.7138      0.90415666
       5122.5175       1.0572397
       5123.3211      0.88714276
       5124.1247      0.83769571
       5124.9284      0.92790789
       5125.7320      0.80776690
       5126.5357      0.94513417
       5127.3393      0.83860317
       5128.1429      0.93967656
       5128.9466       1.0194571
       5129.7502      0.91412063
       5130.5539      0.81394524
       5131.3575      0.84946425
       5132.1611      0.79523456
       5132.9648      0.84725029
       5133.7684      0.96352893
       5134.5720      0.85989578
       5135.3757      0.82911006
       5136.1793      0.71310665
       5136.9830      0.87756882
       5137.7866       1.0061908
       5138.5902      0.89382548
       5139.3939      0.99224798
       5140.1975      0.92086714
       5141.0012      0.91795182
       5141.8048      0.91184204
       5142.6084      0.95984771
       5143.4121      0.75180687
       5144.2157      0.87731525
       5145.0194      0.84423582
       5145.8230      0.77197126
       5146.6266      0.91114771
       5147.4303      0.90604238
       5148.2339      0.70560038
       5149.0376      0.81877280
       5149.8412      0.91763470
       5150.6448      0.90013944
       5151.4485      0.90317297
       5152.2521      0.72581605
       5153.0558      0.79592545
       5153.8594      0.58283939
       5154.6630      0.60802171
       5155.4667      0.53881889
       5156.2703      0.47978549
       5157.0740      0.46524080
       5157.8776      0.40723825
       5158.6812             NaN
       5159.4849             NaN
       5160.2885             NaN
       5161.0922             NaN
       5161.8958             NaN
       5162.6994             NaN
       5163.5031             NaN
       5164.3067             NaN
       5165.1103             NaN
       5165.9140             NaN
       5166.7176             NaN
       5167.5213             NaN
       5168.3249             NaN
       5169.1285             NaN
       5169.9322             NaN
       5170.7358             NaN
       5171.5395             NaN
       5172.3431             NaN
       5173.1467             NaN
       5173.9504             NaN
       5174.7540             NaN
       5175.5577             NaN
       5176.3613             NaN
       5177.1649             NaN
       5177.9686             NaN
       5178.7722             NaN
       5179.5759             NaN
       5180.3795             NaN
       5181.1831             NaN
       5181.9868             NaN
       5182.7904             NaN
       5183.5941             NaN
       5184.3977             NaN
       5185.2013             NaN
       5186.0050             NaN
       5186.8086             NaN
       5187.6123             NaN
       5188.4159             NaN
       5189.2195             NaN
       5190.0232             NaN
       5190.8268             NaN
       5191.6305             NaN
       5192.4341             NaN
       5193.2377             NaN
       5194.0414             NaN
       5194.8450             NaN
       5195.6486             NaN
       5196.4523             NaN
       5197.2559             NaN
       5198.0596             NaN
       5198.8632             NaN
       5199.6668             NaN
       5200.4705             NaN
       5201.2741             NaN
       5202.0778             NaN
       5202.8814             NaN
       5203.6850             NaN
       5204.4887             NaN
       5205.2923             NaN
       5206.0960             NaN
       5206.8996             NaN
       5207.7032             NaN
       5208.5069             NaN
       5209.3105             NaN
       5210.1142             NaN
       5210.9178             NaN
       5211.7214             NaN
       5212.5251             NaN
       5213.3287             NaN
       5214.1324             NaN
       5214.9360             NaN
       5215.7396             NaN
       5216.5433             NaN
       5217.3469             NaN
       5218.1506             NaN
       5218.9542             NaN
       5219.7578             NaN
       5220.5615             NaN
       5221.3651             NaN
       5222.1688             NaN
       5222.9724             NaN
       5223.7760             NaN
       5224.5797             NaN
       5225.3833             NaN
       5226.1869             NaN
       5226.9906             NaN
       5227.7942             NaN
       5228.5979             NaN
       5229.4015             NaN
       5230.2051             NaN
       5231.0088      0.75645091
       5231.8124      0.63924534
       5232.6161      0.67781338
       5233.4197      0.64745071
       5234.2233      0.70370270
       5235.0270      0.69629881
       5235.8306      0.74219137
       5236.6343      0.94741307
       5237.4379       1.2729171
       5238.2415      0.79305982
       5239.0452       1.0862266
       5239.8488      0.83259041
       5240.6525      0.88021221
       5241.4561      0.93575540
       5242.2597      0.94921255
       5243.0634      0.93929315
       5243.8670      0.89373506
       5244.6707       1.0037574
       5245.4743       1.0506078
       5246.2779       1.0892188
       5247.0816      0.93709856
       5247.8852      0.87801028
       5248.6889      0.95480511
       5249.4925       1.0191944
       5250.2961      0.84515420
       5251.0998      0.83394316
       5251.9034      0.82574397
       5252.7071       1.0701498
       5253.5107       1.0726133
       5254.3143      0.87055792
       5255.1180      0.86862531
       5255.9216      0.88574510
       5256.7252      0.82849786
       5257.5289      0.68667801
       5258.3325      0.78982069
       5259.1362      0.71689561
       5259.9398      0.87635473
       5260.7434      0.85776096
       5261.5471       1.0122230
       5262.3507      0.89692496
       5263.1544       1.0655396
       5263.9580      0.48624338
       5264.7616      0.87440958
       5265.5653      0.81477832
       5266.3689       1.0288665
       5267.1726       1.1290645
       5267.9762      0.73008145
       5268.7798      0.81409537
       5269.5835      0.87127906
       5270.3871      0.96396668
       5271.1908      0.75333635
       5271.9944      0.86580274
       5272.7980      0.82384315
       5273.6017      0.74606209
       5274.4053      0.91118546
       5275.2090      0.85450671
       5276.0126      0.91853282
       5276.8162      0.89931584
       5277.6199      0.74688444
       5278.4235       1.0783959
       5279.2272       1.0544082
       5280.0308      0.88766459
       5280.8344       1.0348276
       5281.6381      0.97749265
       5282.4417      0.74994854
       5283.2453      0.80092368
       5284.0490       1.0098000
       5284.8526       1.0614765
       5285.6563       1.0095345
       5286.4599      0.76546222
       5287.2635      0.77358272
       5288.0672      0.83125622
       5288.8708       1.0400332
       5289.6745       1.0730763
       5290.4781       1.2786559
       5291.2817      0.99977357
       5292.0854      0.79889560
       5292.8890       1.0827035
       5293.6927       1.1658035
       5294.4963       1.0582906
       5295.2999      0.97169696
       5296.1036       1.0332531
       5296.9072       1.0140604
       5297.7109      0.95757824
       5298.5145      0.98511355
       5299.3181      0.90466473
       5300.1218       1.0482013
       5300.9254      0.79716136
       5301.7291      0.87395031
       5302.5327      0.99075536
       5303.3363       1.0118215
       5304.1400      0.91409721
       5304.9436      0.74481205
       5305.7473      0.73875861
       5306.5509      0.82075816
       5307.3545      0.79897236
       5308.1582      0.89437576
       5308.9618      0.99919109
       5309.7655      0.95014060
       5310.5691       1.0249625
       5311.3727       1.2801807
       5312.1764       1.0773143
       5312.9800       1.0126114
       5313.7836       1.1522549
       5314.5873       1.0763049
       5315.3909      0.87651110
       5316.1946      0.91345332
       5316.9982      0.89814854
       5317.8018      0.92832249
       5318.6055       1.0034024
       5319.4091      0.97559279
       5320.2128      0.86812080
       5321.0164      0.90552967
       5321.8200      0.78401986
       5322.6237      0.86034685
       5323.4273      0.79346338
       5324.2310       1.0055507
       5325.0346      0.91687572
       5325.8382       1.0836178
       5326.6419      0.85946167
       5327.4455      0.81011304
       5328.2492      0.83473029
       5329.0528      0.86706519
       5329.8564       1.0672990
       5330.6601      0.72224191
       5331.4637      0.53688357
       5332.2674      0.86862351
       5333.0710      0.90457912
       5333.8746      0.88420327
       5334.6783      0.89640518
       5335.4819      0.89883690
       5336.2856      0.86604983
       5337.0892      0.94613082
       5337.8928      0.73769523
       5338.6965      0.87447614
       5339.5001      0.96614759
       5340.3038       1.0752946
       5341.1074      0.90030191
       5341.9110      0.76180772
       5342.7147      0.84266567
       5343.5183      0.92413943
       5344.3219      0.95729172
       5345.1256      0.96144339
       5345.9292      0.91580246
       5346.7329      0.87652926
       5347.5365      0.98841884
       5348.3401       1.0091242
       5349.1438      0.83700683
       5349.9474      0.94246967
       5350.7511      0.98293800
       5351.5547      0.96240598
       5352.3583       1.0371101
       5353.1620      0.94910856
       5353.9656      0.91466970
       5354.7693      0.78990220
       5355.5729      0.91971584
       5356.3765       1.0998070
       5357.1802       1.0360635
       5357.9838       1.0743859
       5358.7875      0.87043721
       5359.5911      0.95305724
       5360.3947       1.0011241
       5361.1984       1.0264893
       5362.0020       1.0500748
       5362.8057       1.0492007
       5363.6093       1.0230240
       5364.4129      0.90756025
       5365.2166      0.95851397
       5366.0202      0.93807214
       5366.8239      0.96783870
       5367.6275      0.97871627
       5368.4311      0.84134275
       5369.2348      0.85466419
       5370.0384      0.83274383
       5370.8421       1.0203257
       5371.6457      0.71149775
       5372.4493      0.90691853
       5373.2530       1.3174442
       5374.0566       1.0285871
       5374.8602       1.1296858
       5375.6639       1.0468241
       5376.4675       1.2364865
       5377.2712       1.1459037
       5378.0748       1.0850500
       5378.8784       1.2629374
       5379.6821       1.2706738
       5380.4857      0.94451930
       5381.2894      0.91767577
       5382.0930       1.1477514
       5382.8966       1.5761185
       5383.7003       1.6117985
       5384.5039       1.3421119
       5385.3076       1.0804317
       5386.1112       1.1373552
       5386.9148       1.0878134
       5387.7185       1.0334514
       5388.5221      0.97465015
       5389.3258       1.0467031
       5390.1294      0.96357423
       5390.9330      0.97158738
       5391.7367       1.0098516
       5392.5403      0.87211239
       5393.3440      0.92507663
       5394.1476      0.89743870
       5394.9512      0.98477580
       5395.7549      0.73728026
       5396.5585      0.91758314
       5397.3622      0.93031674
       5398.1658      0.97130449
       5398.9694      0.97825648
       5399.7731      0.91136862
       5400.5767       1.0286461
       5401.3804      0.94762902
       5402.1840      0.89412320
       5402.9876      0.89160114
       5403.7913      0.80473118
       5404.5949      0.78163205
       5405.3985      0.73137746
       5406.2022      0.81782664
       5407.0058      0.92612377
       5407.8095       1.0151367
       5408.6131       1.1993494
       5409.4167      0.86704535
       5410.2204      0.60884235
       5411.0240      0.64466310
       5411.8277      0.58144506
       5412.6313      0.82099893
       5413.4349      0.87618547
       5414.2386      0.94266195
       5415.0422      0.83492812
       5415.8459      0.85065516
       5416.6495      0.96582938
       5417.4531       1.1583830
       5418.2568       1.2082707
       5419.0604       1.2105323
       5419.8641       1.1176650
       5420.6677       1.0301485
       5421.4713      0.91808612
       5422.2750       1.1094562
       5423.0786      0.98225114
       5423.8823      0.78441318
       5424.6859      0.87958122
       5425.4895      0.98780759
       5426.2932       1.2040236
       5427.0968      0.85542202
       5427.9005      0.90595851
       5428.7041       1.0186236
       5429.5077      0.88465182
       5430.3114       1.1445846
       5431.1150       1.0194947
       5431.9187       1.0538223
       5432.7223       1.0499295
       5433.5259      0.98959605
       5434.3296       1.0108334
       5435.1332      0.92854803
       5435.9368      0.87099545
       5436.7405       1.0660407
       5437.5441      0.93952267
       5438.3478      0.88078788
       5439.1514      0.99004134
       5439.9550       1.0119645
       5440.7587       1.0938519
       5441.5623       1.0912894
       5442.3660       1.0277756
       5443.1696      0.82854557
       5443.9732      0.84554691
       5444.7769      0.86867639
       5445.5805      0.85733450
       5446.3842      0.86814119
       5447.1878       1.0557873
       5447.9914      0.94399982
       5448.7951      0.99091680
       5449.5987       1.2514474
       5450.4024       1.1217186
       5451.2060      0.95928644
       5452.0096      0.90267838
       5452.8133       1.0828335
       5453.6169      0.91682484
       5454.4206       1.0047757
       5455.2242      0.95940113
       5456.0278       1.0438290
       5456.8315       1.0234810
       5457.6351      0.99464578
       5458.4388      0.97905365
       5459.2424       1.0302084
       5460.0460      0.94974878
       5460.8497      0.97659447
       5461.6533      0.86848731
       5462.4570      0.87911890
       5463.2606      0.95920074
       5464.0642      0.97467379
       5464.8679      0.92878325
       5465.6715      0.83522939
       5466.4751      0.97642007
       5467.2788      0.95341667
       5468.0824       1.0368006
       5468.8861       1.0938160
       5469.6897      0.92730789
       5470.4933      0.86761161
       5471.2970      0.93133395
       5472.1006      0.99600878
       5472.9043      0.99159689
       5473.7079      0.84307487
       5474.5115      0.97364750
       5475.3152       1.1312801
       5476.1188       1.1196128
       5476.9225       1.1563953
       5477.7261       1.0400878
       5478.5297       1.0421169
       5479.3334       1.0993452
       5480.1370      0.90669070
       5480.9407      0.87364551
       5481.7443      0.99823861
       5482.5479       1.0358260
       5483.3516      0.89518985
       5484.1552      0.86012740
       5484.9589      0.88547408
       5485.7625      0.81087240
       5486.5661      0.92027067
       5487.3698      0.86818776
       5488.1734      0.85420231
       5488.9771      0.88787541
       5489.7807       1.0123429
       5490.5843      0.97709383
       5491.3880       1.0064247
       5492.1916      0.94204482
       5492.9952      0.99384463
       5493.7989      0.94531299
       5494.6025       1.0421889
       5495.4062      0.94390445
       5496.2098      0.90788281
       5497.0134       1.0141425
       5497.8171      0.99208751
       5498.6207       1.0024727
       5499.4244       1.0247834
       5500.2280      0.98694513
       5501.0316       1.1145138
       5501.8353       1.1195181
       5502.6389      0.96652924
       5503.4426      0.89411040
       5504.2462      0.92524053
       5505.0498      0.91611011
       5505.8535      0.91906735
       5506.6571      0.88507946
       5507.4608      0.96541931
       5508.2644       1.0342952
       5509.0680      0.98597476
       5509.8717       1.0729707
       5510.6753      0.95913732
       5511.4790      0.98494482
       5512.2826      0.91204077
       5513.0862      0.90063264
       5513.8899      0.89029559
       5514.6935      0.98478914
       5515.4972      0.91533460
       5516.3008      0.94905846
       5517.1044       1.0583256
       5517.9081      0.98690809
       5518.7117       1.0065844
       5519.5154      0.99156667
       5520.3190       1.0268810
       5521.1226      0.93555424
       5521.9263      0.89493865
       5522.7299      0.94028769
       5523.5335      0.91104324
       5524.3372       1.0550336
       5525.1408       1.1983643
       5525.9445       1.1124893
       5526.7481       1.0043032
       5527.5517      0.92811361
       5528.3554      0.90778733
       5529.1590      0.89502000
       5529.9627      0.94386153
       5530.7663      0.96674537
       5531.5699       1.0859740
       5532.3736      0.98556601
       5533.1772      0.88335281
       5533.9809      0.86416320
       5534.7845      0.92226219
       5535.5881      0.83036702
       5536.3918      0.85661523
       5537.1954       1.0360415
       5537.9991      0.96173774
       5538.8027      0.79210150
       5539.6063      0.80979525
       5540.4100      0.90640005
       5541.2136      0.88029143
       5542.0173      0.98332354
       5542.8209       1.0187538
       5543.6245       1.0182842
       5544.4282      0.95519862
       5545.2318      0.96513807
       5546.0355      0.96980620
       5546.8391      0.98286741
       5547.6427      0.99798287
       5548.4464       1.0320339
       5549.2500       1.0329976
       5550.0537       1.0063588
       5550.8573      0.99690631
       5551.6609      0.96522166
       5552.4646      0.93662082
       5553.2682       1.0509367
       5554.0718      0.96604563
       5554.8755      0.90276140
       5555.6791       1.0317680
       5556.4828      0.97961766
       5557.2864      0.95694717
       5558.0900       1.0582582
       5558.8937       1.0199958
       5559.6973      0.91253687
       5560.5010      0.91538886
       5561.3046      0.93344127
       5562.1082      0.92361298
       5562.9119      0.94653163
       5563.7155      0.87035830
       5564.5192      0.80501850
       5565.3228       1.0037186
       5566.1264      0.96907054
       5566.9301      0.96073876
       5567.7337       1.0212609
       5568.5374       1.0723808
       5569.3410       1.0237927
       5570.1446      0.97487500
       5570.9483       1.0221418
       5571.7519      0.95533089
       5572.5556      0.96946368
       5573.3592       1.0976390
       5574.1628       1.0732859
       5574.9665       1.0165671
       5575.7701       1.0207133
       5576.5738      0.98356300
       5577.3774       1.0107335
       5578.1810      0.99459285
       5578.9847      0.89939700
       5579.7883      0.95671718
       5580.5920      0.98232934
       5581.3956       1.0213221
       5582.1992       1.0151223
       5583.0029      0.96405669
       5583.8065      0.85926577
       5584.6101      0.88849704
       5585.4138      0.91896284
       5586.2174      0.84652348
       5587.0211      0.78651281
       5587.8247      0.83051911
       5588.6283      0.82123410
       5589.4320      0.95677368
       5590.2356       1.0657451
       5591.0393      0.96504001
       5591.8429      0.84071287
       5592.6465      0.94199592
       5593.4502       1.0251462
       5594.2538      0.89621422
       5595.0575      0.99698175
       5595.8611      0.99268759
       5596.6647       1.0260097
       5597.4684      0.97796702
       5598.2720       1.0089867
       5599.0757      0.97046554
       5599.8793      0.98554589
       5600.6829      0.99419140
       5601.4866      0.98826832
       5602.2902      0.89230176
       5603.0939       1.0362770
       5603.8975      0.95387615
       5604.7011      0.88466525
       5605.5048      0.94745929
       5606.3084      0.96949873
       5607.1121      0.96457799
       5607.9157      0.84768664
       5608.7193      0.80044671
       5609.5230      0.91755510
       5610.3266      0.96221816
       5611.1303      0.90923029
       5611.9339      0.92703415
       5612.7375       1.0189004
       5613.5412       1.1026881
       5614.3448       1.0805713
       5615.1484      0.88805526
       5615.9521      0.88642438
       5616.7557      0.84871846
       5617.5594      0.94370505
       5618.3630      0.97698534
       5619.1666      0.96695269
       5619.9703      0.94891508
       5620.7739      0.83274998
       5621.5776      0.86834344
       5622.3812      0.97216213
       5623.1848      0.95965397
       5623.9885      0.79341426
       5624.7921       1.0870220
       5625.5958       1.2927452
       5626.3994       1.2844160
       5627.2030       1.0728112
       5628.0067       1.0496122
       5628.8103      0.86693842
       5629.6140      0.64181555
       5630.4176      0.70838522
       5631.2212      0.72677309
       5632.0249      0.76465581
       5632.8285      0.85775871
       5633.6322      0.75396019
       5634.4358      0.82866503
       5635.2394      0.92739326
       5636.0431      0.67370159
       5636.8467      0.66743158
       5637.6504      0.82717216
       5638.4540       1.1057051
       5639.2576       1.0794539
       5640.0613      0.95099191
       5640.8649       1.0219668
       5641.6686       1.0918526
       5642.4722       1.0565558
       5643.2758      0.96488045
       5644.0795      0.94024544
       5644.8831      0.94526587
       5645.6867      0.95775046
       5646.4904      0.97135977
       5647.2940      0.87294240
       5648.0977      0.80528009
       5648.9013      0.93428984
       5649.7049       1.0241264
       5650.5086      0.92628131
       5651.3122      0.89233193
       5652.1159      0.98001752
       5652.9195      0.97294619
       5653.7231      0.94363611
       5654.5268       1.0828268
       5655.3304       1.0873970
       5656.1341       1.0009431
       5656.9377      0.94980859
       5657.7413      0.94181141
       5658.5450       1.0070897
       5659.3486       1.0413262
       5660.1523      0.97745053
       5660.9559       1.0210123
       5661.7595      0.93356507
       5662.5632      0.89035065
       5663.3668       1.0352366
       5664.1705      0.89613765
       5664.9741      0.95339894
       5665.7777      0.79168581
       5666.5814       1.1621690
       5667.3850       1.2254663
       5668.1887       1.0489922
       5668.9923      0.92446550
       5669.7959      0.88627294
       5670.5996       1.1023547
       5671.4032       1.2612320
       5672.2069       1.0751231
       5673.0105       1.1093783
       5673.8141       1.2915821
       5674.6178       1.0240155
       5675.4214      0.78146889
       5676.2250      0.86699919
       5677.0287       1.0443651
       5677.8323       1.0274445
       5678.6360       1.0424742
       5679.4396       1.0417248
       5680.2432       1.1187148
       5681.0469       1.1797561
       5681.8505       1.0789922
       5682.6542       1.0052678
       5683.4578       1.0345029
       5684.2614       1.0899235
       5685.0651       1.0700007
       5685.8687       1.1351826
       5686.6724       1.0731994
       5687.4760       1.0518005
       5688.2796      0.99278738
       5689.0833       1.0972117
       5689.8869       1.1428182
       5690.6906       1.0675763
       5691.4942       1.1748647
       5692.2978       1.1747800
       5693.1015       1.0560207
       5693.9051       1.0762111
       5694.7088       1.0728805
       5695.5124       1.0850449
       5696.3160       1.0483549
       5697.1197       1.0384989
       5697.9233       1.0775961
       5698.7270      0.96396458
       5699.5306       1.0039842
       5700.3342       1.2263844
       5701.1379       1.0672264
       5701.9415      0.98313798
       5702.7451       1.2118199
       5703.5488       1.4285311
       5704.3524       1.3516363
       5705.1561       1.1453909
       5705.9597       1.0773805
       5706.7633       1.0121438
       5707.5670       1.0845661
       5708.3706       1.0713649
       5709.1743      0.97992898
       5709.9779      0.92287482
       5710.7815      0.94771589
       5711.5852      0.83135822
       5712.3888      0.83127547
       5713.1925       1.0391596
       5713.9961       1.3031017
       5714.7997       1.4348459
       5715.6034       1.2925070
       5716.4070       1.0631410
       5717.2107       1.1321126
       5718.0143       1.0819693
       5718.8179       1.0243792
       5719.6216      0.84468526
       5720.4252      0.76999489
       5721.2289      0.93116140
       5722.0325      0.99386713
       5722.8361       1.3653005
       5723.6398       1.2979393
       5724.4434       1.2416283
       5725.2471       1.3378244
       5726.0507       1.2927584
       5726.8543       1.1739623
       5727.6580       1.0957573
       5728.4616       1.1216790
       5729.2653       1.0928570
       5730.0689       1.0816820
       5730.8725       1.0419856
       5731.6762       1.0520014
       5732.4798       1.0140938
       5733.2834       1.0699801
       5734.0871       1.0901174
       5734.8907       1.1042877
       5735.6944       1.0072851
       5736.4980      0.95103265
       5737.3016       1.0875886
       5738.1053      0.84122960
       5738.9089      0.93665909
       5739.7126       1.0477880
       5740.5162       1.0384478
       5741.3198       1.0869196
       5742.1235       1.0993915
       5742.9271      0.98315438
       5743.7308      0.90699440
       5744.5344       1.0023082
       5745.3380       1.0532364
       5746.1417       1.1115051
       5746.9453       1.2563403
       5747.7490       1.5546405
       5748.5526       1.2953722
       5749.3562       1.0503689
       5750.1599      0.94819278
       5750.9635      0.93025425
       5751.7672       1.0872222
       5752.5708       1.1323274
       5753.3744       1.0627144
       5754.1781       1.1027582
       5754.9817       1.1272025
       5755.7854       1.0682991
       5756.5890       1.0112431
       5757.3926       1.0928829
       5758.1963       1.1362447
       5758.9999       1.0478635
       5759.8036       1.0913874
       5760.6072       1.0316889
       5761.4108       1.0945665
       5762.2145       1.1528101
       5763.0181       1.0582131
       5763.8217      0.99531272
       5764.6254      0.98102745
       5765.4290       1.0055752
       5766.2327       1.0247395
       5767.0363       1.0564786
       5767.8399       1.1763303
       5768.6436       1.2038831
       5769.4472       1.0348836
       5770.2509      0.90926546
       5771.0545      0.90208302
       5771.8581      0.77078570
       5772.6618      0.87808294
       5773.4654       1.0001205
       5774.2691      0.92312532
       5775.0727       1.1846572
       5775.8763       1.1598696
       5776.6800       1.0003652
       5777.4836       1.1015371
       5778.2873       1.1067984
       5779.0909      0.99851820
       5779.8945      0.95777325
       5780.6982      0.94388880
       5781.5018      0.97925768
       5782.3055       1.0897936
       5783.1091      0.98775254
       5783.9127       1.0194125
       5784.7164       1.0024947
       5785.5200       1.0345156
       5786.3237       1.0261206
       5787.1273      0.97751590
       5787.9309      0.95253585
       5788.7346      0.95508248
       5789.5382      0.90971509
       5790.3419      0.94633139
       5791.1455       1.0504295
       5791.9491       1.0510020
       5792.7528       1.0854000
       5793.5564       1.0963308
       5794.3600       1.1394304
       5795.1637       1.0843146
       5795.9673       1.0672167
       5796.7710       1.0409220
       5797.5746       1.0436296
       5798.3782      0.97460942
       5799.1819      0.93494889
       5799.9855      0.94927662
       5800.7892       1.0256026
       5801.5928       1.0575068
       5802.3964      0.98851732
       5803.2001       1.0425229
       5804.0037       1.0476101
       5804.8074       1.1287593
       5805.6110       1.1222484
       5806.4146       1.1743747
       5807.2183       1.1322274
       5808.0219       1.1492775
       5808.8256       1.0462731
       5809.6292      0.94039490
       5810.4328       1.0566413
       5811.2365       1.0700386
       5812.0401       1.0966068
       5812.8438       1.0905261
       5813.6474       1.0856991
       5814.4510       1.0803696
       5815.2547       1.0962057
       5816.0583       1.1145356
       5816.8620       1.1299331
       5817.6656       1.1361428
       5818.4692       1.1609427
       5819.2729       1.1803654
       5820.0765       1.1230704
       5820.8802       1.1017185
       5821.6838       1.0116759
       5822.4874       1.0911374
       5823.2911       1.1046586
       5824.0947       1.1272165
       5824.8983       1.0572998
       5825.7020       1.0668711
       5826.5056       1.1412376
       5827.3093       1.0878474
       5828.1129       1.0385726
       5828.9165      0.99674029
       5829.7202      0.94366500
       5830.5238       1.0249951
       5831.3275       1.0871193
       5832.1311       1.0739987
       5832.9347       1.1150530
       5833.7384       1.0870091
       5834.5420       1.1467405
       5835.3457       1.1292887
       5836.1493       1.1176892
       5836.9529       1.1219390
       5837.7566       1.1982538
       5838.5602       1.1418216
       5839.3639       1.1519630
       5840.1675       1.1759234
       5840.9711       1.0380287
       5841.7748       1.0869871
       5842.5784       1.0953073
       5843.3821       1.0684334
       5844.1857       1.0939558
       5844.9893       1.0334739
       5845.7930      0.99024183
       5846.5966       1.0126624
       5847.4003       1.0842053
       5848.2039       1.1048674
       5849.0075       1.0272084
       5849.8112       1.0288165
       5850.6148       1.0411041
       5851.4185       1.1204761
       5852.2221      0.91623912
       5853.0257       1.1528360
       5853.8294      0.99707516
       5854.6330      0.89978503
       5855.4366       1.1547384
       5856.2403       1.2358924
       5857.0439      0.86742360
       5857.8476      0.93964177
       5858.6512       1.1348088
       5859.4548      0.99267036
       5860.2585       1.0029357
       5861.0621       1.2692578
       5861.8658       1.2681311
       5862.6694      0.93450828
       5863.4730       1.1651630
       5864.2767      0.86174301
       5865.0803      0.97527967
       5865.8840       1.2873818
       5866.6876       1.2620309
       5867.4912       1.0513648
       5868.2949      0.94278915
       5869.0985      0.90205272
       5869.9022      0.85487602
       5870.7058       1.0279513
       5871.5094       1.0980654
       5872.3131       1.0812457
       5873.1167       1.1026637
       5873.9204      0.96723428
       5874.7240      0.93448804
       5875.5276       1.0581175
       5876.3313       1.1000582
       5877.1349       1.1886625
       5877.9386      0.92421339
       5878.7422       1.2887726
       5879.5458       1.4013490
       5880.3495       1.4111499
       5881.1531       1.4070323
       5881.9568       1.3513524
       5882.7604       1.0559965
       5883.5640       1.1379695
       5884.3677       1.2920641
       5885.1713      0.97599817
       5885.9749      0.70632096
       5886.7786       1.2621716
       5887.5822       1.5801981
       5888.3859       1.1654943
       5889.1895       1.0814459
       5889.9931      0.99175579
       5890.7968      0.72337100
       5891.6004      0.88008739
       5892.4041      0.82565861
       5893.2077      0.75081252
       5894.0113      0.67536386
       5894.8150      0.84267833
       5895.6186      0.86367061
       5896.4223      0.73539803
       5897.2259      0.67511380
       5898.0295      0.81977474
       5898.8332      0.80243729
       5899.6368      0.78174338
       5900.4405      0.87097782
       5901.2441      0.87300334
       5902.0477      0.94199855
       5902.8514      0.89761625
       5903.6550      0.84254003
       5904.4587       1.0275897
       5905.2623      0.97693131
       5906.0659      0.97573192
       5906.8696      0.97769842
       5907.6732       1.0415100
       5908.4769       1.1174596
       5909.2805       1.0637681
       5910.0841       1.1621328
       5910.8878       1.1615234
       5911.6914       1.1557900
       5912.4950       1.1248181
       5913.2987       1.1327884
       5914.1023       1.1840140
       5914.9060       1.2510589
       5915.7096       1.1599337
       5916.5132       1.1645819
       5917.3169       1.0885217
       5918.1205      0.89243032
       5918.9242      0.99503550
       5919.7278       1.0284938
       5920.5314      0.96851195
       5921.3351       1.0080009
       5922.1387       1.0628111
       5922.9424       1.0474558
       5923.7460       1.0498744
       5924.5496       1.1771386
       5925.3533       1.1839723
       5926.1569       1.1059045
       5926.9606       1.2676877
       5927.7642       1.0794597
       5928.5678      0.99577842
       5929.3715       1.0810925
       5930.1751       1.1092371
       5930.9788       1.1581278
       5931.7824       1.1267866
       5932.5860       1.1419022
       5933.3897       1.0984333
       5934.1933       1.0263098
       5934.9970       1.1425806
       5935.8006       1.0930734
       5936.6042       1.1393725
       5937.4079       1.2444153
       5938.2115       1.1056551
       5939.0152       1.1794168
       5939.8188       1.1349112
       5940.6224       1.0067039
       5941.4261       1.1020997
       5942.2297       1.1119078
       5943.0333       1.1450206
       5943.8370       1.0293593
       5944.6406      0.98920528
       5945.4443       1.2194890
       5946.2479       1.1462594
       5947.0515       1.2688365
       5947.8552       1.2386796
       5948.6588       1.0817961
       5949.4625      0.94694661
       5950.2661       1.1857035
       5951.0697       1.2118879
       5951.8734       1.0823001
       5952.6770       1.1648542
       5953.4807       1.3794418
       5954.2843       1.0149626
       5955.0879       1.0235872
       5955.8916      0.95089554
       5956.6952       1.0919480
       5957.4989       1.2657722
       5958.3025       1.1739405
       5959.1061       1.3091999
       5959.9098       1.2006907
       5960.7134      0.81314627
       5961.5171       1.0201987
       5962.3207       1.1859018
       5963.1243       1.0854375
       5963.9280      0.87262345
       5964.7316       1.0660670
       5965.5353       1.1649287
       5966.3389       1.1690468
       5967.1425       1.2335526
       5967.9462       1.1049812
       5968.7498       1.0923301
       5969.5535       1.1154915
       5970.3571      0.95017775
       5971.1607       1.1737010
       5971.9644       1.1930561
       5972.7680       1.2031952
       5973.5716       1.2536055
       5974.3753       1.2431075
       5975.1789       1.1607535
       5975.9826       1.0927783
       5976.7862       1.0568481
       5977.5898       1.1742768
       5978.3935       1.2636626
       5979.1971       1.0791102
       5980.0008       1.0099277
       5980.8044       1.2091614
       5981.6080       1.1624947
       5982.4117       1.2711722
       5983.2153       1.1780799
       5984.0190       1.0967989
       5984.8226       1.3403982
       5985.6262       1.2990192
       5986.4299       1.2413033
       5987.2335       1.0466285
       5988.0372      0.66832429
       5988.8408      0.56867746
       5989.6444      0.48472324
       5990.4481      0.81303573
       5991.2517       1.1870203
       5992.0554       1.3172123
       5992.8590       1.3819945
       5993.6626       1.5318384
       5994.4663       1.3325104
       5995.2699      0.97942694
       5996.0736      0.97049172
       5996.8772      0.92506064
       5997.6808      0.97082383
       5998.4845       1.1274823
       5999.2881       1.0975907
       6000.0918       1.3832542
       6000.8954       1.2917400
       6001.6990       1.4143005
       6002.5027       1.2455734
       6003.3063       1.1103988
       6004.1099       1.0926742
       6004.9136       1.2478662
       6005.7172       1.1554115
       6006.5209       1.2448376
       6007.3245       1.1361933
       6008.1281       1.3108972
       6008.9318       1.1225894
       6009.7354       1.1224097
       6010.5391       1.2227240
       6011.3427       1.2128162
       6012.1463       1.1269224
       6012.9500       1.1849636
       6013.7536       1.1808826
       6014.5573       1.0731771
       6015.3609       1.0261547
       6016.1645       1.1051727
       6016.9682       1.2069557
       6017.7718       1.0975441
       6018.5755       1.0976814
       6019.3791       1.3384412
       6020.1827       1.4390834
       6020.9864       1.3256416
       6021.7900       1.2911658
       6022.5937       1.1470774
       6023.3973       1.1081959
       6024.2009       1.1532666
       6025.0046       1.0409780
       6025.8082       1.1107278
       6026.6119       1.1626982
       6027.4155       1.0707989
       6028.2191      0.75280702
       6029.0228      0.91759530
       6029.8264       1.2690937
       6030.6301      0.64799438
       6031.4337      0.97647364
       6032.2373       1.4630752
       6033.0410       1.5204863
       6033.8446       1.5101672
       6034.6482       1.4370006
       6035.4519       1.2854898
       6036.2555       1.1116259
       6037.0592       1.2012127
       6037.8628       1.2369775
       6038.6664       1.3139367
       6039.4701       1.2355179
       6040.2737       1.0715287
       6041.0774      0.94691030
       6041.8810      0.88088558
       6042.6846       1.0875642
       6043.4883      0.86462080
       6044.2919      0.84032153
       6045.0956      0.86218302
       6045.8992      0.66090212
       6046.7028      0.75347265
       6047.5065      0.99371743
       6048.3101      0.99316112
       6049.1138       1.1774336
       6049.9174       1.1568653
       6050.7210      0.60159424
       6051.5247       1.0069567
       6052.3283       1.3838754
       6053.1320      0.89189437
       6053.9356       1.1719846
       6054.7392       1.2013547
       6055.5429       1.3964744
       6056.3465       1.1191306
       6057.1502       1.1890677
       6057.9538       1.3641943
       6058.7574       1.3049269
       6059.5611       1.2825066
       6060.3647       1.2504749
       6061.1684       1.2250851
       6061.9720       1.3492356
       6062.7756       1.3433443
       6063.5793       1.1673043
       6064.3829       1.2711645
       6065.1865       1.3141844
       6065.9902       1.2635166
       6066.7938       1.1827825
       6067.5975       1.2497663
       6068.4011       1.2938070
       6069.2047      0.96929018
       6070.0084      0.90657164
       6070.8120       1.1837479
       6071.6157       1.6527796
       6072.4193       1.4196202
       6073.2229       1.3470362
       6074.0266       1.3445855
       6074.8302       1.1831440
       6075.6339       1.1199307
       6076.4375      0.72444405
       6077.2411      0.81983329
       6078.0448       1.2690685
       6078.8484       1.0375869
       6079.6521       1.4466146
       6080.4557       1.4699986
       6081.2593       1.7090384
       6082.0630       1.0274393
       6082.8666       1.0294133
       6083.6703       1.2710035
       6084.4739       1.2010538
       6085.2775       1.0975701
       6086.0812      0.95024272
       6086.8848       1.1287269
       6087.6885       1.1897732
       6088.4921       1.1788408
       6089.2957       1.2602327
       6090.0994       1.3081173
       6090.9030       1.2707110
       6091.7067       1.2635764
       6092.5103       1.2647012
       6093.3139       1.1572269
       6094.1176       1.0337463
       6094.9212       1.1082006
       6095.7248       1.0116951
       6096.5285       1.0437306
       6097.3321       1.1175705
       6098.1358       1.4062046
       6098.9394       1.2514352
       6099.7430       1.3614251
       6100.5467       1.6014905
       6101.3503       1.3645105
       6102.1540       1.5900348
       6102.9576       1.1444544
       6103.7612       1.1981564
       6104.5649       1.1083201
       6105.3685       1.1377471
       6106.1722       1.2154839
       6106.9758       1.1166254
       6107.7794       1.0750108
       6108.5831       1.2025124
       6109.3867       1.2797520
       6110.1904       1.2831693
       6110.9940       1.5470910
       6111.7976       1.7434106
       6112.6013       1.2478891
       6113.4049       1.0879523
       6114.2086       1.1786966
       6115.0122       1.2027877
       6115.8158       1.1168955
       6116.6195       1.0640140
       6117.4231       1.1757048
       6118.2268       1.0996800
       6119.0304       1.2730571
       6119.8340       1.1431054
       6120.6377       1.3136253
       6121.4413       1.1166229
       6122.2449       1.2732457
       6123.0486       1.3892670
       6123.8522       1.0982287
       6124.6559       1.2404925
       6125.4595       1.2585731
       6126.2631       1.2127337
       6127.0668       1.2022384
       6127.8704       1.1772987
       6128.6741       1.1640586
       6129.4777       1.1975720
       6130.2813       1.1352533
       6131.0850       1.2728663
       6131.8886       1.3809948
       6132.6923       1.3911323
       6133.4959       1.2734815
       6134.2995       1.3988472
       6135.1032       1.2936016
       6135.9068       1.2678321
       6136.7105       1.1848234
       6137.5141       1.2502104
       6138.3177       1.1835147
       6139.1214       1.3729939
       6139.9250       1.1497738
       6140.7287       1.4105660
       6141.5323       1.2446906
       6142.3359       1.1469138
       6143.1396       1.4161038
       6143.9432       1.4500846
       6144.7469       1.2420095
       6145.5505       1.1589815
       6146.3541       1.2115732
       6147.1578       1.2087279
       6147.9614       1.1379466
       6148.7651       1.1252003
       6149.5687       1.2710474
       6150.3723       1.0248682
       6151.1760       1.1686897
       6151.9796       1.2374504
       6152.7832       1.2919955
       6153.5869       1.2504629
       6154.3905       1.3576221
       6155.1942       1.1729631
       6155.9978       1.2402460
       6156.8014       1.3065150
       6157.6051       1.2313818
       6158.4087       1.0924695
       6159.2124       1.1389127
       6160.0160       1.1681911
       6160.8196       1.0439256
       6161.6233       1.1944823
       6162.4269       1.1146179
       6163.2306      0.99653954
       6164.0342       1.0467769
       6164.8378       1.0376348
       6165.6415       1.1059954
       6166.4451       1.1505120
       6167.2488       1.0396034
       6168.0524       1.0613166
       6168.8560       1.2112418
       6169.6597       1.0937405
       6170.4633      0.91045180
       6171.2670       1.1241434
       6172.0706       1.1705854
       6172.8742       1.1406431
       6173.6779       1.0447587
       6174.4815       1.0404995
       6175.2852       1.2034383
       6176.0888       1.0701834
       6176.8924       1.2227611
       6177.6961       1.0331789
       6178.4997       1.0794655
       6179.3034       1.0490408
       6180.1070       1.1621333
       6180.9106       1.1040000
       6181.7143       1.1743908
       6182.5179       1.0875508
       6183.3215       1.1970681
       6184.1252       1.1696378
       6184.9288       1.2662322
       6185.7325       1.2297829
       6186.5361       1.4192738
       6187.3397       1.1931332
       6188.1434       1.1929100
       6188.9470       1.2571689
       6189.7507       1.2688067
       6190.5543       1.2726197
       6191.3579       1.2313859
       6192.1616       1.3241892
       6192.9652       1.2578204
       6193.7689       1.0753563
       6194.5725      0.97465579
       6195.3761       1.1190692
       6196.1798       1.1394078
       6196.9834       1.2007055
       6197.7871       1.3050061
       6198.5907       1.2552069
       6199.3943       1.3009376
       6200.1980       1.1551263
       6201.0016       1.2055691
       6201.8053       1.1699312
       6202.6089       1.2072939
       6203.4125       1.2176159
       6204.2162       1.2162465
       6205.0198       1.2729230
       6205.8235       1.2131657
       6206.6271       1.2625222
       6207.4307       1.2589678
       6208.2344       1.3445788
       6209.0380       1.3633954
       6209.8417       1.1972739
       6210.6453       1.1428559
       6211.4489      0.99208123
       6212.2526       1.1582251
       6213.0562       1.1252940
       6213.8598       1.0960921
       6214.6635       1.3291068
       6215.4671       1.1623839
       6216.2708       1.3223039
       6217.0744       1.2194383
       6217.8780       1.3947714
       6218.6817       1.4033376
       6219.4853       1.3164605
       6220.2890       1.1213169
       6221.0926       1.2160175
       6221.8962       1.3037846
       6222.6999       1.4046008
       6223.5035       1.3417684
       6224.3072       1.3793755
       6225.1108       1.0994563
       6225.9144      0.99193851
       6226.7181       1.1681821
       6227.5217       1.1707749
       6228.3254       1.2383697
       6229.1290       1.2850497
       6229.9326       1.1733194
       6230.7363       1.2081037
       6231.5399       1.2349127
       6232.3436       1.2105208
       6233.1472       1.2290302
       6233.9508       1.3393074
       6234.7545       1.4747987
       6235.5581       1.2941634
       6236.3618       1.1112712
       6237.1654       1.2265435
       6237.9690       1.2940527
       6238.7727       1.2370473
       6239.5763       1.2391972
       6240.3800       1.3018785
       6241.1836       1.2526400
       6241.9872       1.2641018
       6242.7909       1.3329480
       6243.5945       1.1542819
       6244.3981       1.3679437
       6245.2018       1.3737552
       6246.0054       1.2246044
       6246.8091       1.1484353
       6247.6127       1.3115481
       6248.4163       1.2903256
       6249.2200       1.3203652
       6250.0236       1.1158167
       6250.8273       1.2140073
       6251.6309       1.1676386
       6252.4345       1.1369578
       6253.2382       1.1937829
       6254.0418       1.3237924
       6254.8455       1.2849851
       6255.6491       1.3443646
       6256.4527       1.1138505
       6257.2564       1.2309628
       6258.0600       1.2336621
       6258.8637       1.3382759
       6259.6673       1.3020849
       6260.4709       1.4049069
       6261.2746       1.4573803
       6262.0782       1.4361085
       6262.8819       1.3056522
       6263.6855       1.3336183
       6264.4891       1.2972544
       6265.2928       1.2816940
       6266.0964       1.5295361
       6266.9001       1.3540631
       6267.7037       1.3172787
       6268.5073       1.3029255
       6269.3110       1.2099752
       6270.1146       1.3036826
       6270.9183       1.3166032
       6271.7219       1.1910163
       6272.5255       1.2693832
       6273.3292       1.2384713
       6274.1328       1.1910822
       6274.9364       1.3932481
       6275.7401       1.2031634
       6276.5437       1.4197263
       6277.3474       1.4520055
       6278.1510       1.3138316
       6278.9546       1.2293012
       6279.7583       1.4841141
       6280.5619       1.3670663
       6281.3656       1.2594313
       6282.1692       1.3022481
       6282.9728       1.2102285
       6283.7765       1.2613516
       6284.5801       1.3487562
       6285.3838       1.2673079
       6286.1874       1.0677451
       6286.9910       1.2469509
       6287.7947       1.1805944
       6288.5983       1.2231315
       6289.4020       1.2472665
       6290.2056       1.3228943
       6291.0092       1.4088123
       6291.8129       1.3817537
       6292.6165       1.2345329
       6293.4202       1.2696785
       6294.2238       1.2230891
       6295.0274       1.4841016
       6295.8311       1.3562643
       6296.6347       1.3725679
       6297.4384       1.2680472
       6298.2420       1.4921260
       6299.0456       1.4650923
       6299.8493       1.6244893
       6300.6529       1.3687841
       6301.4566       1.6828339
       6302.2602       1.6425587
       6303.0638       1.6482433
       6303.8675       1.5796805
       6304.6711       1.3533500
       6305.4747       1.4314968
       6306.2784       1.3531506
       6307.0820       1.1920157
       6307.8857       1.2814987
       6308.6893       1.4952100
       6309.4929       1.2128603
       6310.2966       1.1505502
       6311.1002      0.95823362
       6311.9039      0.75696843
       6312.7075      0.78846462
       6313.5111      0.53000878
       6314.3148      0.34411272
       6315.1184      0.54773017
       6315.9221      0.22976375
       6316.7257      0.97385270
       6317.5293       1.0098075
       6318.3330       1.0703923
       6319.1366       1.2108560
       6319.9403       2.1397542
       6320.7439       1.0395727
       6321.5475     -0.39164648
       6322.3512     -0.58760031
       6323.1548     -0.38498401
       6323.9585      0.50394733
       6324.7621      0.72147676
       6325.5657      0.69716674
       6326.3694       1.1625957
       6327.1730       2.4565419
       6327.9767       1.2884877
       6328.7803       1.2782774
       6329.5839       1.2365342
       6330.3876       1.2438860
       6331.1912       1.0436869
       6331.9948      0.78207412
       6332.7985      0.99038379
       6333.6021      0.86036384
       6334.4058       1.0178819
       6335.2094       1.0089643
       6336.0130       1.4468349
       6336.8167       1.0947252
       6337.6203      0.71844588
       6338.4240      0.73134418
       6339.2276      0.66090745
       6340.0312      0.79487351
       6340.8349      0.89763753
       6341.6385       1.0035633
       6342.4422       1.1210025
       6343.2458       1.3911823
       6344.0494       1.0589625
       6344.8531       1.1942987
       6345.6567       1.0656685
       6346.4604      0.78557926
       6347.2640      0.77788863
       6348.0676      0.68639558
       6348.8713      0.80014017
       6349.6749       1.0972320
       6350.4786      0.91950831
       6351.2822       1.2166175
       6352.0858       1.2463810
       6352.8895       1.2251425
       6353.6931       1.1456935
       6354.4968      0.99689009
       6355.3004       1.0959151
       6356.1040      0.69287736
       6356.9077      0.29988757
       6357.7113    -0.065977592
       6358.5150     -0.47865598
       6359.3186     -0.41086016
       6360.1222      0.78271325
       6360.9259       1.1563653
       6361.7295      0.75678419
       6362.5331       2.8410595
       6363.3368       1.0146749
       6364.1404       1.4894564
       6364.9441       1.0007460
       6365.7477      0.88943276
       6366.5513       1.0361472
       6367.3550       1.1643917
       6368.1586       1.3026007
       6368.9623       1.2114907
       6369.7659       1.2679418
       6370.5695       1.3683349
       6371.3732       1.3850063
       6372.1768       1.3509208
       6372.9805       1.2306345
       6373.7841       1.2069558
       6374.5877       1.3368127
       6375.3914      0.94320593
       6376.1950       1.1854077
       6376.9987       1.1756919
       6377.8023       1.0071970
       6378.6059       1.2605974
       6379.4096       1.1830230
       6380.2132       1.2786769
       6381.0169       1.3319024
       6381.8205       1.1125993
       6382.6241       1.1122796
       6383.4278       1.1601603
       6384.2314       1.2377347
       6385.0351       1.1128500
       6385.8387       1.2997383
       6386.6423      0.97352620
       6387.4460      0.68481859
       6388.2496       1.0448337
       6389.0533      0.87679198
       6389.8569      0.77886558
       6390.6605      0.97844887
       6391.4642       1.3515950
       6392.2678       1.7276725
       6393.0714       1.3485219
       6393.8751      0.91334827
       6394.6787       1.0403059
       6395.4824      0.84742418
       6396.2860      0.83619642
       6397.0896      0.98664264
       6397.8933       1.2009197
       6398.6969       1.2656719
       6399.5006       1.1178595
       6400.3042      0.63117107
       6401.1078      0.34150257
       6401.9115       1.0102576
       6402.7151      0.22632521
       6403.5188       1.2870978
       6404.3224      0.78674260
       6405.1260      0.82518874
       6405.9297       1.1930287
       6406.7333       1.2019288
       6407.5370      0.84891896
       6408.3406       1.2210137
       6409.1442       1.0233449
       6409.9479       1.2208857
       6410.7515       1.4106685
       6411.5552       1.2426757
       6412.3588      0.99657674
       6413.1624      0.77202947
       6413.9661      0.51786196
       6414.7697      0.90552662
       6415.5734       1.1177162
       6416.3770      0.86897416
       6417.1806      0.53509536
       6417.9843       1.1460870
       6418.7879       1.3119916
       6419.5916       1.1534813
       6420.3952       1.1642364
       6421.1988       1.1845341
       6422.0025       1.1249710
       6422.8061       1.0820491
       6423.6097       1.0276849
       6424.4134       1.0394137
       6425.2170      0.63458600
       6426.0207      0.72140628
       6426.8243       1.1510160
       6427.6279       1.0549292
       6428.4316       1.3130559
       6429.2352       1.4028193
       6430.0389       2.4667451
       6430.8425       1.7479940
       6431.6461       1.0527073
       6432.4498      0.78791171
       6433.2534       1.3424564
       6434.0571       1.1268598
       6434.8607       1.3358271
       6435.6643       1.0938800
       6436.4680       1.1880531
       6437.2716       1.3037986
       6438.0753       1.5083484
       6438.8789       1.0799453
       6439.6825       1.1739052
       6440.4862       1.0794580
       6441.2898       1.0063553
       6442.0935      0.97019690
       6442.8971      0.95837339
       6443.7007      0.82295396
       6444.5044      0.74021453
       6445.3080       1.0420784
       6446.1117       1.0360077
       6446.9153       1.5313721
       6447.7189       1.3091813
       6448.5226       1.6491857
       6449.3262       1.1651743
       6450.1299       1.5996402
       6450.9335       1.5482646
       6451.7371       1.2213354
       6452.5408       1.1523198
       6453.3444       1.0292940
       6454.1480      0.60532267
       6454.9517      0.26152220
       6455.7553       1.0165671
       6456.5590       1.0538103
       6457.3626       1.1019294
       6458.1662       1.3230201
       6458.9699       1.7766930
       6459.7735       1.5396861
       6460.5772       1.0665001
       6461.3808       1.2694687
       6462.1844       1.1796316
       6462.9881       1.1552370
       6463.7917       1.1440748
       6464.5954       1.3104341
       6465.3990       1.3045617
       6466.2026       1.3559047
       6467.0063       1.0866224
       6467.8099       1.4574551
       6468.6136       1.4657105
       6469.4172       1.2766295
       6470.2208       1.1934231
       6471.0245       1.2701209
       6471.8281       1.4058199
       6472.6318       1.3421835
       6473.4354       1.4056937
       6474.2390       1.3721898
       6475.0427       1.3766922
       6475.8463       1.2020816
       6476.6500       1.0769236
       6477.4536      0.98843494
       6478.2572       1.5568150
       6479.0609       1.6738976
       6479.8645       1.1236338
       6480.6682       1.1442003
       6481.4718      0.51363676
       6482.2754      0.48410745
       6483.0791       1.3374603
       6483.8827       1.2408478
       6484.6863       1.3537348
       6485.4900       1.3157676
       6486.2936      0.65284190
       6487.0973      0.64114530
       6487.9009      0.39458561
       6488.7045      0.64639935
       6489.5082      0.77071165
       6490.3118       1.2343060
       6491.1155       1.5909074
       6491.9191       1.6142414
       6492.7227       1.6252592
       6493.5264       1.3026490
       6494.3300       1.3569530
       6495.1337       1.3448174
       6495.9373       1.3002682
       6496.7409       1.0356340
       6497.5446       1.2770936
       6498.3482       1.0594255
       6499.1519       1.0748072
       6499.9555       1.3507278
       6500.7591       1.2408553
       6501.5628       1.2734839
       6502.3664       1.1545604
       6503.1701       1.0910341
       6503.9737       1.0901513
       6504.7773       1.1871899
       6505.5810       1.2133236
       6506.3846       1.1284949
       6507.1883       1.1596044
       6507.9919       1.2286440
       6508.7955       1.3311209
       6509.5992       1.3648911
       6510.4028       1.2198319
       6511.2065       1.3276785
       6512.0101       1.3924975
       6512.8137       1.1825964
       6513.6174       1.2130411
       6514.4210       1.0213511
       6515.2246       1.2498607
       6516.0283       1.0634685
       6516.8319       1.3222212
       6517.6356       1.7028585
       6518.4392       1.7567721
       6519.2428       1.4829926
       6520.0465       1.3270749
       6520.8501       1.5043950
       6521.6538       1.3467049
       6522.4574       1.2971573
       6523.2610       1.3211624
       6524.0647       1.3427767
       6524.8683       1.3521957
       6525.6720       1.3970248
       6526.4756       1.4336993
       6527.2792       1.1098708
       6528.0829       1.1486747
       6528.8865       1.1565660
       6529.6902       1.4278512
       6530.4938       1.4901008
       6531.2974       1.3101332
       6532.1011       1.3648391
       6532.9047       1.2877253
       6533.7084       1.3420842
       6534.5120       1.2257326
       6535.3156       1.2078471
       6536.1193       1.2195104
       6536.9229       1.2267436
       6537.7266       1.3023952
       6538.5302       1.2314552
       6539.3338       1.4791258
       6540.1375       1.4065238
       6540.9411       1.4254697
       6541.7447       1.4457669
       6542.5484       1.6049532
       6543.3520       1.7884450
       6544.1557       1.7995326
       6544.9593       1.9928932
       6545.7629       2.2175599
       6546.5666       2.3655603
       6547.3702       2.6918488
       6548.1739       2.7932025
       6548.9775       2.6116238
       6549.7811       2.4996077
       6550.5848       2.2014375
       6551.3884       2.2129508
       6552.1921       1.8772579
       6552.9957       1.5867860
       6553.7993       1.4543734
       6554.6030       1.4888249
       6555.4066       1.4043344
       6556.2103       1.5329094
       6557.0139       1.8476455
       6557.8175       2.5706866
       6558.6212       3.6884710
       6559.4248       5.2101625
       6560.2285       7.8083935
       6561.0321       10.406843
       6561.8357       12.691534
       6562.6394       12.881924
       6563.4430       13.042735
       6564.2467       10.746148
       6565.0503       8.9997633
       6565.8539       6.8635079
       6566.6576       5.6161129
       6567.4612       4.5385002
       6568.2649       3.4297109
       6569.0685       2.6348046
       6569.8721       1.6521010
       6570.6758       1.3078558
       6571.4794       1.6088507
       6572.2830       1.7090635
       6573.0867       1.9875128
       6573.8903       1.6470491
       6574.6940       1.8152128
       6575.4976       1.1163983
       6576.3012       1.9078016
       6577.1049       2.2751895
       6577.9085       1.9215777
       6578.7122       2.5769885
       6579.5158       3.2816457
       6580.3194       4.1829049
       6581.1231       4.8845734
       6581.9267       5.7996419
       6582.7304       6.4411771
       6583.5340       6.4635531
       6584.3376       5.9226911
       6585.1413       5.2305096
       6585.9449       4.4905567
       6586.7486       3.5242298
       6587.5522       3.4159397
       6588.3558       2.6239040
       6589.1595       1.5166459
       6589.9631       1.4037103
       6590.7668       1.7645380
       6591.5704       1.3878095
       6592.3740       1.5689085
       6593.1777       1.7146386
       6593.9813       2.0084270
       6594.7850       1.8480879
       6595.5886       1.5434082
       6596.3922       1.4245733
       6597.1959       1.2950638
       6597.9995       1.6118712
       6598.8032       1.5512879
       6599.6068       1.6961749
       6600.4104       1.5249451
       6601.2141       1.3860842
       6602.0177       1.2955555
       6602.8213       1.3128152
       6603.6250       1.5259882
       6604.4286       1.4559703
       6605.2323       1.4354159
       6606.0359       1.4263674
       6606.8395       1.7394192
       6607.6432       1.3312555
       6608.4468       1.5695871
       6609.2505       1.5299394
       6610.0541       1.4568765
       6610.8577       1.5647718
       6611.6614       1.8113337
       6612.4650       1.4276469
       6613.2687       1.5069358
       6614.0723       1.6323242
       6614.8759       1.4809094
       6615.6796       1.5145173
       6616.4832       1.3486365
       6617.2869       1.2880339
       6618.0905       1.4001199
       6618.8941       1.2876820
       6619.6978       1.5341216
       6620.5014       1.4842881
       6621.3051       1.5959267
       6622.1087       1.4766960
       6622.9123       1.5677559
       6623.7160       1.4109158
       6624.5196       1.3575642
       6625.3233       1.4738124
       6626.1269       1.6159270
       6626.9305       1.4272844
       6627.7342       1.3201533
       6628.5378       1.4956094
       6629.3415       1.4678063
       6630.1451       1.5140272
       6630.9487       1.3102345
       6631.7524       1.4018321
       6632.5560       1.4616255
       6633.3596       1.3631483
       6634.1633       1.3626246
       6634.9669       1.2853970
       6635.7706       1.3008125
       6636.5742      0.66163915
       6637.3778      0.51504245
       6638.1815      0.79456561
       6638.9851       1.8407585
       6639.7888       1.5095873
       6640.5924       1.4201811
       6641.3960       1.9701485
       6642.1997       1.6803654
       6643.0033       1.1654957
       6643.8070       1.0022403
       6644.6106       1.7011392
       6645.4142       1.4588291
       6646.2179       1.0694516
       6647.0215       1.1333849
       6647.8252       1.7685482
       6648.6288       1.6029941
       6649.4324       1.2605739
       6650.2361       1.4289149
       6651.0397       1.3811356
       6651.8434       1.6054542
       6652.6470       1.4663132
       6653.4506       1.4077820
       6654.2543       1.4617236
       6655.0579       1.5587381
       6655.8616       1.5591085
       6656.6652       1.3259791
       6657.4688       1.4328608
       6658.2725       1.5980520
       6659.0761       1.6508848
       6659.8798       1.5840780
       6660.6834       1.4164411
       6661.4870       1.3746042
       6662.2907       1.2829343
       6663.0943       1.1984468
       6663.8979       1.4571134
       6664.7016       1.5986104
       6665.5052       1.4403281
       6666.3089       1.4773274
       6667.1125       1.6221985
       6667.9161       1.4747130
       6668.7198       1.4329228
       6669.5234       1.4674092
       6670.3271       1.4515612
       6671.1307       1.4237808
       6671.9343       1.5424679
       6672.7380       1.5545996
       6673.5416       1.4934422
       6674.3453       1.5331622
       6675.1489       1.3299508
       6675.9525      0.98735885
       6676.7562       1.0284525
       6677.5598       1.6863322
       6678.3635       1.7625811
       6679.1671       1.6497481
       6679.9707       1.3205681
       6680.7744       1.5264162
       6681.5780       1.2634733
       6682.3817       1.3045128
       6683.1853       1.4209179
       6683.9889       1.4126575
       6684.7926       1.3804134
       6685.5962       1.4333478
       6686.3999       1.3925222
       6687.2035       1.3829750
       6688.0071       1.3979315
       6688.8108       1.2287307
       6689.6144       1.3814351
       6690.4181       1.3382336
       6691.2217       1.2388398
       6692.0253      0.52511009
       6692.8290      0.51089499
       6693.6326       1.6424871
       6694.4362       1.0494450
       6695.2399       1.3028715
       6696.0435       2.1161607
       6696.8472       2.5849810
       6697.6508       1.3819643
       6698.4544       1.6085907
       6699.2581       1.4222808
       6700.0617       1.1866528
       6700.8654       1.3271768
       6701.6690       1.4958324
       6702.4726       1.4081649
       6703.2763       1.2287177
       6704.0799       1.2940262
       6704.8836       1.5026540
       6705.6872       1.4497038
       6706.4908       1.2821690
       6707.2945       1.1016634
       6708.0981       1.1883058
       6708.9018      0.99767458
       6709.7054       1.3007856
       6710.5090       1.7923373
       6711.3127       1.9935509
       6712.1163       2.5555810
       6712.9200       2.8066228
       6713.7236       3.2337430
       6714.5272       3.1976686
       6715.3309       3.0823553
       6716.1345       3.1528809
       6716.9382       2.8457163
       6717.7418       2.4803682
       6718.5454       2.2499183
       6719.3491       1.7197101
       6720.1527      0.66065002
       6720.9564      0.80820867
       6721.7600       1.3710718
       6722.5636       1.0076036
       6723.3673       1.9831909
       6724.1709       2.0023018
       6724.9745       2.5676906
       6725.7782       2.2897090
       6726.5818       2.1669803
       6727.3855       2.5457521
       6728.1891       2.8437843
       6728.9927       2.8168292
       6729.7964       2.5985741
       6730.6000       2.5023916
       6731.4037       2.3805027
       6732.2073       2.3089057
       6733.0109       1.9103456
       6733.8146       1.7266260
       6734.6182       1.7367011
       6735.4219       1.6334609
       6736.2255       1.5787253
       6737.0291       1.3036312
       6737.8328       1.1304923
       6738.6364       1.0811539
       6739.4401      0.64307167
       6740.2437       1.2261994
       6741.0473       1.0871336
       6741.8510      0.92691021
       6742.6546       1.1601501
       6743.4583       2.0133960
       6744.2619      0.69158786
       6745.0655       2.2478444
       6745.8692       2.6037689
       6746.6728       1.7545830
       6747.4765       1.3472465
       6748.2801      0.99626585
       6749.0837      0.43778074
       6749.8874       1.1378219
       6750.6910       1.1320123
       6751.4946       1.6779609
       6752.2983      0.65598347
       6753.1019       1.2697935
       6753.9056       1.6042183
       6754.7092       1.6239980
       6755.5128       1.7565977
       6756.3165       1.9104498
       6757.1201       1.7107938
       6757.9238       1.0901419
       6758.7274       1.0673164
       6759.5310      0.98863337
       6760.3347      0.99607763
       6761.1383       1.0704823
       6761.9420       1.8122801
       6762.7456       2.0014772
       6763.5492       1.6049631
       6764.3529       1.1736082
       6765.1565       1.3492206
       6765.9602       1.1383047
       6766.7638       1.1332318
       6767.5674       1.3810992
       6768.3711       1.2476146
       6769.1747       1.2524383
       6769.9784       1.1860969
       6770.7820       1.1233547
       6771.5856       1.2133091
       6772.3893       1.1608719
       6773.1929       1.0965380
       6773.9966       1.3335309
       6774.8002       1.2201061
       6775.6038       1.0228323
       6776.4075       1.0854681
       6777.2111       1.1154606
       6778.0148       1.2550932
       6778.8184       1.2140127
       6779.6220       1.5366017
       6780.4257       1.3237366
       6781.2293       1.5339544
       6782.0329       1.4241419
       6782.8366       1.1291487
       6783.6402       1.2609560
       6784.4439       1.0553165
       6785.2475      0.89342150
       6786.0511       1.0152773
       6786.8548      0.61501546
       6787.6584      0.33465682
       6788.4621       1.4532496
       6789.2657       1.8878816
       6790.0693       1.2420890
       6790.8730       2.3709152
       6791.6766       2.0554211
       6792.4803       1.0280998
       6793.2839       1.1364272
       6794.0875      0.96893049
       6794.8912      0.93398370
       6795.6948      0.83678961
       6796.4985       1.6412907
       6797.3021       2.1596001
       6798.1057       1.8790232
       6798.9094       1.4116888
       6799.7130       1.1148142
       6800.5167       1.2143022
       6801.3203       1.0441137
       6802.1239       1.0710878
       6802.9276       1.0971549
       6803.7312       1.1568337
       6804.5349       1.3239206
       6805.3385       1.1833448
       6806.1421      0.96530555
       6806.9458      0.73456170
       6807.7494       1.0107543
       6808.5531       1.4851491
       6809.3567       1.2713463
       6810.1603       1.1212092
       6810.9640       1.4363099
       6811.7676       1.4513964
       6812.5712      0.91534166
       6813.3749      0.89373915
       6814.1785       1.1472381
       6814.9822       1.3795679
       6815.7858       1.2641496
       6816.5894       1.0202152
       6817.3931       1.1121367
       6818.1967      0.81455069
       6819.0004      0.62596355
       6819.8040       1.1424794
       6820.6076       1.2062344
       6821.4113       1.5160638
       6822.2149       1.3521175
       6823.0186       1.5702564
       6823.8222       1.6294073
       6824.6258       1.5837119
       6825.4295       1.2176157
       6826.2331       1.0493228
       6827.0368      0.90534252
       6827.8404       1.0743312
       6828.6440       1.3771226
       6829.4477       1.1813564
       6830.2513       1.3158398
       6831.0550       1.2961149
       6831.8586       1.2636363
       6832.6622      0.89957392
       6833.4659      0.37677167
       6834.2695       1.1139086
       6835.0732       1.4326619
       6835.8768      0.90876815
       6836.6804       1.1894191
       6837.4841       1.7044154
       6838.2877       1.9533425
       6839.0914       1.1270925
       6839.8950       1.1728528
       6840.6986       1.0826074
       6841.5023      0.98147096
       6842.3059       1.1608846
       6843.1095       1.2701292
       6843.9132       1.2975157
       6844.7168       1.1947424
       6845.5205      0.84897393
       6846.3241      0.88243998
       6847.1277      0.83847028
       6847.9314      0.90309847
       6848.7350       1.0581428
       6849.5387       1.3258849
       6850.3423       1.3905104
       6851.1459       1.5143724
       6851.9496       1.3335353
       6852.7532       1.4123677
       6853.5569       1.1289250
       6854.3605       1.0123500
       6855.1641      0.73252840
       6855.9678      0.75728053
       6856.7714      0.95602727
       6857.5751      0.87672975
       6858.3787      0.97778484
       6859.1823       1.0778156
       6859.9860      0.83302757
       6860.7896      0.50343444
       6861.5933      0.41963104
       6862.3969       1.2810111
       6863.2005       2.3033901
       6864.0042       2.1216340
       6864.8078      0.70501453
       6865.6115      0.13079104
       6866.4151      0.61483411
       6867.2187      0.59659373
       6868.0224       1.1485308
       6868.8260       1.1966744
       6869.6297       1.3116667
       6870.4333      0.97298215
       6871.2369       1.1569252
       6872.0406       1.2828699
       6872.8442       1.2040606
       6873.6478       1.1290941
       6874.4515       1.1852675
       6875.2551       1.1868824
       6876.0588       1.3028512
       6876.8624       1.3343977
       6877.6660       1.3956589
       6878.4697       1.6388166
       6879.2733       1.6968653
       6880.0770       1.3755801
       6880.8806      0.99298310
       6881.6842       1.4992190
       6882.4879       1.4824418
       6883.2915       1.0605612
       6884.0952       1.1417017
       6884.8988      0.84165747
       6885.7024      0.92027674
       6886.5061       1.5378999
       6887.3097       1.4235156
       6888.1134       1.4381786
       6888.9170       1.3828097
       6889.7206       1.0135266
       6890.5243       1.1111580
       6891.3279       1.0623405
       6892.1316      0.76928675
       6892.9352      0.82638419
       6893.7388      0.84137654
       6894.5425       1.0929438
       6895.3461       1.9599044
       6896.1498       2.8940614
       6896.9534       1.4039509
       6897.7570      0.57167848
       6898.5607       1.1780927
       6899.3643      0.92548781
       6900.1680      0.86115675
       6900.9716      0.98256122
       6901.7752      0.89783182
       6902.5789      0.71032802
       6903.3825       1.4072925
       6904.1861       1.1228343
       6904.9898      0.67923347
       6905.7934       1.0213323
       6906.5971      0.96644152
       6907.4007      0.99688868
       6908.2043      0.98208119
       6909.0080       1.8279996
       6909.8116       1.7667953
       6910.6153      0.79625137
       6911.4189       1.0412536
       6912.2225      0.94711348
       6913.0262      0.85011851
       6913.8298      0.88286131
       6914.6335      0.95343627
       6915.4371       1.2833357
       6916.2407       1.4813347
       6917.0444       1.3994015
       6917.8480       1.4239136
       6918.6517      0.91870932
       6919.4553      0.26486023
       6920.2589     0.066115930
       6921.0626      0.62248869
       6921.8662       1.3781519
       6922.6699       1.0889965
       6923.4735       1.4400111
       6924.2771       1.3938701
       6925.0808       1.4127772
       6925.8844       1.1132097
       6926.6881      0.98632039
       6927.4917      0.77480675
       6928.2953       1.1454321
       6929.0990      0.97938275
       6929.9026       1.0549906
       6930.7063       1.1651261
       6931.5099      0.91091034
       6932.3135       1.3007086
       6933.1172       1.6249753
       6933.9208       1.8946234
       6934.7244      0.83279625
       6935.5281      0.40907285
       6936.3317      0.82809947
       6937.1354      0.82781675
       6937.9390       1.0608227
       6938.7426      0.92269943
       6939.5463      0.93084115
       6940.3499      0.94710178
       6941.1536       1.0484183
       6941.9572       1.0776669
       6942.7608       1.2201942
       6943.5645      0.98263846
       6944.3681      0.59574719
       6945.1718      0.76522194
       6945.9754       1.0343245
       6946.7790       1.2770872
       6947.5827       1.0188835
       6948.3863       1.0054979
       6949.1900       1.0458640
       6949.9936      0.87461262
