# wavelength flux
       1581.6581     0.064029939
       1582.2009     0.016411546
       1582.7436     0.035221417
       1583.2864     0.098075105
       1583.8291     -0.10408087
       1584.3718     0.066687198
       1584.9146     0.083474093
       1585.4573    -0.012995997
       1586.0001     0.039410569
       1586.5428     0.091887434
       1587.0855    -0.017949472
       1587.6283    -0.010541677
       1588.1710     0.053827610
       1588.7138    -0.041108485
       1589.2565   -0.0061716012
       1589.7993      0.13855113
       1590.3420    0.0091615702
       1590.8847    -0.011896922
       1591.4275     0.011485041
       1591.9702     0.057840195
       1592.5130     0.082502035
       1593.0557    0.0015300988
       1593.5984    -0.019000812
       1594.1412      0.11812810
       1594.6839      0.11400572
       1595.2267      0.11523153
       1595.7694     0.036490242
       1596.3122     0.055545118
       1596.8549     0.065928947
       1597.3976    -0.030906725
       1597.9404    -0.036881146
       1598.4831     0.069241541
       1599.0259    0.0014108787
       1599.5686      0.13954812
       1600.1113    -0.026892908
       1600.6541    0.0073926798
       1601.1968     0.022525536
       1601.7396    -0.037693303
       1602.2823     0.071147926
       1602.8250     0.051278888
       1603.3678     0.062252941
       1603.9105     0.053835757
       1604.4533    -0.012494184
       1604.9960     0.071487703
       1605.5388    0.0073251060
       1606.0815     0.021525378
       1606.6242    0.0064301339
       1607.1670     0.037693571
       1607.7097     0.076919500
       1608.2525     0.042937625
       1608.7952     0.037203886
       1609.3379     0.025864974
       1609.8807     0.021328317
       1610.4234   -0.0025314368
       1610.9662    -0.011920012
       1611.5089    -0.052067285
       1612.0517   -0.0051674264
       1612.5944   -0.0047615966
       1613.1371     0.097056280
       1613.6799    0.0078131423
       1614.2226     0.032501483
       1614.7654     0.068048926
       1615.3081     0.028039981
       1615.8508     0.047860880
       1616.3936     0.038522983
       1616.9363    -0.037391979
       1617.4791    0.0059629518
       1618.0218     0.061959629
       1618.5646     0.037027105
       1619.1073     0.084200950
       1619.6500     0.010798769
       1620.1928     0.072545602
       1620.7355     0.032941291
       1621.2783     0.037580060
       1621.8210     0.039299172
       1622.3637     0.031787209
       1622.9065   -0.0017380767
       1623.4492     0.019900684
       1623.9920     0.049820196
       1624.5347     0.026132817
       1625.0775  -0.00046529906
       1625.6202     0.078903491
       1626.1629     0.056839147
       1626.7057     0.056877872
       1627.2484     0.027881510
       1627.7912    -0.015647730
       1628.3339   -0.0026470746
       1628.8766     0.029705461
       1629.4194     0.049999915
       1629.9621     0.021728474
       1630.5049     0.047908564
       1631.0476    -0.027717317
       1631.5904     0.098475041
       1632.1331     0.082070611
       1632.6758     0.063494677
       1633.2186      0.11727393
       1633.7613     0.061508165
       1634.3041     0.083651692
       1634.8468     0.056010876
       1635.3895     0.076679980
       1635.9323     0.014316702
       1636.4750     0.064125671
       1637.0178    0.0085488593
       1637.5605     0.028476253
       1638.1033     0.045896808
       1638.6460     0.052393549
       1639.1887     0.031398843
       1639.7315     0.019761079
       1640.2742     0.032812830
       1640.8170     0.099633404
       1641.3597     0.055227839
       1641.9024     0.013239893
       1642.4452     0.016266640
       1642.9879      0.10680068
       1643.5307     0.097416330
       1644.0734    -0.046028194
       1644.6162     0.048628991
       1645.1589    -0.042449494
       1645.7016     0.018234446
       1646.2444      0.10887536
       1646.7871    -0.024210006
       1647.3299     0.030312800
       1647.8726     0.045125378
       1648.4153     0.013928320
       1648.9581      0.10786572
       1649.5008     0.022049832
       1650.0436     0.069454498
       1650.5863    0.0023201250
       1651.1291     0.083324348
       1651.6718     0.070984601
       1652.2145    0.0013074509
       1652.7573     0.039815989
       1653.3000     0.083157745
       1653.8428     0.066555350
       1654.3855     0.053443485
       1654.9282     0.048868145
       1655.4710      0.10795588
       1656.0137      0.16991664
       1656.5565     0.076311552
       1657.0992     0.085931730
       1657.6420     0.091837012
       1658.1847   -0.0059293454
       1658.7274     0.080858064
       1659.2702      0.10063362
       1659.8129    -0.012245660
       1660.3557      0.12561394
       1660.8984     0.081255715
       1661.4411     0.072475361
       1661.9839     0.044205676
       1662.5266    -0.014422751
       1663.0694     0.083641148
       1663.6121     0.015765293
       1664.1549     0.011566098
       1664.6976    0.0084449369
       1665.2403  -0.00080077211
       1665.7831     0.059645949
       1666.3258     0.067351241
       1666.8686     0.020978796
       1667.4113     0.030208657
       1667.9540     0.071062218
       1668.4968     0.053496201
       1669.0395     0.060533560
       1669.5823     0.021384274
       1670.1250     0.026209981
       1670.6677     0.084041286
       1671.2105     0.078386049
       1671.7532     0.066725750
       1672.2960    0.0010027661
       1672.8387     0.027260409
       1673.3815     0.069380525
       1673.9242     0.071541059
       1674.4669     0.017789418
       1675.0097     0.054684368
       1675.5524     0.040919094
       1676.0952     0.077371225
       1676.6379     0.033097759
       1677.1806     0.060005705
       1677.7234     0.041919722
       1678.2661     0.062742460
       1678.8089    0.0063534847
       1679.3516     0.028475845
       1679.8944     0.041820580
       1680.4371     0.034509100
       1680.9798     0.074645476
       1681.5226     0.043802965
       1682.0653     0.056880734
       1682.6081     0.042656198
       1683.1508     0.020219991
       1683.6935     0.062383914
       1684.2363     0.083823887
       1684.7790     0.038770766
       1685.3218     0.011019325
       1685.8645     0.025540015
       1686.4073     0.048111390
       1686.9500     0.090012622
       1687.4927     0.073205254
       1688.0355     0.053622513
       1688.5782     0.066819789
       1689.1210     0.081548107
       1689.6637     0.039851332
       1690.2064     0.057554100
       1690.7492     0.062590129
       1691.2919      0.14575897
       1691.8347     0.039023159
       1692.3774     0.043711659
       1692.9202     0.093968552
       1693.4629     0.037986494
       1694.0056    0.0030831617
       1694.5484     0.085641415
       1695.0911     0.097940388
       1695.6339     0.056545339
       1696.1766     0.044692256
       1696.7193     0.066180921
       1697.2621     0.058260641
       1697.8048     0.079663281
       1698.3476     0.054500750
       1698.8903     0.029514790
       1699.4331     0.036918037
       1699.9758     0.028849981
       1700.5185     0.056284590
       1701.0613     0.054331827
       1701.6040     0.074439034
       1702.1468     0.014442858
       1702.6895     0.028059087
       1703.2322     0.026384869
       1703.7750     0.069378436
       1704.3177    0.0019055741
       1704.8605    -0.024382618
       1705.4032     0.050326626
       1705.9460     0.082414492
       1706.4887     0.030955116
       1707.0314     0.063796499
       1707.5742     0.050481674
       1708.1169     0.098730373
       1708.6597     0.059833043
       1709.2024     0.092900360
       1709.7451     0.037233178
       1710.2879     0.052609496
       1710.8306     0.055986588
       1711.3734     0.070542333
       1711.9161     0.080755579
       1712.4589     0.038727006
       1713.0016     0.066167099
       1713.5443     0.030274840
       1714.0871     0.036428692
       1714.6298     0.031459643
       1715.1726     0.066193234
       1715.7153     0.060437733
       1716.2580     0.067119408
       1716.8008     0.047826789
       1717.3435     0.082808261
       1717.8863     0.084595159
       1718.4290     0.074444670
       1718.9718     0.046387088
       1719.5145     0.020804712
       1720.0572     0.028991427
       1720.6000     0.057578289
       1721.1427     0.035198323
       1721.6855     0.070493118
       1722.2282     0.054976132
       1722.7709     0.075885002
       1723.3137      0.11585184
       1723.8564     0.052771021
       1724.3992     0.087319210
       1724.9419     0.061837743
       1725.4847     0.033747990
       1726.0274     0.014695210
       1726.5701     0.038507119
       1727.1129     0.021738552
       1727.6556     0.039012778
       1728.1984     0.042241815
       1728.7411     0.025126557
       1729.2838     0.031792417
       1729.8266     0.040323388
       1730.3693     0.018784502
       1730.9121     0.063069837
       1731.4548     0.068978345
       1731.9976     0.094124811
       1732.5403     0.041692605
       1733.0830     0.089822505
       1733.6258     0.062722749
       1734.1685     0.036918132
       1734.7113     0.029433613
       1735.2540     0.067000599
       1735.7967     0.025648618
       1736.3395     0.056073583
       1736.8822     0.048592798
       1737.4250     0.098654325
       1737.9677     0.036737949
       1738.5104     0.022955756
       1739.0532     0.064890249
       1739.5959     0.074337702
       1740.1387     0.064416819
       1740.6814     0.087627304
       1741.2242     0.058476628
       1741.7669     0.029082908
       1742.3096     0.086244082
       1742.8524     0.055084671
       1743.3951     0.030763474
       1743.9379     0.035802012
       1744.4806     0.035014950
       1745.0233     0.067976882
       1745.5661     0.035124366
       1746.1088     0.055455484
       1746.6516     0.031308594
       1747.1943   -0.0044189349
       1747.7371     0.064518916
       1748.2798     0.093273551
       1748.8225     0.039270617
       1749.3653     0.043369382
       1749.9080     0.053656380
       1750.4508     0.025221281
       1750.9935     0.096444370
       1751.5362     0.093393111
       1752.0790     0.052314813
       1752.6217     0.091594898
       1753.1645     0.064788412
       1753.7072     0.080081449
       1754.2500     0.076785325
       1754.7927     0.084466556
       1755.3354     0.089203761
       1755.8782     0.077160782
       1756.4209     0.056921069
       1756.9637     0.086285041
       1757.5064     0.049424838
       1758.0491     0.048132591
       1758.5919     0.028949049
       1759.1346     0.042789491
       1759.6774     0.046246029
       1760.2201     0.079108254
       1760.7629     0.077908344
       1761.3056     0.094686339
       1761.8483     0.052946976
       1762.3911      0.10365346
       1762.9338     0.090213432
       1763.4766     0.073335984
       1764.0193     0.074360546
       1764.5620     0.033653941
       1765.1048     0.036050673
       1765.6475     0.021625935
       1766.1903     0.033118516
       1766.7330     0.041058317
       1767.2758     0.061793222
       1767.8185     0.061360604
       1768.3612      0.10795855
       1768.9040     0.031090973
       1769.4467     0.063457749
       1769.9895     0.029737192
       1770.5322     0.029218136
       1771.0749     0.023217463
       1771.6177     0.081023287
       1772.1604     0.036236648
       1772.7032     0.031004020
       1773.2459     0.059444968
       1773.7887     0.072351404
       1774.3314     0.059320374
       1774.8741     0.058084316
       1775.4169     0.042068778
       1775.9596     0.060283405
       1776.5024     0.074497660
       1777.0451     0.099276624
       1777.5878     0.066470884
       1778.1306     0.039295818
       1778.6733     0.047972636
       1779.2161     0.075899867
       1779.7588     0.018707476
       1780.3016      0.11100875
       1780.8443     0.094763752
       1781.3870     0.084170119
       1781.9298     0.067333322
       1782.4725      0.12383898
       1783.0153     0.097271846
       1783.5580      0.11616195
       1784.1007     0.032330302
       1784.6435     0.068377634
       1785.1862     0.060366949
       1785.7290     0.094310286
       1786.2717     0.055640667
       1786.8145     0.056013058
       1787.3572     0.069309082
       1787.8999     0.013257033
       1788.4427      0.15643400
       1788.9854     0.083195635
       1789.5282     0.059396329
       1790.0709     0.061517907
       1790.6136     0.096618426
       1791.1564     0.059395987
       1791.6991     0.059373149
       1792.2419     0.065876446
       1792.7846     0.084183059
       1793.3274     0.084207162
       1793.8701      0.10249246
       1794.4128     0.098045091
       1794.9556     0.045280479
       1795.4983     0.016376180
       1796.0411     0.072075830
       1796.5838     0.081064380
       1797.1265     0.083156381
       1797.6693     0.039281247
       1798.2120     0.054789217
       1798.7548     0.028475855
       1799.2975     0.040499579
       1799.8403     0.061410344
       1800.3830     0.053366515
       1800.9257     0.066781338
       1801.4685     0.060646368
       1802.0112     0.064213307
       1802.5540     0.054905805
       1803.0967     0.040623951
       1803.6394     0.064871429
       1804.1822     0.041759109
       1804.7249     0.077005809
       1805.2677     0.038318629
       1805.8104     0.013827810
       1806.3531      0.10506912
       1806.8959     0.063268226
       1807.4386     0.041057131
       1807.9814     0.075130368
       1808.5241     0.062948891
       1809.0669     0.083979855
       1809.6096     0.034824352
       1810.1523     0.065169977
       1810.6951     0.017572132
       1811.2378     0.059652875
       1811.7806     0.065077673
       1812.3233     0.040026222
       1812.8660     0.047388923
       1813.4088     0.070893227
       1813.9515     0.064399514
       1814.4943     0.087170302
       1815.0370     0.041127500
       1815.5798     0.045097067
       1816.1225     0.033613410
       1816.6652     0.049947125
       1817.2080     0.040093846
       1817.7507     0.079922533
       1818.2935     0.071767191
       1818.8362     0.084520221
       1819.3789     0.078513704
       1819.9217     0.052067438
       1820.4644     0.042437875
       1821.0072     0.039368483
       1821.5499     0.043876858
       1822.0927     0.092433559
       1822.6354     0.078802652
       1823.1781  -0.00097503959
       1823.7209     0.045719389
       1824.2636     0.088231274
       1824.8064     0.085105083
       1825.3491     0.094475649
       1825.8918     0.068621335
       1826.4346     0.038959435
       1826.9773     0.028819372
       1827.5201     0.025110214
       1828.0628     0.058601765
       1828.6056     0.038601869
       1829.1483      0.10441403
       1829.6910     0.091568540
       1830.2338     0.068119419
       1830.7765     0.076412776
       1831.3193     0.080401026
       1831.8620     0.058290687
       1832.4047     0.035838234
       1832.9475     0.076794700
       1833.4902     0.050202469
       1834.0330     0.082439195
       1834.5757     0.039812642
       1835.1185     0.079172954
       1835.6612     0.056841838
       1836.2039     0.071680967
       1836.7467     0.056308191
       1837.2894     0.099863334
       1837.8322     0.030154853
       1838.3749     0.088966103
       1838.9176     0.067078695
       1839.4604     0.032994865
       1840.0031     0.021595823
       1840.5459     0.060347716
       1841.0886     0.073507374
       1841.6314     0.065817922
       1842.1741     0.055136971
       1842.7168     0.045224539
       1843.2596     0.039807567
       1843.8023     0.062271358
       1844.3451     0.045192639
       1844.8878  -0.00023212728
       1845.4305     0.068591866
       1845.9733     0.052052413
       1846.5160     0.081390291
       1847.0588     0.069739661
       1847.6015     0.042250191
       1848.1443     0.056621814
       1848.6870     0.074557356
       1849.2297     0.077032016
       1849.7725    0.0049742078
       1850.3152     0.039157444
       1850.8580     0.052609659
       1851.4007     0.041265118
       1851.9434     0.066670566
       1852.4862     0.042415995
       1853.0289     0.044474026
       1853.5717     0.024253350
       1854.1144     0.049234408
       1854.6572     0.094591313
       1855.1999     0.043442028
       1855.7426     0.049318343
       1856.2854      0.10630963
       1856.8281     0.051880439
       1857.3709     0.049339223
       1857.9136     0.081222746
       1858.4563     0.087037141
       1858.9991     0.058724669
       1859.5418     0.021831963
       1860.0846     0.088404582
       1860.6273     0.056793653
       1861.1701     0.057228834
       1861.7128     0.015769124
       1862.2555     0.036842276
       1862.7983      0.11443361
       1863.3410     0.038442446
       1863.8838     0.058066381
       1864.4265     0.046995977
       1864.9692     0.062499513
       1865.5120     0.062017749
       1866.0547     0.035995139
       1866.5975     0.069367683
       1867.1402     0.075275828
       1867.6830     0.061978337
       1868.2257     0.035270708
       1868.7684     0.059437398
       1869.3112     0.082698958
       1869.8539     0.050751042
       1870.3967     0.072189965
       1870.9394     0.034111928
       1871.4821     0.079002165
       1872.0249     0.093690067
       1872.5676     0.071240011
       1873.1104     0.060975148
       1873.6531     0.067912921
       1874.1959     0.094544743
       1874.7386     0.055635278
       1875.2813     0.049919502
       1875.8241      0.10039317
       1876.3668     0.048238647
       1876.9096     0.054987780
       1877.4523     0.087747789
       1877.9950     0.085369287
       1878.5378     0.098009849
       1879.0805     0.083372016
       1879.6233     0.065476472
       1880.1660     0.027752228
       1880.7087     0.073333858
       1881.2515     0.052890102
       1881.7942     0.052959263
       1882.3370     0.048300835
       1882.8797     0.020559574
       1883.4225     0.087975624
       1883.9652     0.057642562
       1884.5079     0.058395129
       1885.0507     0.090227742
       1885.5934     0.084378881
       1886.1362     0.069150803
       1886.6789     0.057471384
       1887.2216     0.026345009
       1887.7644     0.057525937
       1888.3071     0.092604943
       1888.8499     0.028519935
       1889.3926     0.037857935
       1889.9354     0.056131899
       1890.4781     0.067836367
       1891.0208     0.075770155
       1891.5636     0.060375506
       1892.1063     0.079648328
       1892.6491     0.053284595
       1893.1918     0.067616343
       1893.7345     0.039706731
       1894.2773     0.047243179
       1894.8200     0.034319322
       1895.3628     0.058668680
       1895.9055     0.068409498
       1896.4483     0.067780379
       1896.9910     0.079346818
       1897.5337     0.063047905
       1898.0765     0.018411302
       1898.6192      0.10367963
       1899.1620     0.047611503
       1899.7047     0.069322490
       1900.2474     0.049673442
       1900.7902     0.044574761
       1901.3329      0.10118993
       1901.8757     0.032202457
       1902.4184     0.039270392
       1902.9612     0.062848434
       1903.5039     0.063403846
       1904.0466     0.036588711
       1904.5894     0.062803962
       1905.1321     0.047764237
       1905.6749     0.023553009
       1906.2176     0.073164572
       1906.7603     0.083166782
       1907.3031     0.059629671
       1907.8458     0.065335029
       1908.3886     0.058067786
       1908.9313     0.065296293
       1909.4741     0.033432877
       1910.0168     0.056193034
       1910.5595     0.063473007
       1911.1023      0.10295588
       1911.6450     0.033268767
       1912.1878     0.058399954
       1912.7305     0.040689987
       1913.2732     0.064144045
       1913.8160     0.045581950
       1914.3587     0.082514466
       1914.9015     0.046733451
       1915.4442     0.061203986
       1915.9870     0.064331734
       1916.5297     0.042003931
       1917.0724     0.069323215
       1917.6152     0.043125450
       1918.1579     0.063919994
       1918.7007     0.052179340
       1919.2434     0.072590856
       1919.7861     0.084182753
       1920.3289     0.041102130
       1920.8716     0.081989020
       1921.4144     0.032518284
       1921.9571     0.067213451
       1922.4999     0.039123101
       1923.0426     0.062876646
       1923.5853     0.069138738
       1924.1281     0.061515764
       1924.6708     0.063286951
       1925.2136     0.061170282
       1925.7563     0.056056653
       1926.2990     0.046569536
       1926.8418     0.044079675
       1927.3845     0.050867229
       1927.9273     0.058424365
       1928.4700     0.068526282
       1929.0128     0.062213666
       1929.5555     0.041531633
       1930.0982     0.040365999
       1930.6410     0.071595735
       1931.1837     0.045033592
       1931.7265      0.10511679
       1932.2692     0.041853136
       1932.8119     0.045520611
       1933.3547     0.028300369
       1933.8974     0.071513708
       1934.4402     0.087690909
       1934.9829     0.088299213
       1935.5257     0.058017062
       1936.0684     0.081224173
       1936.6111     0.054759935
       1937.1539     0.062376205
       1937.6966     0.078249306
       1938.2394     0.047689861
       1938.7821     0.030912549
       1939.3248     0.072719778
       1939.8676     0.068329761
       1940.4103     0.035636794
       1940.9531     0.084786187
       1941.4958     0.045969013
       1942.0386     0.049993248
       1942.5813     0.039773932
       1943.1240     0.035884793
       1943.6668     0.049443218
       1944.2095     0.059816677
       1944.7523     0.067109391
       1945.2950     0.088622355
       1945.8377     0.071108013
       1946.3805     0.054459798
       1946.9232     0.051407808
       1947.4660     0.076471358
       1948.0087     0.049829229
       1948.5514     0.027785274
       1949.0942     0.040706936
       1949.6369     0.076337271
       1950.1797     0.095629673
       1950.7224     0.062968633
       1951.2652     0.069655309
       1951.8079     0.059850538
       1952.3506     0.059629239
       1952.8934     0.026173798
       1953.4361     0.057660886
       1953.9789     0.058268608
       1954.5216     0.067070458
       1955.0643     0.038003375
       1955.6071     0.067624935
       1956.1498     0.039543850
       1956.6926     0.056296625
       1957.2353     0.054078230
       1957.7781     0.049549175
       1958.3208     0.035033661
       1958.8635     0.043568921
       1959.4063     0.053377941
       1959.9490     0.014893014
       1960.4918     0.051307681
       1961.0345     0.028390956
       1961.5772     0.052472170
       1962.1200     0.076952271
       1962.6627     0.048473425
       1963.2055     0.035365207
       1963.7482     0.050931304
       1964.2910     0.080102188
       1964.8337     0.061421639
       1965.3764     0.060256883
       1965.9192     0.082001858
       1966.4619     0.036087108
       1967.0047     0.073934309
       1967.5474     0.052249697
       1968.0901     0.058387950
       1968.6329     0.064619449
       1969.1756     0.063515951
       1969.7184     0.069325636
       1970.2611     0.070276545
       1970.8039     0.067125655
       1971.3466     0.046689840
       1971.8893     0.078342907
       1972.4321     0.050052359
       1972.9748     0.071789169
       1973.5176     0.042565087
       1974.0603     0.053037648
       1974.6030     0.063164508
       1975.1458     0.049984997
       1975.6885     0.046784873
       1976.2313     0.076083168
       1976.7740     0.073827370
       1977.3168     0.040618814
       1977.8595     0.051576539
       1978.4022     0.086619405
       1978.9450     0.086552056
       1979.4877     0.067483591
       1980.0305     0.043826529
       1980.5732     0.046899148
       1981.1159     0.087026246
       1981.6587     0.074411276
       1982.2014     0.037507778
       1982.7442     0.062625112
       1983.2869     0.031139305
       1983.8297     0.076889491
       1984.3724     0.044493502
       1984.9151     0.063867294
       1985.4579     0.058295395
       1986.0006     0.061640498
       1986.5434     0.076325285
       1987.0861     0.066698026
       1987.6288     0.068714322
       1988.1716     0.055814723
       1988.7143     0.051519084
       1989.2571     0.059477645
       1989.7998     0.043759560
       1990.3426     0.041476367
       1990.8853     0.065736819
       1991.4280     0.042860836
       1991.9708     0.031847633
       1992.5135     0.052741892
       1993.0563     0.085311581
       1993.5990     0.063633134
       1994.1417     0.071410587
       1994.6845     0.033102501
       1995.2272     0.043690822
       1995.7700     0.056784399
       1996.3127     0.051416863
       1996.8555     0.054765589
       1997.3982     0.052052259
       1997.9409     0.043494182
       1998.4837     0.048634400
       1999.0264     0.057668518
       1999.5692     0.057854994
       2000.1119     0.049664033
       2000.6546     0.056398225
       2001.1974     0.057148145
       2001.7401     0.048525820
       2002.2829     0.062787334
       2002.8256     0.042430904
       2003.3684     0.063302906
       2003.9111     0.076930440
       2004.4538     0.049024863
       2004.9966     0.051816752
       2005.5393     0.060156785
       2006.0821     0.041030482
       2006.6248     0.055957474
       2007.1675     0.035502944
       2007.7103     0.050123368
       2008.2530     0.062561886
       2008.7958     0.034241764
       2009.3385     0.063855155
       2009.8813     0.055180108
       2010.4240     0.055056589
       2010.9667     0.067208384
       2011.5095     0.049711043
       2012.0522     0.050693426
       2012.5950     0.037514477
       2013.1377     0.058354353
       2013.6804     0.072164235
       2014.2232     0.052019948
       2014.7659     0.050092071
       2015.3087     0.065102357
       2015.8514     0.093920131
       2016.3941     0.055368323
       2016.9369     0.024220113
       2017.4796     0.072453694
       2018.0224     0.095522237
       2018.5651     0.039216685
       2019.1079     0.034764162
       2019.6506     0.054376893
       2020.1933     0.050503868
       2020.7361     0.040449452
       2021.2788     0.073476753
       2021.8216     0.060904665
       2022.3643     0.049616188
       2022.9070     0.036472398
       2023.4498     0.085514266
       2023.9925     0.075266170
       2024.5353      0.10410934
       2025.0780     0.093295531
       2025.6208     0.024596415
       2026.1635     0.086952968
       2026.7062     0.049757567
       2027.2490     0.043679402
       2027.7917     0.066133348
       2028.3345     0.031423856
       2028.8772     0.040969392
       2029.4199     0.069232829
       2029.9627     0.041324017
       2030.5054     0.048583166
       2031.0482     0.046181872
       2031.5909     0.093376844
       2032.1337     0.076528133
       2032.6764     0.027729024
       2033.2191     0.051096619
       2033.7619     0.099715054
       2034.3046     0.063649649
       2034.8474     0.055425763
       2035.3901     0.061127183
       2035.9328     0.072771176
       2036.4756     0.023524671
       2037.0183     0.070711443
       2037.5611     0.023230761
       2038.1038     0.042511395
       2038.6466     0.057250207
       2039.1893     0.049344069
       2039.7320      0.10015537
       2040.2748     0.048305443
       2040.8175     0.037711014
       2041.3603     0.078514053
       2041.9030     0.055843791
       2042.4457     0.047756392
       2042.9885     0.076841859
       2043.5312     0.054072052
       2044.0740     0.036897722
       2044.6167     0.029433538
       2045.1595      0.11824413
       2045.7022     0.065071853
       2046.2449     0.059737330
       2046.7877     0.085860561
       2047.3304     0.082449436
       2047.8732     0.021116854
       2048.4159     0.059858900
       2048.9586     0.073449351
       2049.5014     0.075005673
       2050.0441     0.059407854
       2050.5869     0.061400840
       2051.1296     0.077087815
       2051.6724     0.073189426
       2052.2151     0.075989785
       2052.7578     0.099687199
       2053.3006     0.062572947
       2053.8433     0.086961562
       2054.3861     0.069923624
       2054.9288     0.088773891
       2055.4715     0.059606997
       2056.0143     0.081340882
       2056.5570     0.061513837
       2057.0998     0.048738715
       2057.6425     0.052176688
       2058.1853     0.070975617
       2058.7280     0.018985533
       2059.2707     0.065227193
       2059.8135     0.080263770
       2060.3562     0.061228467
       2060.8990     0.078846086
       2061.4417     0.063971187
       2061.9844     0.056594638
       2062.5272     0.060770268
       2063.0699     0.055349952
       2063.6127     0.086344765
       2064.1554     0.070304889
       2064.6982     0.094074410
       2065.2409     0.050255479
       2065.7836     0.051249266
       2066.3264     0.059279433
       2066.8691     0.043102809
       2067.4119     0.032509906
       2067.9546     0.064000266
       2068.4973     0.074676374
       2069.0401     0.063988163
       2069.5828     0.031663848
       2070.1256     0.070313452
       2070.6683     0.049253003
       2071.2111     0.091318164
       2071.7538     0.082788365
       2072.2965     0.071111775
       2072.8393     0.080272680
       2073.3820     0.067184205
       2073.9248     0.064170226
       2074.4675     0.028537365
       2075.0102     0.066855443
       2075.5530     0.027071358
       2076.0957     0.037020580
       2076.6385     0.054782896
       2077.1812     0.060766065
       2077.7240     0.089311190
       2078.2667     0.058919253
       2078.8094     0.054945720
       2079.3522     0.074090012
       2079.8949     0.053919273
       2080.4377     0.066098461
       2080.9804     0.061141793
       2081.5231      0.10319427
       2082.0659     0.066879583
       2082.6086     0.068183194
       2083.1514     0.075910468
       2083.6941     0.076479534
       2084.2368     0.088858509
       2084.7796     0.080438603
       2085.3223     0.036756178
       2085.8651     0.046051593
       2086.4078     0.072255475
       2086.9506     0.072082350
       2087.4933     0.046254560
       2088.0360     0.076553102
       2088.5788     0.088163147
       2089.1215     0.052401064
       2089.6643     0.024463183
       2090.2070     0.035000565
       2090.7497     0.024390953
       2091.2925     0.036514701
       2091.8352     0.024998441
       2092.3780     0.049151939
       2092.9207     0.071644697
       2093.4635     0.031104423
       2094.0062     0.035691037
       2094.5489     0.051402540
       2095.0917     0.062537874
       2095.6344     0.045604618
       2096.1772     0.060529379
       2096.7199     0.021032291
       2097.2626     0.042971497
       2097.8054     0.086237137
       2098.3481     0.079485946
       2098.8909     0.044651123
       2099.4336     0.069772146
       2099.9764     0.062310432
       2100.5191     0.051167256
       2101.0618     0.063184547
       2101.6046     0.072685617
       2102.1473     0.093475960
       2102.6901     0.080493628
       2103.2328     0.082936499
       2103.7755     0.085755756
       2104.3183     0.074178586
       2104.8610     0.054958895
       2105.4038     0.062605891
       2105.9465     0.056633651
       2106.4893     0.034640158
       2107.0320     0.045853609
       2107.5747     0.053092483
       2108.1175     0.039148524
       2108.6602     0.048991422
       2109.2030     0.067757301
       2109.7457     0.065501977
       2110.2884     0.053883139
       2110.8312     0.042566044
       2111.3739     0.072992739
       2111.9167     0.065318341
       2112.4594     0.082347702
       2113.0022     0.052405880
       2113.5449     0.075178727
       2114.0876     0.054893478
       2114.6304     0.059445680
       2115.1731     0.044290110
       2115.7159     0.048168640
       2116.2586     0.036197052
       2116.8013     0.062476204
       2117.3441     0.062278085
       2117.8868     0.052686440
       2118.4296     0.058043495
       2118.9723     0.068890247
       2119.5151     0.059298200
       2120.0578     0.070490076
       2120.6005     0.028811981
       2121.1433     0.062213829
       2121.6860     0.057544913
       2122.2288     0.044103915
       2122.7715     0.065112654
       2123.3142     0.047738264
       2123.8570      0.11301587
       2124.3997     0.060638050
       2124.9425     0.073346304
       2125.4852     0.084834733
       2126.0280     0.058019411
       2126.5707     0.028220115
       2127.1134     0.058075433
       2127.6562     0.070933610
       2128.1989     0.064266954
       2128.7417     0.040772147
       2129.2844     0.097612648
       2129.8271     0.080233199
       2130.3699     0.032728148
       2130.9126     0.082256511
       2131.4554     0.054620651
       2131.9981      0.11522090
       2132.5409     0.073979448
       2133.0836     0.082571584
       2133.6263     0.068218998
       2134.1691     0.052509092
       2134.7118     0.064665711
       2135.2546     0.055282725
       2135.7973     0.070770537
       2136.3400     0.067446555
       2136.8828     0.075334449
       2137.4255     0.068572530
       2137.9683     0.056934524
       2138.5110     0.060068455
       2139.0538     0.021732400
       2139.5965     0.052820427
       2140.1392     0.020654673
       2140.6820     0.040477136
       2141.2247      0.10205452
       2141.7675     0.077034169
       2142.3102     0.040002204
       2142.8529     0.080018507
       2143.3957     0.088985392
       2143.9384     0.070829258
       2144.4812     0.074740525
       2145.0239     0.096884358
       2145.5667     0.066247071
       2146.1094     0.074687657
       2146.6521     0.059042078
       2147.1949     0.061692520
       2147.7376     0.084288935
       2148.2804     0.068751994
       2148.8231     0.050589466
       2149.3658     0.030984242
       2149.9086     0.043015175
       2150.4513     0.063680421
       2150.9941     0.056632787
       2151.5368     0.082608431
       2152.0796     0.045371006
       2152.6223     0.079477148
       2153.1650     0.023613310
       2153.7078     0.051911859
       2154.2505     0.052193266
       2154.7933     0.088884939
       2155.3360     0.083782234
       2155.8787     0.049826649
       2156.4215     0.053686420
       2156.9642     0.078049794
       2157.5070     0.051103900
       2158.0497     0.063365984
       2158.5924     0.053741586
       2159.1352     0.091651711
       2159.6779     0.081284280
       2160.2207     0.086118358
       2160.7634     0.051437959
       2161.3062     0.058159038
       2161.8489     0.043368523
       2162.3916     0.055081414
       2162.9344     0.012336397
       2163.4771     0.080937591
       2164.0199     0.044847018
       2164.5626     0.056196409
       2165.1053     0.076695956
       2165.6481     0.072663932
       2166.1908     0.073666186
       2166.7336     0.044772846
       2167.2763     0.081647383
       2167.8191     0.065968285
       2168.3618      0.10355794
       2168.9045     0.061837005
       2169.4473     0.059832365
       2169.9900     0.050833883
       2170.5328     0.084486081
       2171.0755     0.096366519
       2171.6182     0.060725814
       2172.1610     0.091247897
       2172.7037     0.038287558
       2173.2465     0.076199528
       2173.7892     0.079224416
       2174.3320     0.084184986
       2174.8747     0.070365284
       2175.4174     0.065551049
       2175.9602     0.064009613
       2176.5029     0.062298974
       2177.0457     0.095311638
       2177.5884     0.074192191
       2178.1311     0.058540133
       2178.6739     0.069401448
       2179.2166     0.053920185
       2179.7594     0.065966300
       2180.3021     0.043296090
       2180.8449     0.063855307
       2181.3876     0.049145554
       2181.9303     0.044701076
       2182.4731     0.070362364
       2183.0158     0.055256405
       2183.5586     0.082912659
       2184.1013     0.069886641
       2184.6440     0.066610717
       2185.1868     0.057540601
       2185.7295     0.045497305
       2186.2723     0.063096053
       2186.8150     0.090881936
       2187.3578     0.041796291
       2187.9005     0.041517990
       2188.4432     0.047494824
       2188.9860     0.097601378
       2189.5287     0.033636071
       2190.0715      0.10813644
       2190.6142     0.074469579
       2191.1569     0.071177353
       2191.6997     0.048674481
       2192.2424     0.040733960
       2192.7852     0.055154778
       2193.3279     0.067035061
       2193.8707     0.091289887
       2194.4134     0.051687617
       2194.9561     0.060629856
       2195.4989     0.058524763
       2196.0416     0.055325903
       2196.5844     0.089363656
       2197.1271     0.030218887
       2197.6698     0.036056036
       2198.2126     0.037523796
       2198.7553     0.056235543
       2199.2981     0.030069209
       2199.8408     0.075602246
       2200.3836     0.029494216
       2200.9263   -0.0053429965
       2201.4690     0.078544391
       2202.0118     0.065737970
       2202.5545     0.040844150
       2203.0973     0.052806765
       2203.6400     0.075695972
       2204.1827     0.032079474
       2204.7255     0.015640563
       2205.2682     0.067768805
       2205.8110    0.0039146476
       2206.3537     0.060990721
       2206.8965     0.035091548
       2207.4392     0.083819431
       2207.9819     0.067700113
       2208.5247     0.084504383
       2209.0674     0.081410425
       2209.6102     0.055517611
       2210.1529     0.073931436
       2210.6956     0.044925234
       2211.2384     0.063017216
       2211.7811     0.053497953
       2212.3239     0.094135182
       2212.8666     0.078027131
       2213.4094     0.059420007
       2213.9521     0.055612740
       2214.4948     0.043381613
       2215.0376     0.071899338
       2215.5803     0.068691397
       2216.1231     0.070143953
       2216.6658     0.028031771
       2217.2085     0.074667519
       2217.7513     0.055220267
       2218.2940     0.069951350
       2218.8368     0.054452650
       2219.3795     0.053555428
       2219.9223     0.057135784
       2220.4650     0.034203750
       2221.0077     0.024554573
       2221.5505     0.032661054
       2222.0932     0.046039852
       2222.6360     0.050225380
       2223.1787     0.059161014
       2223.7214     0.034971865
       2224.2642     0.049007879
       2224.8069     0.058621773
       2225.3497     0.051982918
       2225.8924     0.076007181
       2226.4351     0.097095063
       2226.9779     0.035863653
       2227.5206     0.081267020
       2228.0634     0.052013858
       2228.6061     0.077619938
       2229.1489     0.037462337
       2229.6916     0.090474185
       2230.2343     0.063979017
       2230.7771     0.077267062
       2231.3198      0.10889889
       2231.8626     0.082152967
       2232.4053      0.10412218
       2232.9480     0.075715009
       2233.4908     0.085951325
       2234.0335     0.046972756
       2234.5763      0.10732606
       2235.1190     0.069165332
       2235.6618     0.057829723
       2236.2045     0.060823940
       2236.7472     0.077577607
       2237.2900      0.12900853
       2237.8327      0.12433490
       2238.3755     0.082114623
       2238.9182      0.10043878
       2239.4609     0.073653111
       2240.0037      0.10125665
       2240.5464     0.098593550
       2241.0892     0.066058981
       2241.6319     0.081287521
       2242.1747     0.020946551
       2242.7174     0.060330729
       2243.2601     0.090173048
       2243.8029     0.056097654
       2244.3456     0.057429435
       2244.8884     0.038177010
       2245.4311      0.10293913
       2245.9738     0.070464789
       2246.5166     0.061745361
       2247.0593     0.043772870
       2247.6021     0.065865534
       2248.1448     0.093548150
       2248.6876     0.080319663
       2249.2303     0.066454400
       2249.7730     0.025000443
       2250.3158     0.052748892
       2250.8585     0.061744120
       2251.4013     0.072128844
       2251.9440     0.075578921
       2252.4867     0.085395450
       2253.0295     0.067921938
       2253.5722     0.051505574
       2254.1150     0.089612329
       2254.6577     0.084533845
       2255.2005     0.055576143
       2255.7432     0.096796911
       2256.2859      0.11815246
       2256.8287     0.095806188
       2257.3714     0.044178701
       2257.9142     0.049358517
       2258.4569     0.018953625
       2258.9996     0.089381271
       2259.5424     0.051444499
       2260.0851     0.060797787
       2260.6279     0.048847862
       2261.1706     0.051024436
       2261.7134     0.066793127
       2262.2561     0.082318934
       2262.7988     0.064501601
       2263.3416     0.097733012
       2263.8843     0.064537107
       2264.4271      0.10429621
       2264.9698     0.064878018
       2265.5125     0.094422688
       2266.0553     0.065856809
       2266.5980     0.047848350
       2267.1408     0.085339553
       2267.6835     0.040512714
       2268.2263     0.080893223
       2268.7690     0.068773019
       2269.3117     0.058070202
       2269.8545     0.062811457
       2270.3972     0.052234482
       2270.9400      0.10135578
       2271.4827      0.10037075
       2272.0254     0.035875630
       2272.5682     0.071268441
       2273.1109     0.079991832
       2273.6537     0.055391624
       2274.1964     0.053630179
       2274.7392     0.094437647
       2275.2819     0.098200880
       2275.8246     0.059741756
       2276.3674     0.058664255
       2276.9101     0.042213802
       2277.4529     0.062113577
       2277.9956     0.083979047
       2278.5383     0.063120996
       2279.0811     0.064062242
       2279.6238     0.056877243
       2280.1666     0.016609682
       2280.7093     0.055707861
       2281.2521     0.019497390
       2281.7948     0.056123500
       2282.3375     0.071284152
       2282.8803     0.046867150
       2283.4230     0.063548219
       2283.9658     0.075355190
       2284.5085     0.062138483
       2285.0512      0.11019852
       2285.5940     0.077480978
       2286.1367      0.10713477
       2286.6795     0.079405571
       2287.2222     0.055518114
       2287.7650     0.048499235
       2288.3077     0.063852767
       2288.8504      0.10863273
       2289.3932     0.061856933
       2289.9359     0.092834294
       2290.4787      0.11024273
       2291.0214     0.065701516
       2291.5641     0.067948114
       2292.1069     0.079931008
       2292.6496     0.089232948
       2293.1924     0.055786310
       2293.7351      0.10209474
       2294.2778     0.018431406
       2294.8206     0.034290795
       2295.3633     0.058869835
       2295.9061      0.10126899
       2296.4488     0.044900398
       2296.9916     0.071393725
       2297.5343     0.084841788
       2298.0770     0.026651502
       2298.6198     0.075301709
       2299.1625      0.11679501
       2299.7053     0.057187383
       2300.2480     0.060486730
       2300.7907     0.079892048
       2301.3335     0.074016255
       2301.8762     0.088644701
       2302.4190     0.068778896
       2302.9617     0.099374695
       2303.5045     0.060006993
       2304.0472     0.066716489
       2304.5899     0.060554285
       2305.1327     0.083077226
       2305.6754      0.14234440
       2306.2182     0.067849156
       2306.7609     0.097504716
       2307.3036     0.076751272
       2307.8464     0.062215883
       2308.3891     0.059947793
       2308.9319     0.076156505
       2309.4746      0.10479339
       2310.0174      0.10038633
       2310.5601      0.11620453
       2311.1028     0.070549513
       2311.6456      0.10880952
       2312.1883     0.031961581
       2312.7311     0.087138439
       2313.2738     0.036294558
       2313.8165     0.077860711
       2314.3593     0.095475815
       2314.9020     0.052824244
       2315.4448     0.071509331
       2315.9875      0.11746766
       2316.5303     0.095834809
       2317.0730     0.060381890
       2317.6157     0.098476392
       2318.1585     0.037951769
       2318.7012     0.090205185
       2319.2440     0.070829939
       2319.7867     0.058653594
       2320.3294      0.10243091
       2320.8722      0.13333177
       2321.4149     0.094515703
       2321.9577      0.11648950
       2322.5004     0.063724974
       2323.0432     0.033413797
       2323.5859     0.067081849
       2324.1286     0.070105749
       2324.6714     0.059561340
       2325.2141      0.14410582
       2325.7569     0.058770476
       2326.2996     0.061744967
       2326.8423     0.096597853
       2327.3851     0.062675779
       2327.9278     0.084762797
       2328.4706     0.078459003
       2329.0133     0.050534936
       2329.5561     0.080351284
       2330.0988     0.045875840
       2330.6415     0.086040093
       2331.1843     0.058752901
       2331.7270     0.045267537
       2332.2698     0.059918328
       2332.8125     0.091597415
       2333.3552      0.11182441
       2333.8980     0.055111402
       2334.4407     0.042473350
       2334.9835     0.076713651
       2335.5262     0.091230361
       2336.0690     0.081087952
       2336.6117     0.077382847
       2337.1544     0.081087770
       2337.6972     0.048347982
       2338.2399     0.057475597
       2338.7827     0.082618515
       2339.3254     0.029361715
       2339.8681     0.010736844
       2340.4109     0.087431829
       2340.9536     0.065301214
       2341.4964     0.027406316
       2342.0391     0.037351007
       2342.5819     0.066684846
       2343.1246     0.043860778
       2343.6673     0.034191451
       2344.2101     0.030094414
       2344.7528    0.0095276358
       2345.2956     0.050565894
       2345.8383     0.097498860
       2346.3810      0.11052774
       2346.9238     0.062399771
       2347.4665     0.035516338
       2348.0093     0.072865952
       2348.5520     0.049114674
       2349.0948     0.067040507
       2349.6375     0.099413917
       2350.1802     0.069321959
       2350.7230     0.085791089
       2351.2657     0.044898282
       2351.8085     0.085626599
       2352.3512     0.030544313
       2352.8939     0.033592779
       2353.4367     0.028384825
       2353.9794     0.083153049
       2354.5222      0.10189777
       2355.0649     0.044285664
       2355.6077     0.083831688
       2356.1504     0.059203067
       2356.6931     0.069410593
       2357.2359      0.12420719
       2357.7786     0.070538028
       2358.3214     0.057729400
       2358.8641     0.024408515
       2359.4068     0.051301342
       2359.9496     0.026003010
       2360.4923      0.11783679
       2361.0351     0.083616632
       2361.5778     0.090096052
       2362.1206     0.099821927
       2362.6633     0.068116077
       2363.2060     0.047199886
       2363.7488     0.065340436
       2364.2915      0.10700604
       2364.8343     0.091032599
       2365.3770     0.095210931
       2365.9197      0.11126486
       2366.4625     0.064768884
       2367.0052     0.068924092
       2367.5480     0.083756018
       2368.0907     0.062867834
       2368.6334     0.055101633
       2369.1762     0.030201947
       2369.7189     0.093646598
       2370.2617     0.050002467
       2370.8044     0.095512817
       2371.3472     0.061308250
       2371.8899     0.021613195
       2372.4326     0.041592523
       2372.9754     0.028225661
       2373.5181     0.028830952
       2374.0609     0.041676284
       2374.6036     0.059162191
       2375.1463     0.072633789
       2375.6891     0.052490359
       2376.2318     0.067577622
       2376.7746     0.098630246
       2377.3173     0.064620164
       2377.8601     0.060425751
       2378.4028     0.059898009
       2378.9455     0.018166826
       2379.4883   0.00025981467
       2380.0310     0.042499381
       2380.5738     0.021967224
       2381.1165     0.013509452
       2381.6592     0.025977250
       2382.2020     0.049976493
       2382.7447     0.096700955
       2383.2875     0.078880995
       2383.8302     0.071409314
       2384.3730     0.049699662
       2384.9157      0.10989471
       2385.4584     0.054414706
       2386.0012     0.089427517
       2386.5439     0.074441009
       2387.0867     0.089899732
       2387.6294     0.082263080
       2388.1721     0.070360783
       2388.7149     0.042196012
       2389.2576     0.039368447
       2389.8004     0.068358342
       2390.3431     0.086871009
       2390.8859     0.056069716
       2391.4286     0.076909787
       2391.9713     0.059053893
       2392.5141     0.099625682
       2393.0568     0.057419276
       2393.5996     0.097412148
       2394.1423      0.11609068
       2394.6850     0.082735219
       2395.2278     0.064100049
       2395.7705     0.083555622
       2396.3133     0.067946258
       2396.8560     0.051773159
       2397.3988     0.042836650
       2397.9415     0.060939067
       2398.4842      0.10815507
       2399.0270     0.079059507
       2399.5697     0.053260063
       2400.1125     0.062801939
       2400.6552     0.049296569
       2401.1979     0.075723260
       2401.7407      0.13627378
       2402.2834     0.067461634
       2402.8262      0.10780810
       2403.3689      0.10981013
       2403.9117     0.061999663
       2404.4544     0.082380096
       2404.9971      0.11493105
       2405.5399     0.047353067
       2406.0826     0.083535790
       2406.6254     0.073743386
       2407.1681      0.10938032
       2407.7108     0.054892269
       2408.2536      0.10204782
       2408.7963     0.090000732
       2409.3391      0.11701715
       2409.8818     0.058607814
       2410.4246     0.047773873
       2410.9673     0.073132149
       2411.5100     0.046653815
       2412.0528     0.066695670
       2412.5955     0.028304697
       2413.1383     0.071452450
       2413.6810     0.013907361
       2414.2237     0.084629857
       2414.7665      0.12963452
       2415.3092     0.074102418
       2415.8520     0.050402490
       2416.3947     0.094369850
       2416.9375      0.10080363
       2417.4802     0.056660639
       2418.0229     0.096087249
       2418.5657     0.066532211
       2419.1084     0.052954020
       2419.6512     0.079679093
       2420.1939     0.090989660
       2420.7366     0.092168385
       2421.2794     0.071567219
       2421.8221      0.10626985
       2422.3649     0.069612264
       2422.9076     0.079752288
       2423.4504     0.094037361
       2423.9931     0.077023270
       2424.5358     0.059564309
       2425.0786     0.075450950
       2425.6213      0.10542235
       2426.1641     0.076721612
       2426.7068      0.10702393
       2427.2495      0.10132393
       2427.7923     0.062094110
       2428.3350     0.065579495
       2428.8778     0.066026484
       2429.4205     0.055004049
       2429.9633     0.052606959
       2430.5060     0.063182282
       2431.0487     0.093085537
       2431.5915      0.10454723
       2432.1342     0.074327596
       2432.6770     0.086467404
       2433.2197     0.048826124
       2433.7624     0.080393084
       2434.3052     0.075240412
       2434.8479      0.11090744
       2435.3907      0.10685202
       2435.9334     0.084847002
       2436.4761     0.098809496
       2437.0189     0.057519988
       2437.5616     0.091518394
       2438.1044     0.066103027
       2438.6471     0.053067813
       2439.1899      0.10143738
       2439.7326     0.088746665
       2440.2753     0.035872236
       2440.8181      0.10233588
       2441.3608     0.065553198
       2441.9036     0.058568515
       2442.4463     0.062602208
       2442.9890     0.095524671
       2443.5318     0.025332896
       2444.0745     0.088959749
       2444.6173     0.062617021
       2445.1600     0.084303481
       2445.7028     0.095188916
       2446.2455     0.095847483
       2446.7882     0.044455490
       2447.3310      0.12425545
       2447.8737     0.087737023
       2448.4165     0.071011527
       2448.9592      0.11295277
       2449.5019     0.038842974
       2450.0447     0.089808644
       2450.5874     0.043974646
       2451.1302     0.061636457
       2451.6729     0.095453465
       2452.2157     0.093589995
       2452.7584     0.053311001
       2453.3011      0.10816974
       2453.8439     0.094861901
       2454.3866     0.094927539
       2454.9294     0.063982384
       2455.4721     0.052599496
       2456.0148     0.051270183
       2456.5576     0.080195625
       2457.1003     0.058090037
       2457.6431     0.077355279
       2458.1858      0.11035081
       2458.7286      0.10213191
       2459.2713     0.056608773
       2459.8140     0.049898814
       2460.3568     0.099069647
       2460.8995     0.090703714
       2461.4423      0.11435650
       2461.9850     0.067373305
       2462.5277     0.091502127
       2463.0705     0.076141672
       2463.6132      0.10533989
       2464.1560      0.10439250
       2464.6987     0.046275816
       2465.2415      0.11121375
       2465.7842     0.091167222
       2466.3269      0.10379425
       2466.8697     0.078235151
       2467.4124     0.092166125
       2467.9552     0.075848848
       2468.4979     0.083698957
       2469.0406     0.091868178
       2469.5834      0.12743795
       2470.1261      0.13373772
       2470.6689     0.071633956
       2471.2116     0.086104731
       2471.7544     0.071905534
       2472.2971      0.10361691
       2472.8398     0.069099084
       2473.3826     0.091916152
       2473.9253     0.084732929
       2474.4681     0.059203654
       2475.0108     0.041787630
       2475.5535     0.023110194
       2476.0963     0.091266483
       2476.6390     0.033557116
       2477.1818     0.049047387
       2477.7245     0.090921063
       2478.2673     0.088856853
       2478.8100      0.12300396
       2479.3527     0.094853159
       2479.8955     0.081718466
       2480.4382      0.12314413
       2480.9810      0.10628358
       2481.5237     0.083384683
       2482.0664      0.11863733
       2482.6092     0.059981253
       2483.1519     0.091980988
       2483.6947     0.065160214
       2484.2374     0.097040655
       2484.7802     0.055863461
       2485.3229     0.073455953
       2485.8656     0.094485989
       2486.4084     0.082589818
       2486.9511      0.10714532
       2487.4939     0.091550966
       2488.0366     0.047963374
       2488.5793     0.065506496
       2489.1221     0.067708092
       2489.6648     0.019811103
       2490.2076     0.089068701
       2490.7503     0.054503562
       2491.2931     0.058744956
       2491.8358      0.11219672
       2492.3785     0.078107952
       2492.9213      0.11982292
       2493.4640      0.11801213
       2494.0068      0.11902115
       2494.5495      0.10439252
       2495.0922     0.073207320
       2495.6350     0.091763567
       2496.1777     0.051460564
       2496.7205     0.083715292
       2497.2632     0.031259106
       2497.8060     0.082906650
       2498.3487     0.075310918
       2498.8914      0.11404912
       2499.4342     0.082906395
       2499.9769     0.093139363
       2500.5197     0.068210692
       2501.0624     0.062685971
       2501.6051     0.070752411
       2502.1479     0.064157858
       2502.6906     0.078039910
       2503.2334     0.079022496
       2503.7761     0.058444256
       2504.3188     0.076981390
       2504.8616     0.098143798
       2505.4043     0.099255159
       2505.9471     0.041169920
       2506.4898      0.10250351
       2507.0326     0.055094798
       2507.5753     0.037634086
       2508.1180      0.10379300
       2508.6608     0.088622870
       2509.2035     0.090116480
       2509.7463     0.088613090
       2510.2890     0.044154469
       2510.8317     0.081593481
       2511.3745     0.024571354
       2511.9172     0.087847475
       2512.4600     0.075873244
       2513.0027     0.028124901
       2513.5455      0.13303300
       2514.0882     0.018588347
       2514.6309     0.099815430
       2515.1737     0.089240049
       2515.7164     0.045407033
       2516.2592     0.079950733
       2516.8019     0.077714845
       2517.3446     0.078726905
       2517.8874     0.040334734
       2518.4301     0.038227586
       2518.9729     0.077904088
       2519.5156     0.087237746
       2520.0584      0.11974676
       2520.6011     0.078796812
       2521.1438     0.070715509
       2521.6866     0.066933825
       2522.2293     0.039653892
       2522.7721     0.077057066
       2523.3148      0.11796027
       2523.8575     0.095532410
       2524.4003     0.091607655
       2524.9430     0.062844211
       2525.4858     0.094586302
       2526.0285     0.073880639
       2526.5713     0.087355317
       2527.1140     0.090909983
       2527.6567      0.10991135
       2528.1995     0.069018318
       2528.7422     0.052354160
       2529.2850     0.058924999
       2529.8277     0.086411738
       2530.3704     0.063859656
       2530.9132     0.050728314
       2531.4559     0.017964717
       2531.9987     0.080359699
       2532.5414      0.10454137
       2533.0842      0.10210156
       2533.6269     0.082807676
       2534.1696     0.060170477
       2534.7124    0.0045555440
       2535.2551     0.056849780
       2535.7979     0.065056712
       2536.3406     0.047354448
       2536.8833      0.10466796
       2537.4261      0.12793259
       2537.9688      0.13413746
       2538.5116     0.078804744
       2539.0543     0.079452562
       2539.5971     0.073213059
       2540.1398      0.10644809
       2540.6825     0.051649117
       2541.2253      0.12029481
       2541.7680      0.10008789
       2542.3108     0.076310530
       2542.8535     0.093426940
       2543.3962     0.067700545
       2543.9390     0.087020317
       2544.4817     0.072668028
       2545.0245     0.059743077
       2545.5672     0.047584906
       2546.1100     0.062756463
       2546.6527      0.10386541
       2547.1954     0.068742632
       2547.7382     0.093644235
       2548.2809      0.11058081
       2548.8237     0.091062150
       2549.3664     0.044574055
       2549.9091     0.069675944
       2550.4519     0.035929283
       2550.9946      0.10821956
       2551.5374     0.077467741
       2552.0801     0.093708116
       2552.6229     0.052198776
       2553.1656     0.069021238
       2553.7083     0.058679786
       2554.2511     0.088198034
       2554.7938     0.052366821
       2555.3366      0.10164322
       2555.8793      0.10003188
       2556.4220     0.079735415
       2556.9648     0.047700099
       2557.5075      0.11482210
       2558.0503     0.077810291
       2558.5930      0.12069248
       2559.1358     0.093471992
       2559.6785     0.025919545
       2560.2212     0.075025937
       2560.7640     0.071383232
       2561.3067     0.082240687
       2561.8495     0.073124073
       2562.3922     0.093589687
       2562.9349      0.12126324
       2563.4777     0.078954953
       2564.0204     0.076618562
       2564.5632     0.083858290
       2565.1059      0.10809184
       2565.6487     0.083145110
       2566.1914     0.066316981
       2566.7341     0.063693738
       2567.2769     0.079177793
       2567.8196     0.081473609
       2568.3624      0.16262774
       2568.9051     0.065108739
       2569.4478     0.061078547
       2569.9906     0.079579416
       2570.5333     0.069449427
       2571.0761     0.083540484
       2571.6188     0.053524609
       2572.1615     0.071433827
       2572.7043     0.098576943
       2573.2470     0.085092129
       2573.7898     0.085700984
       2574.3325     0.045333765
       2574.8753      0.11502138
       2575.4180     0.043772327
       2575.9607     0.061476134
       2576.5035     0.042196208
       2577.0462     0.086166172
       2577.5890     0.053553811
       2578.1317     0.029180597
       2578.6744     0.051015089
       2579.2172     0.031518585
       2579.7599     0.062408760
       2580.3027     0.081459761
       2580.8454     0.040686108
       2581.3882     0.079514091
       2581.9309     0.063126257
       2582.4736     0.045243343
       2583.0164     0.038070701
       2583.5591     0.067979217
       2584.1019     0.086204318
       2584.6446     0.044711644
       2585.1873      0.11143501
       2585.7301     0.091846956
       2586.2728     0.075933262
       2586.8156     0.068275012
       2587.3583     0.074395358
       2587.9011     0.062824086
       2588.4438     0.059097233
       2588.9865     0.062565337
       2589.5293     0.030327033
       2590.0720     0.012566670
       2590.6148     0.036014924
       2591.1575     0.023404542
       2591.7002     0.028953652
       2592.2430     0.021644638
       2592.7857     0.047272395
       2593.3285     0.045521620
       2593.8712     0.044600826
       2594.4140     0.084014790
       2594.9567     0.089776782
       2595.4994     0.066736371
       2596.0422      0.13268502
       2596.5849     0.055148229
       2597.1277      0.13339407
       2597.6704      0.11052925
       2598.2131     0.082480611
       2598.7559     0.094252711
       2599.2986     0.048172753
       2599.8414     0.072718279
       2600.3841     0.046185972
       2600.9269     0.089468818
       2601.4696     0.039457757
       2602.0123     0.078865135
       2602.5551      0.12235048
       2603.0978      0.12631737
       2603.6406     0.069101616
       2604.1833      0.12453399
       2604.7260     0.074353243
       2605.2688     0.089440439
       2605.8115     0.094314399
       2606.3543     0.099488554
       2606.8970      0.11328768
       2607.4398      0.11020322
       2607.9825      0.14146811
       2608.5252      0.12304821
       2609.0680     0.052349537
       2609.6107      0.10668038
       2610.1535      0.10049074
       2610.6962     0.091610328
       2611.2389     0.068999767
       2611.7817     0.046736960
       2612.3244     0.061632459
       2612.8672     0.075891150
       2613.4099      0.11176996
       2613.9527     0.068662883
       2614.4954     0.084483491
       2615.0381     0.066576531
       2615.5809     0.095739990
       2616.1236     0.062193556
       2616.6664     0.063760971
       2617.2091     0.077936927
       2617.7518     0.093799935
       2618.2946      0.14071653
       2618.8373     0.097067374
       2619.3801     0.084811133
       2619.9228      0.10905205
       2620.4656     0.081973119
       2621.0083     0.050607711
       2621.5510     0.083161562
       2622.0938     0.083040229
       2622.6365     0.088117517
       2623.1793     0.081748519
       2623.7220      0.10864082
       2624.2647      0.10286738
       2624.8075     0.070993664
       2625.3502     0.061232072
       2625.8930     0.080852369
       2626.4357     0.088352054
       2626.9785      0.17223944
       2627.5212     0.041502168
       2628.0639      0.12646494
       2628.6067     0.029177450
       2629.1494     0.098072444
       2629.6922     0.063736574
       2630.2349     0.078194150
       2630.7776     0.066559465
       2631.3204     0.071433712
       2631.8631     0.023045746
       2632.4059     0.074870942
       2632.9486      0.10096098
       2633.4914      0.13588958
       2634.0341     0.070989369
       2634.5768     0.081225318
       2635.1196      0.11470644
       2635.6623     0.062729097
       2636.2051     0.044545602
       2636.7478     0.060125416
       2637.2905     0.065614974
       2637.8333     0.075899108
       2638.3760      0.10256836
       2638.9188     0.090817290
       2639.4615     0.076277742
       2640.0043     0.097461391
       2640.5470      0.10026545
       2641.0897      0.10408704
       2641.6325      0.10151152
       2642.1752      0.12482352
       2642.7180      0.12948659
       2643.2607     0.060157905
       2643.8034     0.082464700
       2644.3462      0.14159902
       2644.8889      0.12979736
       2645.4317     0.095984522
       2645.9744      0.11887865
       2646.5171     0.068083169
       2647.0599      0.10096580
       2647.6026     0.078131685
       2648.1454      0.11056865
       2648.6881     0.054808040
       2649.2309      0.10909104
       2649.7736      0.11456053
       2650.3163     0.072099530
       2650.8591      0.11784577
       2651.4018      0.14311291
       2651.9446     0.055669041
       2652.4873     0.060276119
       2653.0300     0.070959492
       2653.5728     0.090264538
       2654.1155     0.085095109
       2654.6583     0.065181725
       2655.2010      0.15775581
       2655.7438     0.092760176
       2656.2865     0.032641027
       2656.8292     0.094122527
       2657.3720     0.054843098
       2657.9147     0.082772096
       2658.4575     0.094208759
       2659.0002     0.094866930
       2659.5429      0.11138620
       2660.0857     0.053932296
       2660.6284     0.076451682
       2661.1712     0.058989043
       2661.7139      0.12812867
       2662.2567     0.074867199
       2662.7994     0.079437180
       2663.3421     0.094833978
       2663.8849      0.12069997
       2664.4276      0.10164430
       2664.9704      0.12407327
       2665.5131     0.089124036
       2666.0558     0.036291152
       2666.5986      0.12671900
       2667.1413     0.070989515
       2667.6841     0.073087122
       2668.2268     0.062361533
       2668.7696     0.066174752
       2669.3123      0.11199038
       2669.8550     0.095149299
       2670.3978     0.089716058
       2670.9405     0.096936111
       2671.4833     0.073309682
       2672.0260     0.074018086
       2672.5687     0.088558446
       2673.1115     0.055300239
       2673.6542     0.077731389
       2674.1970      0.13608858
       2674.7397     0.089091415
       2675.2825     0.083085200
       2675.8252     0.060353405
       2676.3679     0.039554654
       2676.9107     0.067179023
       2677.4534     0.023109429
       2677.9962     0.067449976
       2678.5389     0.062752447
       2679.0816     0.031147547
       2679.6244     0.076021617
       2680.1671     0.060240891
       2680.7099     0.097466323
       2681.2526      0.10991404
       2681.7954     0.033194495
       2682.3381     0.013828472
       2682.8808     0.083666759
       2683.4236     0.097593488
       2683.9663     0.070908160
       2684.5091      0.11830598
       2685.0518     0.084383454
       2685.5945     0.084191570
       2686.1373     0.064015275
       2686.6800     0.024075819
       2687.2228     0.065764866
       2687.7655     0.091593963
       2688.3083      0.11739219
       2688.8510      0.13522146
       2689.3937     0.041853805
       2689.9365      0.15796115
       2690.4792     0.083625754
       2691.0220     0.097804481
       2691.5647     0.066238486
       2692.1074     0.093063139
       2692.6502     0.066027585
       2693.1929     0.063867199
       2693.7357      0.11048801
       2694.2784     0.068768639
       2694.8212     0.092295068
       2695.3639      0.10189795
       2695.9066     0.090795955
       2696.4494     0.087418224
       2696.9921     0.078830766
       2697.5349     0.074791510
       2698.0776      0.10250185
       2698.6203     0.067772716
       2699.1631      0.14056445
       2699.7058      0.12634741
       2700.2486     0.073893932
       2700.7913     0.063152781
       2701.3341     0.090022909
       2701.8768     0.097556382
       2702.4195     0.060099605
       2702.9623     0.079319192
       2703.5050     0.088248049
       2704.0478     0.072545460
       2704.5905     0.081467898
       2705.1332     0.030285706
       2705.6760     0.058468783
       2706.2187     0.025507710
       2706.7615     0.075195143
       2707.3042      0.10361550
       2707.8470     0.092286894
       2708.3897     0.096916613
       2708.9324      0.11481067
       2709.4752     0.095735633
       2710.0179     0.069174380
       2710.5607     0.095335454
       2711.1034     0.010309843
       2711.6461     0.079693559
       2712.1889     0.067776511
       2712.7316     0.056125735
       2713.2744     0.062131237
       2713.8171      0.10112398
       2714.3598     0.057237674
       2714.9026      0.12269256
       2715.4453     0.065372808
       2715.9881     0.099066720
       2716.5308     0.065065697
       2717.0736      0.11629147
       2717.6163     0.077809427
       2718.1590      0.10510272
       2718.7018     0.077673457
       2719.2445     0.068990255
       2719.7873     0.030546361
       2720.3300     0.041361723
       2720.8727     0.084875555
       2721.4155      0.10665460
       2721.9582     0.092229785
       2722.5010      0.11519602
       2723.0437      0.10965209
       2723.5865     0.083777215
       2724.1292      0.11631611
       2724.6719     0.053330102
       2725.2147     0.069504206
       2725.7574     0.057376871
       2726.3002     0.046511878
       2726.8429      0.12123679
       2727.3856     0.082731364
       2727.9284     0.025703184
       2728.4711     0.074934547
       2729.0139     0.048105762
       2729.5566      0.10687323
       2730.0994     0.043066834
       2730.6421     0.084054803
       2731.1848     0.047073348
       2731.7276     0.051434456
       2732.2703     0.099796779
       2732.8131     0.066289837
       2733.3558     0.080344519
       2733.8985     0.018412337
       2734.4413      0.11764900
       2734.9840     0.057794488
       2735.5268     0.069074785
       2736.0695     0.096284972
       2736.6123     0.067600496
       2737.1550     0.069751409
       2737.6977     0.058243211
       2738.2405     0.051348142
       2738.7832     0.084446711
       2739.3260     0.041838155
       2739.8687     0.048543792
       2740.4114     0.013832637
       2740.9542     0.051123034
       2741.4969      0.11091334
       2742.0397     0.067588680
       2742.5824     0.065700554
       2743.1252     0.056382160
       2743.6679     0.086779616
       2744.2106     0.074643821
       2744.7534    0.0037189043
       2745.2961     0.031164888
       2745.8389     0.044295362
       2746.3816     0.095101228
       2746.9243     0.055683883
       2747.4671     0.076954906
       2748.0098     0.044019060
       2748.5526     0.046807230
       2749.0953      0.10334024
       2749.6381     0.090491902
       2750.1808     0.047386724
       2750.7235      0.14377196
       2751.2663     0.083595774
       2751.8090      0.13186997
       2752.3518     0.096777538
       2752.8945      0.12896489
       2753.4372     0.043420651
       2753.9800     0.098573080
       2754.5227     0.097026182
       2755.0655     0.069137514
       2755.6082      0.10932114
       2756.1510     0.070760442
       2756.6937     0.071438010
       2757.2364     0.014213140
       2757.7792     0.055199422
       2758.3219      0.11442322
       2758.8647     0.094706243
       2759.4074     0.096958982
       2759.9501      0.10810739
       2760.4929     0.081802621
       2761.0356     0.072684863
       2761.5784      0.10299669
       2762.1211     0.032901711
       2762.6639    0.0083322548
       2763.2066     0.022715773
       2763.7493     0.075325415
       2764.2921      0.11825067
       2764.8348      0.10361105
       2765.3776     0.055284705
       2765.9203     0.032596551
       2766.4630     0.088805171
       2767.0058     0.038032108
       2767.5485      0.12131455
       2768.0913     0.061992154
       2768.6340     0.059889553
       2769.1768     0.079395199
       2769.7195     0.052284221
       2770.2622      0.11713106
       2770.8050     0.050810820
       2771.3477     0.059337565
       2771.8905     0.099670631
       2772.4332     0.033046410
       2772.9759     0.050956616
       2773.5187     0.080216350
       2774.0614    0.0042560228
       2774.6042      0.13733923
       2775.1469     0.068293872
       2775.6897     0.082343969
       2776.2324     0.041629489
       2776.7751      0.12349886
       2777.3179     0.092689305
       2777.8606      0.11872457
       2778.4034      0.11727214
       2778.9461     0.079490269
       2779.4888     0.051736938
       2899.4696      0.31103806
       2900.0702      0.24412656
       2900.6709      0.24675170
       2901.2715      0.18645079
       2901.8721      0.18836728
       2902.4728      0.10008013
       2903.0734      0.17818454
       2903.6740      0.37328582
       2904.2747      0.44691994
       2904.8753      0.17498936
       2905.4760      0.39147819
       2906.0766      0.18618758
       2906.6772      0.26158992
       2907.2779      0.24857930
       2907.8785      0.19374623
       2908.4791      0.23361469
       2909.0798     0.011938835
       2909.6804      0.24728215
       2910.2810      0.29767636
       2910.8817      0.18017485
       2911.4823      0.24466542
       2912.0829     0.017464551
       2912.6836      0.15687983
       2913.2842      0.29552973
       2913.8849      0.21735449
       2914.4855      0.23092026
       2915.0861      0.40094258
       2915.6868      0.37096618
       2916.2874      0.17991893
       2916.8880      0.22235469
       2917.4887      0.40556201
       2918.0893      0.20297673
       2918.6899      0.15011929
       2919.2906      0.10533408
       2919.8912      0.10638914
       2920.4918     0.019066147
       2921.0925      0.30786911
       2921.6931      0.11839439
       2922.2938      0.16959601
       2922.8944      0.12567236
       2923.4950      0.15698608
       2924.0957      0.16676625
       2924.6963      0.20600923
       2925.2969      0.14648364
       2925.8976      0.13572015
       2926.4982     0.070713997
       2927.0988      0.24335471
       2927.6995      0.30866806
       2928.3001      0.26593610
       2928.9007      0.25139025
       2929.5014      0.23248548
       2930.1020     0.047351302
       2930.7027    -0.021227240
       2931.3033      0.13223821
       2931.9039      0.31656489
       2932.5046     0.056253281
       2933.1052      0.28254209
       2933.7058      0.21385498
       2934.3065      0.20546992
       2934.9071      0.14634633
       2935.5077      0.19977971
       2936.1084      0.27562203
       2936.7090     0.087941060
       2937.3096      0.19295091
       2937.9103      0.33984005
       2938.5109      0.18661526
       2939.1115      0.23637842
       2939.7122      0.17935755
       2940.3128      0.20171140
       2940.9135    0.0032252216
       2941.5141     0.043478750
       2942.1147     0.064598850
       2942.7154     0.049035632
       2943.3160      0.14467653
       2943.9166      0.60625840
       2944.5173      0.22583117
       2945.1179      0.41834288
       2945.7185      0.22580874
       2946.3192      0.28521122
       2946.9198      0.12985766
       2947.5204     0.052192257
       2948.1211      0.21637332
       2948.7217      0.13968886
       2949.3224      0.18602677
       2949.9230     0.072671684
       2950.5236      0.13655328
       2951.1243      0.21866849
       2951.7249      0.13699586
       2952.3255      0.18858570
       2952.9262      0.26245284
       2953.5268      0.24464593
       2954.1274      0.29702321
       2954.7281      0.20463687
       2955.3287      0.19210808
       2955.9293      0.22577548
       2956.5300      0.12969479
       2957.1306      0.16278277
       2957.7313      0.40990454
       2958.3319      0.32602762
       2958.9325      0.16717899
       2959.5332      0.18575728
       2960.1338     0.075146171
       2960.7344      0.20023237
       2961.3351      0.21090155
       2961.9357      0.15383875
       2962.5363      0.24371293
       2963.1370      0.18181291
       2963.7376      0.26022135
       2964.3382      0.25302044
       2964.9389      0.15987631
       2965.5395     0.080205728
       2966.1402   -0.0079963075
       2966.7408      0.14631997
       2967.3414      0.16931334
       2967.9421     0.067686639
       2968.5427      0.11327208
       2969.1433      0.19975812
       2969.7440      0.26471907
       2970.3446      0.16115590
       2970.9452      0.27706885
       2971.5459      0.31330436
       2972.1465      0.15620618
       2972.7471      0.30092000
       2973.3478      0.17131934
       2973.9484      0.13037264
       2974.5491      0.28635737
       2975.1497      0.28936770
       2975.7503      0.37783101
       2976.3510      0.25110300
       2976.9516      0.20534417
       2977.5522    -0.045037792
       2978.1529     0.070332360
       2978.7535      0.18147177
       2979.3541      0.14114972
       2979.9548      0.41746739
       2980.5554     0.036494235
       2981.1560      0.30106892
       2981.7567      0.28983978
       2982.3573      0.23129271
       2982.9580      0.25146662
       2983.5586      0.31043114
       2984.1592      0.21301592
       2984.7599      0.14660976
       2985.3605      0.22788696
       2985.9611     0.021228434
       2986.5618      0.25251526
       2987.1624      0.11630630
       2987.7630      0.26370425
       2988.3637      0.12305988
       2988.9643      0.13010531
       2989.5649      0.21982747
       2990.1656      0.33067753
       2990.7662      0.14634426
       2991.3669      0.25974275
       2991.9675      0.29327909
       2992.5681      0.15041285
       2993.1688      0.17694337
       2993.7694      0.28435014
       2994.3700      0.15863036
       2994.9707     0.046235037
       2995.5713      0.24043705
       2996.1719     0.094568321
       2996.7726      0.18169746
       2997.3732      0.18134972
       2997.9738      0.14715339
       2998.5745      0.15317947
       2999.1751      0.20529733
       2999.7758      0.15413657
       3000.3764      0.15981943
       3000.9770      0.18416589
       3001.5777      0.18076251
       3002.1783      0.15354600
       3002.7789      0.39586612
       3003.3796      0.25050874
       3003.9802    -0.050537350
       3004.5808      0.20518724
       3005.1815     0.084849741
       3005.7821      0.18138895
       3006.3827      0.11342483
       3006.9834      0.16211653
       3007.5840      0.19992717
       3008.1846      0.12230365
       3008.7853      0.25389095
       3009.3859      0.16469241
       3009.9866      0.14508927
       3010.5872      0.12054012
       3011.1878      0.22857465
       3011.7885      0.26517710
       3012.3891      0.23733638
       3012.9897      0.13280635
       3013.5904      0.23924965
       3014.1910      0.10094843
       3014.7916     0.047548489
       3015.3923     0.045068963
       3015.9929      0.30263956
       3016.5935      0.21295882
       3017.1942      0.21758752
       3017.7948      0.15320853
       3018.3955      0.19676773
       3018.9961      0.18537954
       3019.5967      0.27435135
       3020.1974      0.20641713
       3020.7980      0.19415508
       3021.3986      0.31828322
       3021.9993      0.24882041
       3022.5999      0.32910744
       3023.2005     0.063177000
       3023.8012      0.18706389
       3024.4018     0.083429064
       3025.0024      0.21595692
       3025.6031      0.15041353
       3026.2037      0.16094824
       3026.8044      0.18449922
       3027.4050      0.37145502
       3028.0056      0.23903435
       3028.6063     0.023397211
       3029.2069      0.18071787
       3029.8075      0.10806906
       3030.4082      0.23674412
       3031.0088      0.16593598
       3031.6094      0.16396038
       3032.2101      0.10834610
       3032.8107      0.21754539
       3033.4113      0.20974633
       3034.0120      0.21813828
       3034.6126      0.29073900
       3035.2133      0.12754922
       3035.8139      0.36396174
       3036.4145      0.26119160
       3037.0152      0.14372126
       3037.6158      0.13637545
       3038.2164      0.20399279
       3038.8171      0.20498415
       3039.4177      0.14464569
       3040.0183      0.15690116
       3040.6190      0.30672827
       3041.2196      0.18542596
       3041.8202      0.21776090
       3042.4209      0.21874713
       3043.0215     0.097761805
       3043.6222     0.093704238
       3044.2228      0.13550584
       3044.8234      0.22796066
       3045.4241     0.099812778
       3046.0247      0.17302278
       3046.6253      0.36865700
       3047.2260     0.041204264
       3047.8266      0.15193144
       3048.4272      0.18900843
       3049.0279     0.044175907
       3049.6285      0.34502776
       3050.2291      0.19986256
       3050.8298      0.25307265
       3051.4304      0.10018388
       3052.0311      0.37465927
       3052.6317      0.30188883
       3053.2323      0.26225440
       3053.8330     0.083819453
       3054.4336      0.20200442
       3055.0342      0.11750407
       3055.6349      0.29772006
       3056.2355      0.26289179
       3056.8361      0.23614941
       3057.4368      0.13559472
       3058.0374     0.072689160
       3058.6380      0.15464412
       3059.2387      0.28139904
       3059.8393      0.16914997
       3060.4400      0.12351481
       3061.0406      0.12717055
       3061.6412      0.36882427
       3062.2419      0.13540995
       3062.8425     0.044408088
       3063.4431      0.16163846
       3064.0438      0.16771176
       3064.6444      0.16218732
       3065.2450      0.20213253
       3065.8457      0.12845913
       3066.4463      0.19392686
       3067.0469      0.15263299
       3067.6476      0.22204875
       3068.2482      0.18799082
       3068.8488      0.23681610
       3069.4495      0.29235352
       3070.0501      0.17705935
       3070.6508      0.17876978
       3071.2514      0.19522776
       3071.8520      0.14355067
       3072.4527      0.12031855
       3073.0533      0.20427731
       3073.6539      0.32801207
       3074.2546      0.18133258
       3074.8552      0.10814764
       3075.4558      0.20705086
       3076.0565      0.20905029
       3076.6571      0.25569331
       3077.2577      0.26369425
       3077.8584      0.21073879
       3078.4590      0.11711805
       3079.0597      0.12378866
       3079.6603      0.27219537
       3080.2609      0.10094562
       3080.8616      0.20830934
       3081.4622     0.074924508
       3082.0628     0.048804668
       3082.6635      0.19111862
       3083.2641      0.29681069
       3083.8647      0.33301541
       3084.4654      0.19671882
       3085.0660      0.43278591
       3085.6666      0.48835102
       3086.2673      0.41445182
       3086.8679      0.24919814
       3087.4686      0.37446427
       3088.0692     0.087123530
       3088.6698      0.18303688
       3089.2705     0.022721929
       3089.8711      0.19179095
       3090.4717      0.15960022
       3091.0724      0.16748456
       3091.6730      0.23644717
       3092.2736      0.20868186
       3092.8743     0.054887057
       3093.4749      0.21772484
       3094.0755      0.20913467
       3094.6762      0.14358608
       3095.2768      0.11333558
       3095.8775     0.090976735
       3096.4781      0.19126206
       3097.0787      0.20480898
       3097.6794      0.26030840
       3098.2800      0.10706144
       3098.8806      0.19352169
       3099.4813    0.0043190871
       3100.0819    -0.070125696
       3100.6825      0.22272796
       3101.2832      0.22715145
       3101.8838      0.27548794
       3102.4844      0.19613533
       3103.0851      0.14110692
       3103.6857      0.10331678
       3104.2864      0.26783989
       3104.8870      0.23009913
       3105.4876      0.30971333
       3106.0883      0.14176089
       3106.6889      0.14332382
       3107.2895      0.18333727
       3107.8902     0.045618251
       3108.4908      0.29763924
       3109.0914      0.22189728
       3109.6921      0.19020122
       3110.2927      0.23448064
       3110.8933      0.13962548
       3111.4940      0.21248648
       3112.0946      0.14724246
       3112.6953     0.072827413
       3113.2959      0.16082016
       3113.8965      0.12810733
       3114.4972     0.093725849
       3115.0978      0.18168161
       3115.6984    0.0041434897
       3116.2991      0.13688937
       3116.8997      0.13850311
       3117.5003      0.26022564
       3118.1010      0.22371043
       3118.7016      0.26836915
       3119.3022      0.24047433
       3119.9029    -0.024539512
       3120.5035      0.13635903
       3121.1042      0.18506240
       3121.7048     0.036911181
       3122.3054     0.019779567
       3122.9061    -0.040000819
       3123.5067      0.21338182
       3124.1073      0.22857310
       3124.7080      0.21237826
       3125.3086     0.064817348
       3125.9092      0.18908893
       3126.5099   -0.0018262646
       3127.1105     0.042662525
       3127.7111      0.26300838
       3128.3118     0.036223048
       3128.9124      0.16708341
       3129.5131      0.23489340
       3130.1137      0.14768707
       3130.7143      0.18299476
       3131.3150      0.10520505
       3131.9156      0.13700306
       3132.5162      0.18095799
       3133.1169     0.076120929
       3133.7175      0.20316040
       3134.3181      0.12705480
       3134.9188      0.35970187
       3135.5194      0.23303637
       3136.1200      0.26031165
       3136.7207      0.20813861
       3137.3213      0.31405165
       3137.9219      0.20877948
       3138.5226      0.14507808
       3139.1232      0.17079659
       3139.7239      0.38852130
       3140.3245      0.27845796
       3140.9251      0.37715369
       3141.5258      0.21082087
       3142.1264      0.14599098
       3142.7270      0.18614787
       3143.3277     0.044229297
       3143.9283      0.17418208
       3144.5289      0.26033067
       3145.1296     0.058756262
       3145.7302      0.14236592
       3146.3308      0.18273739
       3146.9315    0.0021318251
       3147.5321      0.10190672
       3148.1328      0.18455178
       3148.7334      0.24260843
       3149.3340      0.27117528
       3149.9347      0.22448242
       3150.5353      0.17313711
       3151.1359      0.23137371
       3151.7366     0.093470863
       3152.3372      0.18427877
       3152.9378     0.071026093
       3153.5385     0.060927698
       3154.1391      0.35247242
       3154.7397      0.45479360
       3155.3404     -0.21800004
       3155.9410      0.44438449
       3156.5417      0.61078996
       3157.1423      -1.3426432
       3157.7429      0.68040382
       3158.3436       1.4223381
       3158.9442       1.3447006
       3159.5448      0.18766687
       3160.1455      0.44869900
       3160.7461     0.071877295
       3161.3467      0.16815925
       3161.9474      0.19237874
       3162.5480      0.26659243
       3163.1486      0.18924688
       3163.7493     0.016549559
       3164.3499     0.076663102
       3164.9506      0.13018686
       3165.5512      0.30143903
       3166.1518      0.15584839
       3166.7525      0.17080845
       3167.3531      0.31350574
       3167.9537     0.091183627
       3168.5544      0.11168636
       3169.1550     0.084368042
       3169.7556      0.26506742
       3170.3563      0.24092698
       3170.9569     0.095308951
       3171.5575      0.18380986
       3172.1582      0.20867750
       3172.7588     0.097747331
       3173.3595      0.16246619
       3173.9601      0.10023651
       3174.5607      0.20217608
       3175.1614      0.16624067
       3175.7620      0.11851585
       3176.3626     0.077723260
       3176.9633      0.19999677
       3177.5639      0.17765193
       3178.1645      0.20253563
       3178.7652      0.28899099
       3179.3658     0.064360303
       3179.9664      0.28053403
       3180.5671     0.087990193
       3181.1677      0.19269539
       3181.7684      0.17835618
       3182.3690      0.14697992
       3182.9696      0.28969676
       3183.5703      0.25648585
       3184.1709      0.20510219
       3184.7715      0.19086500
       3185.3722      0.16691843
       3185.9728      0.25269947
       3186.5734      0.35385053
       3187.1741      0.38693012
       3187.7747     0.066618545
       3188.3753     0.053667750
       3188.9760      0.20013663
       3189.5766     -0.17087112
       3190.1773      0.47090828
       3190.7779      0.41599967
       3191.3785    -0.041302870
       3191.9792      0.41060945
       3192.5798      0.12481569
       3193.1804    0.0081328385
       3193.7811      0.13099629
       3194.3817      0.13784458
       3194.9823     0.045940501
       3195.5830      0.25064482
       3196.1836      0.21223717
       3196.7842      0.25580157
       3197.3849      0.20912445
       3197.9855    -0.021185872
       3198.5861      0.16080783
       3199.1868      0.19363342
       3199.7874      0.19942051
       3200.3881     0.042019115
       3200.9887      0.10674787
       3201.5893      0.15133605
       3202.1900      0.18297481
       3202.7906     0.064316819
       3203.3912      0.23407525
       3203.9919      0.24976756
       3204.5925      0.25308648
       3205.1931      0.19732331
       3205.7938      0.15470118
       3206.3944      0.20455441
       3206.9950     0.064282015
       3207.5957     0.093043119
       3208.1963      0.17822163
       3208.7970      0.10740256
       3209.3976      0.11618463
       3209.9982      0.21018045
       3210.5989     0.063213133
       3211.1995      0.19358591
       3211.8001     0.092304335
       3212.4008      0.20488409
       3213.0014      0.21654641
       3213.6020      0.23751855
       3214.2027      0.14279016
       3214.8033      0.18545267
       3215.4039      0.12851351
       3216.0046     0.066793946
       3216.6052     0.084139017
       3217.2059      0.27255281
       3217.8065      0.24724909
       3218.4071      0.25058515
       3219.0078     0.061892360
       3219.6084      0.14478798
       3220.2090      0.29968173
       3220.8097      0.16018295
       3221.4103      0.23381098
       3222.0109      0.16758654
       3222.6116     0.071310229
       3223.2122      0.19503752
       3223.8128      0.20733728
       3224.4135     0.067936882
       3225.0141      0.16654431
       3225.6148      0.27133635
       3226.2154      0.13085861
       3226.8160      0.22535232
       3227.4167     0.077408871
       3228.0173      0.16692833
       3228.6179      0.16481841
       3229.2186      0.24133434
       3229.8192     0.044328489
       3230.4198      0.22075387
       3231.0205      0.20125168
       3231.6211      0.27840038
       3232.2217      0.14031693
       3232.8224      0.27427721
       3233.4230      0.21271770
       3234.0237      0.19115875
       3234.6243     0.099123100
       3235.2249      0.20672339
       3235.8256      0.20540526
       3236.4262      0.20165037
       3237.0268      0.20698837
       3237.6275      0.18071788
       3238.2281      0.19808494
       3238.8287     0.085384050
       3239.4294      0.19625186
       3240.0300      0.12231601
       3240.6306      0.29685221
       3241.2313      0.23349777
       3241.8319      0.21863304
       3242.4326      0.14390092
       3243.0332      0.28836757
       3243.6338      0.13786968
       3244.2345      0.29382165
       3244.8351      0.30440632
       3245.4357      0.21938005
       3246.0364      0.14972107
       3246.6370      0.34653345
       3247.2376      0.20660605
       3247.8383      0.13047664
       3248.4389      0.14636629
       3249.0395      0.17833994
       3249.6402      0.12608571
       3250.2408      0.12466536
       3250.8415     0.058885509
       3251.4421      0.29571245
       3252.0427      0.23099893
       3252.6434      0.11995141
       3253.2440     0.086374616
       3253.8446      0.18018587
       3254.4453      0.19050474
       3255.0459      0.22646888
       3255.6465      0.25106110
       3256.2472     0.086306997
       3256.8478     0.084672698
       3257.4484      0.25558900
       3258.0491      0.20283091
       3258.6497      0.17056354
       3259.2504      0.14592418
       3259.8510      0.12329527
       3260.4516      0.20970641
       3261.0523      0.31208348
       3261.6529      0.18645199
       3262.2535      0.26187510
       3262.8542      0.12265908
       3263.4548      0.14092229
       3264.0554      0.17187386
       3264.6561      0.15322742
       3265.2567      0.14403094
       3265.8573      0.22057029
       3266.4580      0.11482185
       3267.0586      0.27832200
       3267.6592     0.038860958
       3268.2599      0.15803493
       3268.8605      0.18569810
       3269.4612      0.21535981
       3270.0618      0.21450167
       3270.6624      0.26997394
       3271.2631    0.0090267421
       3271.8637      0.30645214
       3272.4643      0.12319948
       3273.0650      0.23268789
       3273.6656     0.046400089
       3274.2662      0.12766146
       3274.8669     0.033526028
       3275.4675      0.19864735
       3276.0681    -0.049380089
       3276.6688      0.14649986
       3277.2694      0.13979171
       3277.8701      0.27359688
       3278.4707     0.090282662
       3279.0713      0.21510010
       3279.6720      0.19672410
       3280.2726      0.34069124
       3280.8732      0.26385800
       3281.4739      0.17795122
       3282.0745      0.10888337
       3282.6751      0.25409990
       3283.2758      0.12424101
       3283.8764      0.17599156
       3284.4770      0.21016620
       3285.0777      0.28312296
       3285.6783      0.16675299
       3286.2790      0.22960136
       3286.8796      0.21160148
       3287.4802      0.31327907
       3288.0809     0.078338573
       3288.6815      0.20414597
       3289.2821      0.15907322
       3289.8828      0.10635184
       3290.4834      0.13185261
       3291.0840      0.11886811
       3291.6847      0.11665187
       3292.2853      0.13516736
       3292.8859    0.0050354091
       3293.4866      0.17099886
       3294.0872      0.17436161
       3294.6879     0.096311049
       3295.2885      0.13227910
       3295.8891     -0.12030153
       3296.4898    -0.024726476
       3297.0904      0.10487868
       3297.6910      0.16806856
       3298.2917      0.20974955
       3298.8923      0.22868940
       3299.4929      0.25416893
       3300.0936      0.17586659
       3300.6942      0.19921812
       3301.2948      0.11844524
       3301.8955      0.12475481
       3302.4961      0.28128144
       3303.0968      0.18461209
       3303.6974      0.26943237
       3304.2980      0.12367823
       3304.8987      0.21372723
       3305.4993      0.22109081
       3306.0999      0.15000263
       3306.7006      0.11331344
       3307.3012      0.15992935
       3307.9018      0.28553972
       3308.5025      0.24506455
       3309.1031      0.23680987
       3309.7037      0.20420408
       3310.3044      0.30512720
       3310.9050      0.13729471
       3311.5057      0.16559585
       3312.1063      0.20080860
       3312.7069      0.12410287
       3313.3076      0.11841120
       3313.9082      0.19588062
       3314.5088      0.23813592
       3315.1095      0.12131672
       3315.7101      0.13928235
       3316.3107      0.28466698
       3316.9114     0.097689994
       3317.5120      0.12261038
       3318.1126      0.23886323
       3318.7133      0.19517399
       3319.3139      0.16606681
       3319.9146      0.17800451
       3320.5152      0.10922763
       3321.1158      0.21221667
       3321.7165      0.14116474
       3322.3171      0.17456556
       3322.9177      0.12810291
       3323.5184      0.12006402
       3324.1190      0.11790242
       3324.7196      0.13259444
       3325.3203      0.27563060
       3325.9209      0.27025824
       3326.5215      0.27112458
       3327.1222      0.18396172
       3327.7228      0.11895135
       3328.3234      0.22691233
       3328.9241      0.20713152
       3329.5247      0.26195796
       3330.1254      0.20834424
       3330.7260      0.14795139
       3331.3266      0.19057314
       3331.9273      0.31073160
       3332.5279      0.12558749
       3333.1285      0.14937836
       3333.7292      0.20897080
       3334.3298      0.21715533
       3334.9304      0.29845782
       3335.5311      0.30925967
       3336.1317      0.15070096
       3336.7323      0.12823034
       3337.3330      0.16963367
       3337.9336      0.34611240
       3338.5343      0.16724765
       3339.1349      0.14559413
       3339.7355      0.15856186
       3340.3362      0.15272944
       3340.9368      0.18729221
       3341.5374      0.11025184
       3342.1381      0.23243165
       3342.7387      0.19699341
       3343.3393      0.38505898
       3343.9400      0.27557985
       3344.5406      0.23428901
       3345.1412      0.21493537
       3345.7419      0.29123086
       3346.3425      0.28585197
       3346.9432      0.23070233
       3347.5438      0.13557529
       3348.1444      0.14627791
       3348.7451      0.12144175
       3349.3457    -0.035034796
       3349.9463      0.12994268
       3350.5470      0.18504077
       3351.1476      0.16136205
       3351.7482      0.23382881
       3352.3489     0.096609014
       3352.9495      0.19797022
       3353.5501      0.12641626
       3354.1508      0.28177252
       3354.7514      0.12307731
       3355.3521      0.11000397
       3355.9527      0.21659076
       3356.5533      0.26691453
       3357.1540      0.12233270
       3357.7546      0.30138486
       3358.3552      0.33234258
       3358.9559      0.28183028
       3359.5565      0.10861385
       3360.1571    -0.064119662
       3360.7578     -0.11810023
       3361.3584     0.039559826
       3361.9590      0.30590473
       3362.5597      0.17756342
       3363.1603      0.26625458
       3363.7610      0.22017413
       3364.3616      0.16909602
       3364.9622      0.15386831
       3365.5629      0.24968381
       3366.1635      0.11071297
       3366.7641      0.14463676
       3367.3648     0.099481801
       3367.9654      0.19961983
       3368.5660      0.16812449
       3369.1667    0.0075606399
       3369.7673    -0.017510382
       3370.3679     0.091793759
       3370.9686      0.17146804
       3371.5692      0.14403303
       3372.1699      0.19006674
       3372.7705      0.11005268
       3373.3711      0.11340931
       3373.9718   -0.0083707522
       3374.5724      0.14625027
       3375.1730      0.14169555
       3375.7737      0.29093603
       3376.3743      0.15048345
       3376.9749      0.14640976
       3377.5756      0.20953898
       3378.1762      0.18821958
       3378.7768      0.22052099
       3379.3775      0.17582410
       3379.9781      0.14546641
       3380.5788     0.092023431
       3381.1794      0.23512725
       3381.7800      0.22302467
       3382.3807      0.29857877
       3382.9813      0.11292683
       3383.5819      0.27203702
       3384.1826      0.15146896
       3384.7832      0.12384821
       3385.3838      0.22544310
       3385.9845      0.14819560
       3386.5851      0.10296202
       3387.1857     0.063901488
       3387.7864      0.10423438
       3388.3870      0.26864037
       3388.9877      0.33141201
       3389.5883      0.15438687
       3390.1889      0.18865130
       3390.7896      0.13175442
       3391.3902      0.15929758
       3391.9908      0.13935192
       3392.5915     0.080099878
       3393.1921      0.10855773
       3393.7927      0.19872236
       3394.3934      0.25876727
       3394.9940      0.14112766
       3395.5946     0.072479727
       3396.1953     0.097178163
       3396.7959     0.072155290
       3397.3965      0.10060653
       3397.9972     0.090686872
       3398.5978      0.15610314
       3399.1985      0.17613043
       3399.7991      0.21629402
       3400.3997      0.23656084
       3401.0004      0.30029058
       3401.6010      0.12927604
       3402.2016      0.27167643
       3402.8023      0.20347660
       3403.4029     0.084783191
       3404.0035      0.20873799
       3404.6042      0.25815803
       3405.2048      0.32300796
       3405.8054      0.10579764
       3406.4061      0.21585456
       3407.0067      0.11460629
       3407.6074      0.11779658
       3408.2080     0.079380999
       3408.8086     0.076198347
       3409.4093   0.00090577035
       3410.0099      0.12103807
       3410.6105      0.26480152
       3411.2112      0.14832372
       3411.8118     0.069400567
       3412.4124      0.10575112
       3413.0131      0.19619992
       3413.6137      0.17336613
       3414.2143      0.10977737
       3414.8150      0.12488118
       3415.4156      0.23140231
       3416.0163      0.23357672
       3416.6169      0.18988301
       3417.2175     0.084129442
       3417.8182      0.10294374
       3418.4188      0.18416283
       3419.0194      0.22142030
       3419.6201      0.24744359
       3420.2207      0.16823601
       3420.8213      0.10460036
       3421.4220      0.16654282
       3422.0226      0.19687598
       3422.6232      0.19189911
       3423.2239     0.073406344
       3423.8245      0.15578234
       3424.4252     0.097801294
       3425.0258     0.052336349
       3425.6264      0.20285024
       3426.2271      0.33397153
       3426.8277     0.049089484
       3427.4283      0.20404874
       3428.0290      0.27568078
       3428.6296      0.27999583
       3429.2302      0.31378607
       3429.8309      0.27930762
       3430.4315      0.14550256
       3431.0321      0.21672967
       3431.6328      0.15708944
       3432.2334      0.22433418
       3432.8341      0.26532280
       3433.4347      0.26129362
       3434.0353      0.16209007
       3434.6360      0.21473874
       3435.2366      0.11792723
       3435.8372     0.068751633
       3436.4379      0.14648390
       3437.0385      0.22568092
       3437.6391      0.18463487
       3438.2398     0.023934354
       3438.8404      0.19502341
       3439.4410      0.31094504
       3440.0417      0.19853296
       3440.6423      0.14691006
       3441.2430      0.18776274
       3441.8436      0.30086912
       3442.4442      0.18260127
       3443.0449      0.22626411
       3443.6455      0.17241987
       3444.2461      0.12343244
       3444.8468     0.045215280
       3445.4474      0.20515168
       3446.0480      0.19719390
       3446.6487      0.16678892
       3447.2493     0.073352254
       3447.8499      0.26922672
       3448.4506      0.18525525
       3449.0512      0.13337954
       3449.6519      0.15714474
       3450.2525      0.21941398
       3450.8531      0.18348850
       3451.4538     0.077409912
       3452.0544     0.080681528
       3452.6550      0.10297777
       3453.2557      0.22117037
       3453.8563      0.13028324
       3454.4569      0.13696764
       3455.0576      0.22823980
       3455.6582      0.17227686
       3456.2588      0.23177254
       3456.8595      0.26868573
       3457.4601      0.10234124
       3458.0607      0.19412777
       3458.6614     0.050006467
       3459.2620      0.13010515
       3459.8627      0.15003494
       3460.4633      0.15018342
       3461.0639      0.22089871
       3461.6646      0.10109461
       3462.2652      0.11684516
       3462.8658      0.11360425
       3463.4665      0.21916099
       3464.0671      0.20415532
       3464.6677      0.16092858
       3465.2684      0.21581449
       3465.8690     0.047989660
       3466.4696      0.29316444
       3467.0703      0.17173283
       3467.6709      0.18210823
       3468.2716      0.26470529
       3468.8722      0.19241363
       3469.4728      0.29785533
       3470.0735      0.19598436
       3470.6741      0.16746928
       3471.2747      0.14763049
       3471.8754      0.13125346
       3472.4760      0.11691468
       3473.0766      0.11495050
       3473.6773      0.18767420
       3474.2779      0.14364489
       3474.8785      0.18322818
       3475.4792      0.14168816
       3476.0798      0.13261538
       3476.6805     0.011299810
       3477.2811      0.16601532
       3477.8817      0.22152277
       3478.4824      0.25479671
       3479.0830      0.15588138
       3479.6836      0.24819164
       3480.2843      0.14027815
       3480.8849      0.14638800
       3481.4855      0.24526390
       3482.0862      0.25175878
       3482.6868      0.22566653
       3483.2874      0.19971630
       3483.8881      0.25811648
       3484.4887      0.36358799
       3485.0894      0.13734102
       3485.6900     0.043883805
       3486.2906      0.18125295
       3486.8913      0.16353091
       3487.4919      0.21676288
       3488.0925      0.26329005
       3488.6932      0.35066251
       3489.2938     0.087546777
       3489.8944      0.19111115
       3490.4951      0.14368057
       3491.0957      0.25834426
       3491.6963      0.18923538
       3492.2970      0.13575686
       3492.8976      0.25955399
       3493.4983      0.19855108
       3494.0989      0.11953010
       3494.6995      0.17720881
       3495.3002      0.28190405
       3495.9008      0.12149555
       3496.5014      0.17559492
       3497.1021      0.21075316
       3497.7027      0.12011748
       3498.3033     0.014270466
       3498.9040     0.081674535
       3499.5046      0.28212031
       3500.1052      0.17256234
       3500.7059      0.19332615
       3501.3065      0.26690347
       3501.9072      0.25049595
       3502.5078      0.17991013
       3503.1084     0.047586383
       3503.7091    -0.027205680
       3504.3097      0.23218132
       3504.9103    -0.014410414
       3505.5110     0.069218618
       3506.1116      0.14931521
       3506.7122      0.14209764
       3507.3129      0.14990024
       3507.9135      0.13504050
       3508.5141      0.24628487
       3509.1148      0.13532002
       3509.7154      0.28225543
       3510.3161      0.17091461
       3510.9167      0.25771138
       3511.5173      0.17673748
       3512.1180      0.23467621
       3512.7186      0.10547522
       3513.3192      0.14898168
       3513.9199      0.15824359
       3514.5205      0.19730335
       3515.1211      0.16241086
       3515.7218      0.12348231
       3516.3224      0.14059375
       3516.9230      0.16898426
       3517.5237      0.18022255
       3518.1243      0.17533457
       3518.7250      0.17697465
       3519.3256      0.16083656
       3519.9262      0.21305222
       3520.5269      0.16351465
       3521.1275      0.15861088
       3521.7281     0.067369755
       3522.3288      0.10731570
       3522.9294      0.11793871
       3523.5300      0.18072730
       3524.1307      0.26545681
       3524.7313      0.20054066
       3525.3319      0.23255281
       3525.9326      0.11322701
       3526.5332      0.26074711
       3527.1338      0.17972080
       3527.7345      0.22393303
       3528.3351      0.20384049
       3528.9358      0.23249619
       3529.5364      0.18903531
       3530.1370      0.22990382
       3530.7377      0.14400532
       3531.3383      0.22593258
       3531.9389      0.10929491
       3532.5396      0.19256000
       3533.1402      0.18066090
       3533.7408      0.22190981
       3534.3415      0.17021787
       3534.9421      0.18008274
       3535.5427      0.12049746
       3536.1434      0.15607286
       3536.7440      0.13373115
       3537.3447      0.23571334
       3537.9453      0.22426230
       3538.5459      0.21573185
       3539.1466      0.22026417
       3539.7472      0.13254035
       3540.3478     0.042040533
       3540.9485      0.15017281
       3541.5491      0.13749414
       3542.1497      0.12661982
       3542.7504      0.13106717
       3543.3510      0.25435679
       3543.9516      0.18547794
       3544.5523      0.21699510
       3545.1529      0.19068754
       3545.7536      0.11491011
       3546.3542      0.24259126
       3546.9548      0.20485809
       3547.5555     0.068799623
       3548.1561      0.24098495
       3548.7567      0.14920982
       3549.3574      0.15185237
       3549.9580      0.23745081
       3550.5586      0.12474146
       3551.1593      0.12773163
       3551.7599      0.12231178
       3552.3605      0.26674259
       3552.9612      0.35512987
       3553.5618      0.15472871
       3554.1625      0.11807747
       3554.7631     0.031713881
       3555.3637     0.066826900
       3555.9644      0.20668646
       3556.5650      0.33644276
       3557.1656      0.29908025
       3557.7663      0.12727754
       3558.3669      0.20798788
       3558.9675      0.21037693
       3559.5682      0.19173220
       3560.1688      0.19972537
       3560.7694      0.29067542
       3561.3701      0.14291516
       3561.9707      0.13536317
       3562.5714      0.17996942
       3563.1720      0.17991513
       3563.7726      0.15784134
       3564.3733      0.20598864
       3564.9739      0.22304336
       3565.5745      0.16161035
       3566.1752      0.12732656
       3566.7758      0.16648518
       3567.3764     0.064225501
       3567.9771      0.25035237
       3568.5777      0.15503395
       3569.1783      0.20764845
       3569.7790      0.30083650
       3570.3796      0.14397425
       3570.9803      0.13627265
       3571.5809      0.10315140
       3572.1815      0.27472864
       3572.7822      0.16948008
       3573.3828      0.22677699
       3573.9834      0.19250305
       3574.5841      0.22966559
       3575.1847      0.33162064
       3575.7853      0.16156864
       3576.3860      0.24518143
       3576.9866      0.17894903
       3577.5872      0.15698599
       3578.1879      0.23174179
       3578.7885      0.19187958
       3579.3892      0.15615502
       3579.9898      0.25406978
       3580.5904      0.24420878
       3581.1911      0.41805256
       3581.7917      0.24646198
       3582.3923      0.13200716
       3582.9930     0.075467228
       3583.5936      0.15513723
       3584.1942      0.19338366
       3584.7949      0.20751999
       3585.3955      0.29527789
       3585.9961      0.10297595
       3586.5968     0.073805458
       3587.1974      0.16854925
       3587.7981      0.15471559
       3588.3987      0.32638332
       3588.9993      0.13287653
       3589.6000      0.20107557
       3590.2006      0.13607518
       3590.8012      0.14845482
       3591.4019      0.22313081
       3592.0025      0.23643607
       3592.6031     0.095534243
       3593.2038     0.077189326
       3593.8044      0.17294498
       3594.4050      0.27892803
       3595.0057      0.18139466
       3595.6063      0.16584052
       3596.2069      0.13088140
       3596.8076     0.053270239
       3597.4082      0.10142661
       3598.0089     0.094496516
       3598.6095      0.22068113
       3599.2101      0.21463112
       3599.8108      0.18257212
       3600.4114      0.25559622
       3601.0120      0.15421063
       3601.6127      0.13071735
       3602.2133      0.28241670
       3602.8139      0.29987309
       3603.4146      0.18895050
       3604.0152     0.096810239
       3604.6158      0.15179094
       3605.2165      0.13591536
       3605.8171      0.11665177
       3606.4178      0.15468557
       3607.0184      0.27369212
       3607.6190      0.14742078
       3608.2197      0.16701179
       3608.8203      0.22180266
       3609.4209      0.22477082
       3610.0216      0.10311564
       3610.6222      0.23598558
       3611.2228      0.27072380
       3611.8235      0.15180018
       3612.4241      0.16626406
       3613.0247      0.16380884
       3613.6254      0.16162711
       3614.2260      0.17660274
       3614.8267      0.17500008
       3615.4273      0.20646752
       3616.0279      0.15946996
       3616.6286     0.090238153
       3617.2292      0.13693109
       3617.8298      0.17277575
       3618.4305      0.14796259
       3619.0311     0.081554622
       3619.6317      0.22399645
       3620.2324      0.25039262
       3620.8330      0.28430748
       3621.4336      0.24647391
       3622.0343      0.19610855
       3622.6349      0.25296659
       3623.2356     0.085632720
       3623.8362      0.17710053
       3624.4368      0.12524005
       3625.0375      0.22124279
       3625.6381     0.095784945
       3626.2387      0.21036177
       3626.8394      0.17221999
       3627.4400      0.13273234
       3628.0406     0.096795839
       3628.6413      0.19571809
       3629.2419      0.15317166
       3629.8425      0.11868381
       3630.4432      0.20097330
       3631.0438      0.19059743
       3631.6445     0.069794141
       3632.2451      0.17717365
       3632.8457      0.15092864
       3633.4464      0.16863800
       3634.0470      0.22164108
       3634.6476     0.084437765
       3635.2483      0.11082620
       3635.8489      0.10499827
       3636.4495      0.23049819
       3637.0502      0.17679959
       3637.6508      0.13708471
       3638.2514      0.22162041
       3638.8521     0.087979655
       3639.4527      0.19872741
       3640.0534      0.27374226
       3640.6540      0.18094196
       3641.2546      0.25008444
       3641.8553      0.24102987
       3642.4559      0.19523347
       3643.0565      0.22143996
       3643.6572      0.20954313
       3644.2578     0.097823949
       3644.8584      0.13642944
       3645.4591     0.075204690
       3646.0597      0.13245969
       3646.6603      0.26221493
       3647.2610      0.17776637
       3647.8616      0.20163113
       3648.4623      0.28160076
       3649.0629      0.24043374
       3649.6635      0.34390217
       3650.2642      0.20568451
       3650.8648      0.15019927
       3651.4654     0.030598372
       3652.0661     0.028432713
       3652.6667      0.16578862
       3653.2673      0.27042924
       3653.8680      0.19710003
       3654.4686      0.15631139
       3655.0692     0.054295765
       3655.6699      0.25719456
       3656.2705      0.15570478
       3656.8711      0.12012174
       3657.4718      0.10494903
       3658.0724      0.19450787
       3658.6731      0.19357255
       3659.2737      0.17714882
       3659.8743      0.33392918
       3660.4750      0.14412639
       3661.0756      0.20854605
       3661.6762      0.19985961
       3662.2769      0.26229209
       3662.8775      0.13848717
       3663.4781      0.10618280
       3664.0788      0.25217491
       3664.6794      0.14169600
       3665.2800     0.045794909
       3665.8807      0.16587047
       3666.4813      0.14347715
       3667.0820      0.21977055
       3667.6826      0.12818030
       3668.2832      0.18138856
       3668.8839      0.24036706
       3669.4845    -0.025447247
       3670.0851   -0.0010865514
       3670.6858  -0.00050105097
       3671.2864      0.16419340
       3671.8870      0.22360562
       3672.4877      0.16153224
       3673.0883      0.23316617
       3673.6889      0.16776611
       3674.2896      0.14423944
       3674.8902      0.16634930
       3675.4909      0.22374314
       3676.0915      0.11819731
       3676.6921     0.067744291
       3677.2928      0.29575638
       3677.8934      0.23228893
       3678.4940      0.18093136
       3679.0947      0.13033564
       3679.6953      0.14204072
       3680.2959      0.18588299
       3680.8966      0.15932142
       3681.4972      0.30449968
       3682.0978      0.13011236
       3682.6985      0.17159363
       3683.2991     0.098793871
       3683.8998      0.13465466
       3684.5004     0.057611334
       3685.1010     0.086145773
       3685.7017      0.23532948
       3686.3023      0.33489077
       3686.9029      0.32192604
       3687.5036     0.071148229
       3688.1042      0.27166822
       3688.7048      0.17791520
       3689.3055      0.22928385
       3689.9061      0.19489255
       3690.5067      0.20436100
       3691.1074      0.22836417
       3691.7080      0.31619520
       3692.3087      0.16555723
       3692.9093      0.17331019
       3693.5099      0.24123224
       3694.1106      0.19542635
       3694.7112      0.18038115
       3695.3118      0.32683152
       3695.9125      0.32369028
       3696.5131      0.29904600
       3697.1137      0.19641284
       3697.7144      0.14091575
       3698.3150      0.22867768
       3698.9156      0.26097287
       3699.5163     0.076279012
       3700.1169      0.23298937
       3700.7176      0.33967751
       3701.3182      0.23252192
       3701.9188      0.12794234
       3702.5195      0.14343134
       3703.1201      0.19880805
       3703.7207      0.10486093
       3704.3214     0.088492545
       3704.9220      0.13343592
       3705.5226      0.21724788
       3706.1233      0.28950949
       3706.7239      0.29749412
       3707.3245      0.21690365
       3707.9252      0.22954642
       3708.5258      0.30068287
       3709.1265      0.17224915
       3709.7271      0.12608635
       3710.3277      0.10865719
       3710.9284      0.15826400
       3711.5290      0.22317870
       3712.1296      0.11053919
       3712.7303      0.23269919
       3713.3309      0.19030312
       3713.9315      0.11961205
       3714.5322      0.21313135
       3715.1328      0.22014751
       3715.7334      0.20094663
       3716.3341      0.22161402
       3716.9347      0.25308869
       3717.5354      0.33509055
       3718.1360      0.19580529
       3718.7366      0.19921894
       3719.3373      0.16428403
       3719.9379      0.29610300
       3720.5385      0.26361275
       3721.1392      0.29340734
       3721.7398      0.28106296
       3722.3404      0.35207492
       3722.9411      0.37226162
       3723.5417      0.45550626
       3724.1423      0.62926895
       3724.7430      0.84487349
       3725.3436       1.0115274
       3725.9442      0.99953947
       3726.5449       1.0387409
       3727.1455       1.1444801
       3727.7462       1.2146208
       3728.3468       1.2437325
       3728.9474       1.0503737
       3729.5481      0.77265005
       3730.1487      0.67285775
       3730.7493      0.62153114
       3731.3500      0.41492688
       3731.9506      0.36045552
       3732.5512      0.24302981
       3733.1519      0.16467595
       3733.7525      0.15917887
       3734.3531      0.13278247
       3734.9538      0.21032034
       3735.5544      0.21833947
       3736.1551      0.12505393
       3736.7557     0.032730426
       3737.3563      0.17361101
       3737.9570     0.079315848
       3738.5576      0.30968809
       3739.1582      0.15014578
       3739.7589      0.19577286
       3740.3595      0.15797238
       3740.9601      0.14796444
       3741.5608      0.15722927
       3742.1614      0.29623773
       3742.7620      0.23086228
       3743.3627      0.13092778
       3743.9633     0.083138059
       3744.5640      0.15214771
       3745.1646      0.29614954
       3745.7652      0.19096832
       3746.3659     0.084080957
       3746.9665      0.16372980
       3747.5671      0.21484461
       3748.1678      0.22940035
       3748.7684      0.27959533
       3749.3690      0.17949693
       3749.9697      0.22999375
       3750.5703      0.32957113
       3751.1709      0.21408585
       3751.7716     0.073773849
       3752.3722      0.12340734
       3752.9729      0.14180919
       3753.5735      0.12354606
       3754.1741      0.33026559
       3754.7748      0.23810005
       3755.3754      0.14194062
       3755.9760      0.34712985
       3756.5767      0.15999072
       3757.1773      0.14250824
       3757.7779      0.16456479
       3758.3786      0.19416325
       3758.9792      0.22742479
       3759.5798      0.12700736
       3760.1805     0.062854038
       3760.7811      0.13060403
       3761.3818      0.18840334
       3761.9824      0.16971021
       3762.5830      0.10850915
       3763.1837      0.26822930
       3763.7843      0.19437953
       3764.3849      0.26732489
       3764.9856      0.28794759
       3765.5862      0.15619821
       3766.1868      0.14165241
       3766.7875      0.26630768
       3767.3881      0.19903763
       3767.9887      0.31200634
       3768.5894      0.16529261
       3769.1900      0.17244175
       3769.7907     0.098765472
       3770.3913      0.17257000
       3770.9919      0.14454876
       3771.5926      0.19884262
       3772.1932      0.29392979
       3772.7938      0.10330814
       3773.3945      0.24524092
       3773.9951      0.17145834
       3774.5957      0.17821955
       3775.1964      0.17632515
       3775.7970      0.26721689
       3776.3976      0.25995824
       3776.9983      0.19407686
       3777.5989      0.22337713
       3778.1996     0.093403044
       3778.8002      0.38221479
       3779.4008      0.27242840
       3780.0015      0.22371427
       3780.6021      0.23149777
       3781.2027      0.29299697
       3781.8034      0.33522667
       3782.4040      0.36921838
       3783.0046      0.41014177
       3783.6053      0.25381956
       3784.2059      0.18130553
       3784.8065      0.23311062
       3785.4072      0.21676653
       3786.0078      0.20939238
       3786.6084      0.16717286
       3787.2091      0.14842943
       3787.8097      0.21303854
       3788.4104      0.24960924
       3789.0110      0.27229298
       3789.6116      0.28302181
       3790.2123      0.22398114
       3790.8129      0.18679451
       3791.4135      0.24219240
       3792.0142      0.18522223
       3792.6148      0.14310258
       3793.2154      0.21236644
       3793.8161      0.16185131
       3794.4167      0.16593895
       3795.0173      0.15720597
       3795.6180      0.10778103
       3796.2186      0.28951135
       3796.8193      0.11010918
       3797.4199      0.21732507
       3798.0205      0.30164944
       3798.6212     0.093265123
       3799.2218      0.20051608
       3799.8224      0.31417587
       3800.4231      0.32119586
       3801.0237      0.14295958
       3801.6243      0.25673512
       3802.2250      0.21803382
       3802.8256      0.10758095
       3803.4262      0.14138770
       3804.0269      0.19772947
       3804.6275     0.085732235
       3805.2282      0.20461791
       3805.8288      0.19234651
       3806.4294      0.21125693
       3807.0301      0.16133072
       3807.6307      0.26520690
       3808.2313      0.28159348
       3808.8320      0.29170624
       3809.4326      0.22520000
       3810.0332      0.41237908
       3810.6339      0.44034443
       3811.2345      0.33517073
       3811.8351      0.39424875
       3812.4358      0.37058348
       3813.0364      0.14243399
       3813.6371      0.19023782
       3814.2377      0.25961958
       3814.8383      0.20491721
       3815.4390      0.31470944
       3816.0396      0.16144598
       3816.6402      0.33022013
       3817.2409      0.20755314
       3817.8415     0.062858431
       3818.4421     0.067879698
       3819.0428             NaN
       3819.6434             NaN
       3820.2440             NaN
       3820.8447             NaN
       3821.4453             NaN
       3822.0460             NaN
       3822.6466             NaN
       3823.2472             NaN
       3823.8479             NaN
       3824.4485             NaN
       3825.0491             NaN
       3825.6498             NaN
       3826.2504             NaN
       3826.8510             NaN
       3827.4517             NaN
       3828.0523             NaN
       3828.6529             NaN
       3829.2536             NaN
       3829.8542             NaN
       3830.4549             NaN
       3831.0555             NaN
       3831.6561             NaN
       3832.2568             NaN
       3832.8574             NaN
       3833.4580             NaN
       3834.0587             NaN
       3834.6593             NaN
       3835.2599             NaN
       3835.8606             NaN
       3836.4612             NaN
       3837.0618             NaN
       3837.6625             NaN
       3838.2631             NaN
       3838.8638             NaN
       3839.4644             NaN
       3840.0650             NaN
       3840.6657             NaN
       3841.2663             NaN
       3841.8669             NaN
       3842.4676             NaN
       3843.0682             NaN
       3843.6688             NaN
       3844.2695             NaN
       3844.8701             NaN
       3845.4707             NaN
       3846.0714             NaN
       3846.6720             NaN
       3847.2727             NaN
       3847.8733             NaN
       3848.4739             NaN
       3849.0746             NaN
       3849.6752             NaN
       3850.2758             NaN
       3850.8765             NaN
       3851.4771             NaN
       3852.0777             NaN
       3852.6784             NaN
       3853.2790             NaN
       3853.8796             NaN
       3854.4803             NaN
       3855.0809             NaN
       3855.6815             NaN
       3856.2822             NaN
       3856.8828             NaN
       3857.4835             NaN
       3858.0841             NaN
       3858.6847             NaN
       3859.2854             NaN
       3859.8860             NaN
       3860.4866             NaN
       3861.0873             NaN
       3861.6879             NaN
       3862.2885             NaN
       3862.8892             NaN
       3863.4898             NaN
       3864.0904             NaN
       3864.6911             NaN
       3865.2917             NaN
       3865.8924             NaN
       3866.4930             NaN
       3867.0936             NaN
       3867.6943             NaN
       3868.2949             NaN
       3868.8955             NaN
       3869.4962             NaN
       3870.0968             NaN
       3870.6974             NaN
       3871.2981             NaN
       3871.8987             NaN
       3872.4993      0.18409930
       3873.1000      0.29846874
       3873.7006      0.24644270
       3874.3013      0.53153194
       3874.9019      0.38173376
       3875.5025      0.39347644
       3876.1032      0.59584337
       3876.7038      0.22925210
       3877.3044    -0.035690604
       3877.9051      0.25367587
       3878.5057      0.23140825
       3879.1063      0.32017641
       3879.7070      0.11570646
       3880.3076      0.24133922
       3880.9082      0.16333542
       3881.5089      0.26066665
       3882.1095      0.22089479
       3882.7102      0.14609586
       3883.3108      0.29182773
       3883.9114      0.25311460
       3884.5121      0.34925668
       3885.1127      0.22650144
       3885.7133      0.27367343
       3886.3140      0.11732963
       3886.9146      0.25567927
       3887.5152      0.19096756
       3888.1159      0.28344111
       3888.7165      0.29702751
       3889.3171      0.16473458
       3889.9178      0.12754283
       3890.5184     0.055125572
       3891.1191      0.17589890
       3891.7197     0.053303481
       3892.3203      0.15542587
       3892.9210      0.17615572
       3893.5216      0.33491240
       3894.1222      0.14282938
       3894.7229      0.22933806
       3895.3235    -0.011008112
       3895.9241      0.38805151
       3896.5248      0.27624026
       3897.1254      0.34085225
       3897.7260      0.31160674
       3898.3267      0.26783336
       3898.9273      0.29039478
       3899.5280      0.46138981
       3900.1286      0.23697163
       3900.7292      0.25923182
       3901.3299      0.41673235
       3901.9305      0.25240967
       3902.5311      0.26785515
       3903.1318      0.19835548
       3903.7324      0.31348546
       3904.3330      0.13865410
       3904.9337      0.11802656
       3905.5343     0.083510799
       3906.1349      0.13992749
       3906.7356      0.35714837
       3907.3362      0.39147787
       3907.9369      0.27086180
       3908.5375      0.27262813
       3909.1381      0.27135201
       3909.7388      0.29983284
       3910.3394      0.40241661
       3910.9400      0.47088792
       3911.5407      0.35887716
       3912.1413      0.27912040
       3912.7419      0.14853255
       3913.3426      0.26434761
       3913.9432      0.39218722
       3914.5438      0.24424311
       3915.1445      0.26159836
       3915.7451      0.51767512
       3916.3457      0.32195842
       3916.9464      0.12729581
       3917.5470      0.33968940
       3918.1477      0.32754101
       3918.7483      0.26282391
       3919.3489      0.27186720
       3919.9496      0.35063588
       3920.5502      0.37082944
       3921.1508      0.30887080
       3921.7515      0.25801818
       3922.3521      0.29245144
       3922.9527      0.20803565
       3923.5534      0.20484560
       3924.1540      0.20747664
       3924.7546      0.47028087
       3925.3553      0.56815192
       3925.9559      0.22637238
       3926.5566      0.34689842
       3927.1572      0.15861242
       3927.7578      0.18828089
       3928.3585      0.35822983
       3928.9591     0.019780124
       3929.5597     0.076068167
       3930.1604    0.0035990808
       3930.7610      0.25851515
       3931.3616      0.55865080
       3931.9623      0.32286605
       3932.5629      0.18493103
       3933.1635      0.39824612
       3933.7642      0.22435136
       3934.3648      0.38947837
       3934.9655      0.20081093
       3935.5661      0.24811247
       3936.1667      0.33596700
       3936.7674      0.26288052
       3937.3680      0.20331760
       3937.9686      0.20705819
       3938.5693      0.32267821
       3939.1699      0.24276210
       3939.7705      0.17772665
       3940.3712      0.22669540
       3940.9718      0.21632219
       3941.5724      0.26246415
       3942.1731      0.27351570
       3942.7737      0.20078256
       3943.3744      0.29876864
       3943.9750      0.40599759
       3944.5756      0.45643662
       3945.1763      0.16709329
       3945.7769      0.19764486
       3946.3775      0.30003821
       3946.9782      0.58718745
       3947.5788      0.65694931
       3948.1794      0.39617669
       3948.7801      0.35123176
       3949.3807      0.21237628
       3949.9813      0.13595424
       3950.5820      0.20342822
       3951.1826      0.41486482
       3951.7833      0.40501406
       3952.3839      0.25338665
       3952.9845      0.30346644
       3953.5852      0.20678973
       3954.1858      0.37945529
       3954.7864      0.18507371
       3955.3871      0.13211724
       3955.9877     0.093951019
       3956.5883      0.24705489
       3957.1890      0.16497964
       3957.7896     0.074761607
       3958.3902      0.11489800
       3958.9909      0.26869419
       3959.5915      0.19769899
       3960.1922      0.14488906
       3960.7928     0.082127959
       3961.3934      0.21136557
       3961.9941      0.40631052
       3962.5947      0.23055206
       3963.1953      0.24056988
       3963.7960      0.29540262
       3964.3966     0.068511888
       3964.9972      0.12874271
       3965.5979     0.018576867
       3966.1985     0.065421349
       3966.7991      0.14787730
       3967.3998      0.16012695
       3968.0004      0.34036076
       3968.6011      0.30705363
       3969.2017      0.34006106
       3969.8023      0.23017339
       3970.4030      0.26481740
       3971.0036      0.31669399
       3971.6042      0.25212525
       3972.2049      0.11262398
       3972.8055      0.22807973
       3973.4061      0.24100593
       3974.0068      0.13049039
       3974.6074     0.094877189
       3975.2080     0.095740395
       3975.8087      0.18681566
       3976.4093      0.22155622
       3977.0100     0.072301216
       3977.6106    -0.025295268
       3978.2112      0.12802605
       3978.8119      0.60227812
       3979.4125      0.54636078
       3980.0131      0.28572121
       3980.6138      0.12803702
       3981.2144      0.30597542
       3981.8150      0.31730503
       3982.4157      0.47051331
       3983.0163      0.33349681
       3983.6169      0.22926947
       3984.2176      0.24645043
       3984.8182      0.31658812
       3985.4188      0.18354753
       3986.0195      0.17715824
       3986.6201      0.32532356
       3987.2208      0.32135641
       3987.8214      0.15688523
       3988.4220      0.35063128
       3989.0227      0.19010011
       3989.6233      0.28399741
       3990.2239      0.28712882
       3990.8246      0.16144966
       3991.4252      0.12639674
       3992.0258      0.20633776
       3992.6265      0.28003606
       3993.2271      0.23650117
       3993.8277      0.14469968
       3994.4284      0.20356206
       3995.0290      0.32750958
       3995.6297      0.29450437
       3996.2303      0.41564911
       3996.8309      0.31021743
       3997.4316      0.26114734
       3998.0322      0.29139947
       3998.6328      0.30736737
       3999.2335      0.36759586
       3999.8341      0.28846807
       4000.4347      0.17277121
       4001.0354      0.28585162
       4001.6360      0.14813406
       4002.2366      0.16149917
       4002.8373      0.27287011
       4003.4379      0.13647891
       4004.0386      0.67441918
       4004.6392      0.60147123
       4005.2398      0.32010199
       4005.8405      0.23153855
       4006.4411      0.32878643
       4007.0417      0.30519893
       4007.6424      0.28449475
       4008.2430      0.32360097
       4008.8436      0.26629490
       4009.4443      0.19006185
       4010.0449      0.30664167
       4010.6455      0.29666845
       4011.2462      0.30015136
       4011.8468      0.34030999
       4012.4475      0.25038080
       4013.0481      0.26098732
       4013.6487      0.19004323
       4014.2494      0.39016008
       4014.8500      0.16911464
       4015.4506      0.17380974
       4016.0513      0.20265934
       4016.6519      0.20828929
       4017.2525     0.060030875
       4017.8532      0.30591317
       4018.4538      0.35301261
       4019.0544      0.36289222
       4019.6551      0.34362087
       4020.2557      0.39126329
       4020.8564      0.28422702
       4021.4570      0.14979854
       4022.0576      0.17802126
       4022.6583      0.18610203
       4023.2589      0.17377741
       4023.8595      0.22691271
       4024.4602      0.18102126
       4025.0608      0.19594015
       4025.6614     0.066836118
       4026.2621      0.22030038
       4026.8627      0.27069261
       4027.4633      0.25813134
       4028.0640      0.32875390
       4028.6646      0.28627470
       4029.2653      0.19206122
       4029.8659      0.18463006
       4030.4665      0.11300414
       4031.0672      0.25963221
       4031.6678      0.29664157
       4032.2684      0.24688056
       4032.8691      0.39949620
       4033.4697      0.42158713
       4034.0703      0.32325482
       4034.6710      0.30756430
       4035.2716      0.36743321
       4035.8722      0.35551372
       4036.4729      0.30137480
       4037.0735      0.29025585
       4037.6742      0.35940525
       4038.2748      0.33787215
       4038.8754      0.32391753
       4039.4761      0.34023396
       4040.0767      0.33542744
       4040.6773      0.34420809
       4041.2780      0.34158226
       4041.8786      0.39482388
       4042.4792      0.34560011
       4043.0799      0.28528169
       4043.6805      0.27904614
       4044.2811      0.27774748
       4044.8818      0.16637614
       4045.4824      0.19555309
       4046.0830      0.23079457
       4046.6837      0.27956491
       4047.2843      0.31774729
       4047.8850      0.33046569
       4048.4856      0.33303892
       4049.0862      0.30588888
       4049.6869      0.29180382
       4050.2875      0.36171503
       4050.8881      0.58232803
       4051.4888      0.33029842
       4052.0894      0.22533126
       4052.6900      0.29290241
       4053.2907      0.39922876
       4053.8913      0.24260181
       4054.4919      0.18418543
       4055.0926      0.26721827
       4055.6932      0.25504756
       4056.2939      0.30334119
       4056.8945      0.31802651
       4057.4951      0.28907349
       4058.0958      0.33812533
       4058.6964      0.26181767
       4059.2970      0.31099040
       4059.8977      0.34863284
       4060.4983      0.28117103
       4061.0989      0.22968938
       4061.6996      0.29036845
       4062.3002      0.29651774
       4062.9008      0.21490642
       4063.5015      0.21247351
       4064.1021      0.27542034
       4064.7028      0.34724900
       4065.3034      0.22649458
       4065.9040      0.36904637
       4066.5047      0.25023383
       4067.1053      0.21813020
       4067.7059      0.29750923
       4068.3066      0.19723512
       4068.9072      0.33174979
       4069.5078      0.36694874
       4070.1085      0.24408277
       4070.7091      0.35268253
       4071.3097      0.24341801
       4071.9104      0.25955758
       4072.5110      0.25754196
       4073.1117      0.28352827
       4073.7123      0.19267485
       4074.3129      0.38029294
       4074.9136      0.26506819
       4075.5142      0.24541423
       4076.1148      0.29211882
       4076.7155      0.23273840
       4077.3161      0.26565091
       4077.9167      0.23162887
       4078.5174      0.15041445
       4079.1180      0.29326893
       4079.7186      0.22106472
       4080.3193      0.21885237
       4080.9199      0.31176306
       4081.5206      0.24281127
       4082.1212      0.19339865
       4082.7218      0.17184521
       4083.3225      0.27220632
       4083.9231      0.26392777
       4084.5237      0.22826484
       4085.1244      0.36132107
       4085.7250      0.23358598
       4086.3256      0.10974220
       4086.9263      0.22959390
       4087.5269      0.28671580
       4088.1275      0.26704132
       4088.7282      0.28616575
       4089.3288      0.23307027
       4089.9295      0.28822541
       4090.5301      0.22406721
       4091.1307      0.26225078
       4091.7314      0.31395709
       4092.3320      0.12120568
       4092.9326      0.14954379
       4093.5333      0.26800126
       4094.1339      0.14760240
       4094.7345      0.17012110
       4095.3352      0.26907959
       4095.9358      0.21301310
       4096.5364      0.27202030
       4097.1371      0.20898584
       4097.7377      0.20032880
       4098.3384      0.23360975
       4098.9390      0.19623812
       4099.5396      0.16608813
       4100.1403      0.28760071
       4100.7409      0.36255842
       4101.3415      0.31612726
       4101.9422      0.28830741
       4102.5428      0.36130601
       4103.1434      0.22883250
       4103.7441      0.25687328
       4104.3447      0.16475215
       4104.9453      0.24508745
       4105.5460      0.31264948
       4106.1466      0.16905023
       4106.7473      0.17479326
       4107.3479      0.25312000
       4107.9485      0.23015240
       4108.5492      0.17310825
       4109.1498      0.26427388
       4109.7504      0.25576408
       4110.3511      0.23585795
       4110.9517      0.24382763
       4111.5523      0.20216542
       4112.1530      0.31641045
       4112.7536      0.26489146
       4113.3542      0.29591338
       4113.9549      0.33100762
       4114.5555      0.26164435
       4115.1561      0.31507286
       4115.7568      0.27573849
       4116.3574      0.32135364
       4116.9581      0.21836969
       4117.5587      0.20116060
       4118.1593      0.22037913
       4118.7600      0.20668118
       4119.3606      0.17648790
       4119.9612      0.22797060
       4120.5619      0.28056917
       4121.1625      0.27809813
       4121.7631      0.20129698
       4122.3638      0.23149771
       4122.9644      0.21113096
       4123.5650      0.22616463
       4124.1657      0.20984363
       4124.7663      0.26481173
       4125.3670      0.28666462
       4125.9676      0.25756359
       4126.5682      0.21642695
       4127.1689      0.15153742
       4127.7695      0.14763712
       4128.3701      0.10958731
       4128.9708      0.23974199
       4129.5714      0.26025369
       4130.1720      0.11941430
       4130.7727      0.21443677
       4131.3733      0.28330314
       4131.9739      0.32927106
       4132.5746      0.14191312
       4133.1752      0.24924348
       4133.7759      0.23257171
       4134.3765      0.18916428
       4134.9771      0.16441413
       4135.5778      0.22631362
       4136.1784      0.22064584
       4136.7790      0.25164295
       4137.3797      0.25244771
       4137.9803      0.19156164
       4138.5809      0.23961658
       4139.1816      0.17650235
       4139.7822      0.23596305
       4140.3828      0.24138398
       4140.9835      0.17614093
       4141.5841      0.16021225
       4142.1848      0.21053858
       4142.7854      0.20987605
       4143.3860      0.30813165
       4143.9867      0.23489248
       4144.5873      0.23832537
       4145.1879      0.21837578
       4145.7886      0.20021654
       4146.3892      0.33554968
       4146.9898      0.22666490
       4147.5905      0.29301649
       4148.1911      0.29069401
       4148.7917      0.33468387
       4149.3924      0.24852725
       4149.9930      0.28770650
       4150.5937      0.25386922
       4151.1943      0.33074041
       4151.7949      0.24002566
       4152.3956      0.24966295
       4152.9962      0.19597321
       4153.5968      0.27863938
       4154.1975      0.28682219
       4154.7981      0.27563617
       4155.3987      0.18081797
       4155.9994      0.16682705
       4156.6000      0.16255138
       4157.2006      0.26752202
       4157.8013      0.25128976
       4158.4019      0.26522082
       4159.0026      0.34265426
       4159.6032      0.21525850
       4160.2038      0.23813805
       4160.8045      0.27333303
       4161.4051      0.26753764
       4162.0057      0.32287337
       4162.6064      0.21809220
       4163.2070      0.43553611
       4163.8076      0.32407879
       4164.4083      0.24052743
       4165.0089      0.32841749
       4165.6095      0.20425988
       4166.2102     0.037838159
       4166.8108      0.28368463
       4167.4115      0.35444225
       4168.0121      0.30575035
       4168.6127      0.24512012
       4169.2134      0.22249604
       4169.8140      0.21879957
       4170.4146    -0.051908002
       4171.0153      0.21122109
       4171.6159      0.25940574
       4172.2165      0.26309078
       4172.8172      0.32063949
       4173.4178      0.20821633
       4174.0184      0.13750357
       4174.6191      0.28625649
       4175.2197      0.33286759
       4175.8203      0.28674752
       4176.4210      0.21903619
       4177.0216      0.19177107
       4177.6223      0.43299775
       4178.2229      0.25508273
       4178.8235      0.18234845
       4179.4242      0.12066745
       4180.0248      0.25344865
       4180.6254      0.36299312
       4181.2261      0.14638514
       4181.8267      0.22639077
       4182.4273      0.21651772
       4183.0280      0.33849191
       4183.6286      0.26531920
       4184.2292      0.35000333
       4184.8299      0.33249682
       4185.4305      0.26573084
       4186.0312      0.22883073
       4186.6318      0.21427607
       4187.2324      0.28100708
       4187.8331      0.25410627
       4188.4337      0.23055463
       4189.0343      0.18749481
       4189.6350      0.25889881
       4190.2356      0.35063566
       4190.8362      0.11689170
       4191.4369      0.18371131
       4192.0375     0.051187318
       4192.6381     -0.31467944
       4193.2388      0.41910655
       4193.8394      0.30740201
       4194.4401      0.18427071
       4195.0407      0.28277440
       4195.6413      0.24243049
       4196.2420      0.27609586
       4196.8426      0.14347847
       4197.4432      0.14293556
       4198.0439     0.084905242
       4198.6445      0.13881271
       4199.2451     0.072454216
       4199.8458      0.29448151
       4200.4464      0.23575512
       4201.0470      0.32055351
       4201.6477      0.31445042
       4202.2483      0.29572497
       4202.8490      0.30324495
       4203.4496      0.25985909
       4204.0502      0.33212859
       4204.6509      0.19557254
       4205.2515      0.25765290
       4205.8521      0.36026637
       4206.4528      0.26960640
       4207.0534      0.26445435
       4207.6540      0.36465490
       4208.2547      0.21720363
       4208.8553      0.24632069
       4209.4559      0.23578027
       4210.0566     0.017766716
       4210.6572     0.084740299
       4211.2579      0.13820116
       4211.8585      0.15077189
       4212.4591     0.063307157
       4213.0598      0.11612423
       4213.6604      0.27165627
       4214.2610      0.25075342
       4214.8617      0.26434874
       4215.4623      0.19549024
       4216.0629      0.27085278
       4216.6636      0.33073445
       4217.2642      0.15993369
       4217.8648      0.49731607
       4218.4655      0.55810830
       4219.0661      0.19572692
       4219.6668      0.54281285
       4220.2674      0.25954160
       4220.8680      0.29277976
       4221.4687      0.21102635
       4222.0693      0.19263338
       4222.6699      0.23320286
       4223.2706      0.32437406
       4223.8712      0.30377250
       4224.4718      0.33891876
       4225.0725      0.32023053
       4225.6731      0.31899851
       4226.2737      0.24902294
       4226.8744    -0.017286225
       4227.4750      0.21390377
       4228.0757      0.30429573
       4228.6763      0.43595075
       4229.2769      0.47931670
       4229.8776      0.31487918
       4230.4782      0.24626986
       4231.0788      0.30096808
       4231.6795      0.28803592
       4232.2801      0.11741818
       4232.8807      0.18397775
       4233.4814      0.13725186
       4234.0820      0.13606975
       4234.6826      0.51702420
       4235.2833     0.088403854
       4235.8839     -0.33226251
       4236.4846      0.51862565
       4237.0852      0.55327618
       4237.6858      0.36357539
       4238.2865      0.30763035
       4238.8871      0.40724612
       4239.4877      0.35752082
       4240.0884      0.32008865
       4240.6890      0.24471070
       4241.2896      0.16213105
       4241.8903      0.11202681
       4242.4909      0.27302210
       4243.0915      0.27634579
       4243.6922      0.32852617
       4244.2928      0.28531391
       4244.8934      0.17496301
       4245.4941     0.037238731
       4246.0947      0.31893617
       4246.6954      0.29341848
       4247.2960      0.54986128
       4247.8966      0.29196053
       4248.4973      0.20150368
       4249.0979      0.33054635
       4249.6985      0.33281569
       4250.2992      0.28196140
       4250.8998      0.30431893
       4251.5004      0.32581605
       4252.1011     -0.15649758
       4252.7017      0.23479572
       4253.3023      0.29853193
       4253.9030     0.057809055
       4254.5036      0.34734088
       4255.1043      0.58459412
       4255.7049      0.44080706
       4256.3055      0.32749396
       4256.9062      0.24155670
       4257.5068      0.31071242
       4258.1074      0.15912450
       4258.7081      0.30542425
       4259.3087      0.31462383
       4259.9093      0.31020560
       4260.5100      0.24384278
       4261.1106      0.19012034
       4261.7112      0.29738107
       4262.3119      0.34647023
       4262.9125      0.30811655
       4263.5132      0.29177139
       4264.1138      0.15851800
       4264.7144      0.24927647
       4265.3151      0.21092061
       4265.9157      0.27844246
       4266.5163      0.48049170
       4267.1170      0.21706332
       4267.7176      0.26655212
       4268.3182      0.13929059
       4268.9189      0.12407631
       4269.5195      0.17823431
       4270.1201      0.30088021
       4270.7208      0.20313018
       4271.3214      0.25424024
       4271.9221     0.012632600
       4272.5227     -0.13975503
       4273.1233      0.21579241
       4273.7240      0.48866203
       4274.3246      0.19035969
       4274.9252      0.10542455
       4275.5259      0.23867704
       4276.1265      0.24833944
       4276.7271      0.31116489
       4277.3278      0.21429214
       4277.9284      0.17608148
       4278.5290      0.15478200
       4279.1297      0.18337692
       4279.7303      0.18219257
       4280.3310      0.17095205
       4280.9316      0.15981343
       4281.5322      0.32037770
       4282.1329      0.27466884
       4282.7335      0.35008141
       4283.3341      0.31418292
       4283.9348      0.30067117
       4284.5354      0.20171510
       4285.1360      0.27026017
       4285.7367      0.23022390
       4286.3373      0.23328747
       4286.9379      0.18230937
       4287.5386      0.16518408
       4288.1392      0.22808959
       4288.7399      0.20794266
       4289.3405      0.13759088
       4289.9411      0.31870526
       4290.5418      0.26363885
       4291.1424      0.32997163
       4291.7430      0.19100869
       4292.3437      0.18549069
       4292.9443      0.26769166
       4293.5449      0.22407981
       4294.1456      0.25088299
       4294.7462      0.14508345
       4295.3468      0.31818336
       4295.9475      0.23636320
       4296.5481      0.35414472
       4297.1488      0.27157386
       4297.7494      0.33224039
       4298.3500      0.28325898
       4298.9507      0.26341513
       4299.5513      0.38458557
       4300.1519      0.26140435
       4300.7526      0.19253436
       4301.3532      0.16317186
       4301.9538      0.22387393
       4302.5545      0.21757977
       4303.1551      0.22274703
       4303.7557      0.34489276
       4304.3564      0.26060658
       4304.9570      0.26437627
       4305.5577      0.21168816
       4306.1583      0.26742027
       4306.7589      0.31336036
       4307.3596      0.30500941
       4307.9602      0.15920137
       4308.5608      0.24540700
       4309.1615      0.26189677
       4309.7621      0.19230040
       4310.3627      0.20451713
       4310.9634      0.22275117
       4311.5640      0.28364093
       4312.1646      0.26526584
       4312.7653      0.25137480
       4313.3659      0.23695961
       4313.9665      0.23801885
       4314.5672      0.28121788
       4315.1678      0.33130544
       4315.7685      0.32108496
       4316.3691      0.30070078
       4316.9697      0.13040687
       4317.5704      0.16396450
       4318.1710      0.24834966
       4318.7716      0.27137052
       4319.3723      0.21628648
       4319.9729      0.30603838
       4320.5735      0.35282621
       4321.1742      0.30148795
       4321.7748      0.22426407
       4322.3754      0.24519804
       4322.9761      0.32053303
       4323.5767      0.40022065
       4324.1774      0.27467454
       4324.7780      0.29709943
       4325.3786      0.35331511
       4325.9793      0.24364578
       4326.5799      0.31757751
       4327.1805      0.21932088
       4327.7812      0.14788146
       4328.3818      0.18775811
       4328.9824      0.25966072
       4329.5831      0.11192042
       4330.1837      0.11659346
       4330.7843      0.34809431
       4331.3850     0.049834734
       4331.9856      0.29769540
       4332.5863      0.14546616
       4333.1869    -0.044567012
       4333.7875      0.38183934
       4334.3882      0.50036883
       4334.9888      0.42935226
       4335.5894      0.43808597
       4336.1901     0.068685822
       4336.7907      0.50705870
       4337.3913      0.59479558
       4337.9920      0.70515813
       4338.5926      0.70767334
       4339.1932      0.39914576
       4339.7939      0.30706192
       4340.3945      0.45829122
       4340.9952      0.36715443
       4341.5958      0.30244142
       4342.1964      0.20833312
       4342.7971      0.31011367
       4343.3977      0.26442132
       4343.9983     0.082733039
       4344.5990      0.25216185
       4345.1996      0.51237381
       4345.8002      0.21363432
       4346.4009      0.30144862
       4347.0015      0.23313968
       4347.6021      0.16975183
       4348.2028      0.62836942
       4348.8034      0.32859782
       4349.4041      0.50215598
       4350.0047      0.35663419
       4350.6053      0.25296756
       4351.2060      0.42029639
       4351.8066      0.28849043
       4352.4072      0.46457495
       4353.0079      0.45929265
       4353.6085      0.21291044
       4354.2091      0.16993624
       4354.8098      0.22802119
       4355.4104      0.40764994
       4356.0110      0.18979332
       4356.6117      0.37707152
       4357.2123    -0.090205594
       4357.8130      0.13420934
       4358.4136      0.21051220
       4359.0142      0.17004815
       4359.6149      0.31058169
       4360.2155      0.34512555
       4360.8161      0.33334799
       4361.4168      0.22492441
       4362.0174      0.20668475
       4362.6180      0.28954209
       4363.2187      0.30716184
       4363.8193      0.36693597
       4364.4199      0.24124720
       4365.0206      0.25864438
       4365.6212      0.27283759
       4366.2219      0.29578482
       4366.8225      0.25675268
       4367.4231      0.32603919
       4368.0238      0.34810778
       4368.6244      0.33895953
       4369.2250      0.36360772
       4369.8257      0.35234454
       4370.4263      0.24273828
       4371.0269      0.37759847
       4371.6276      0.32545131
       4372.2282      0.26369286
       4372.8288      0.38489544
       4373.4295      0.29559417
       4374.0301      0.37259937
       4374.6307      0.27469672
       4375.2314      0.11850211
       4375.8320      0.27593225
       4376.4327      0.27083693
       4377.0333      0.30725477
       4377.6339      0.36302668
       4378.2346      0.32756751
       4378.8352      0.38577093
       4379.4358      0.38943999
       4380.0365      0.19496948
       4380.6371      0.26438377
       4381.2377      0.22023922
       4381.8384      0.22609721
       4382.4390      0.24479608
       4383.0396      0.18320738
       4383.6403      0.20480936
       4384.2409      0.33986258
       4384.8416      0.33222139
       4385.4422      0.27606289
       4386.0428      0.32600492
       4386.6435      0.24787166
       4387.2441      0.36827480
       4387.8447      0.34212737
       4388.4454      0.22023418
       4389.0460      0.25287404
       4389.6466      0.27795504
       4390.2473      0.26591474
       4390.8479      0.24482853
       4391.4485      0.27021528
       4392.0492      0.30602973
       4392.6498      0.29047111
       4393.2505      0.36420718
       4393.8511      0.36603160
       4394.4517      0.27795771
       4395.0524      0.22175612
       4395.6530      0.36592839
       4396.2536      0.34078736
       4396.8543      0.36807784
       4397.4549      0.29435497
       4398.0555      0.28601663
       4398.6562      0.48616504
       4399.2568      0.28419926
       4399.8574      0.27921304
       4400.4581      0.23564940
       4401.0587     0.093678231
       4401.6594    0.0088712987
       4402.2600      0.12048167
       4402.8606      0.20506580
       4403.4613     0.059660939
       4404.0619      0.21631585
       4404.6625      0.31000002
       4405.2632    -0.079767237
       4405.8638     -0.15987945
       4406.4644      0.28529116
       4407.0651      0.19823686
       4407.6657     0.083143729
       4408.2663    -0.061482526
       4408.8670     -0.92258796
       4409.4676     -0.27828867
       4410.0683    -0.078654728
       4410.6689      0.36102073
       4411.2695      0.58387982
       4411.8702      0.51329858
       4412.4708      0.38663618
       4413.0714      0.35580918
       4413.6721      0.31216704
       4414.2727      0.37316599
       4414.8733      0.26125147
       4415.4740      0.20001851
       4416.0746      0.20981641
       4416.6752      0.26674052
       4417.2759      0.24123914
       4417.8765      0.20404938
       4418.4772      0.23923953
       4419.0778      0.35658065
       4419.6784      0.29311336
       4420.2791      0.24644767
       4420.8797      0.28872007
       4421.4803      0.25646038
       4422.0810      0.24818615
       4422.6816      0.18607990
       4423.2822      0.24431905
       4423.8829      0.27675708
       4424.4835      0.23114574
       4425.0841      0.27457587
       4425.6848      0.28569033
       4426.2854      0.30051450
       4426.8861      0.19543709
       4427.4867      0.29126367
       4428.0873      0.38854013
       4428.6880      0.27114871
       4429.2886      0.37442732
       4429.8892      0.33934769
       4430.4899      0.32695055
       4431.0905      0.34084832
       4431.6911      0.47628548
       4432.2918      0.50137581
       4432.8924     0.042285375
       4433.4930     0.047026347
       4434.0937      0.43431118
       4434.6943      0.64556094
       4435.2950      0.37937933
       4435.8956      0.52816895
       4436.4962      0.45898094
       4437.0969      0.64504710
       4437.6975      0.57022176
       4438.2981      0.52564664
       4438.8988      0.38712115
       4439.4994      0.51609762
       4440.1000      0.35313316
       4440.7007      0.33139385
       4441.3013      0.26487722
       4441.9019      0.25433812
       4442.5026      0.31720358
       4443.1032      0.33003798
       4443.7038      0.42303356
       4444.3045      0.30146074
       4444.9051      0.32534348
       4445.5058      0.35790384
       4446.1064      0.39858006
       4446.7070      0.61808455
       4447.3077      0.65099112
       4447.9083      0.52016655
       4448.5089      0.30656292
       4449.1096      0.27875063
       4449.7102      0.31138030
       4450.3108      0.34947639
       4450.9115      0.24469414
       4451.5121      0.30075881
       4452.1127      0.27794933
       4452.7134      0.31799474
       4453.3140     0.055858424
       4453.9147     0.090316110
       4454.5153      0.48717803
       4455.1159      0.35697826
       4455.7166      0.29667585
       4456.3172      0.25352423
       4456.9178      0.31184063
       4457.5185      0.36252362
       4458.1191      0.33395217
       4458.7197      0.33047143
       4459.3204      0.30904986
       4459.9210      0.29278398
       4460.5216      0.25376369
       4461.1223      0.35903681
       4461.7229      0.33503451
       4462.3236      0.12982026
       4462.9242      0.38831780
       4463.5248      0.29328126
       4464.1255      0.73339886
       4464.7261      0.67488484
       4465.3267      0.48583749
       4465.9274      0.32010676
       4466.5280      0.24413832
       4467.1286      0.42305870
       4467.7293      0.24279383
       4468.3299      0.34153558
       4468.9305      0.35260791
       4469.5312      0.47990610
       4470.1318      0.51531051
       4470.7325      0.19392239
       4471.3331      0.35299694
       4471.9337      0.23403348
       4472.5344      0.27025061
       4473.1350      0.28664991
       4473.7356      0.23568869
       4474.3363      0.26586337
       4474.9369      0.34958346
       4475.5375      0.28099834
       4476.1382      0.30562011
       4476.7388      0.43596210
       4477.3394      0.44772765
       4477.9401      0.40547203
       4478.5407    -0.033092583
       4479.1414      0.12759636
       4479.7420      0.48591707
       4480.3426      0.21329380
       4480.9433      0.12818344
       4481.5439      0.15605863
       4482.1445      0.27329353
       4482.7452      0.22483659
       4483.3458      0.30084267
       4483.9464      0.14875181
       4484.5471      0.32380251
       4485.1477      0.24897311
       4485.7483      0.20856097
       4486.3490      0.32130364
       4486.9496      0.26870673
       4487.5503      0.22783238
       4488.1509      0.24751612
       4488.7515      0.34609342
       4489.3522      0.33510824
       4489.9528     0.060975575
       4490.5534      0.21818572
       4491.1541     0.034869131
       4491.7547    -0.018924249
       4492.3553     -0.28457461
       4492.9560     -0.17148795
       4493.5566      0.17297559
       4494.1572      0.50229610
       4494.7579      0.28787820
       4495.3585      0.18602453
       4495.9592      0.31013736
       4496.5598      0.61685720
       4497.1604      0.65438508
       4497.7611      0.65912805
       4498.3617      0.29620882
       4498.9623      0.33310208
       4499.5630      0.51348028
       4500.1636      0.67686135
       4500.7642      0.57662661
       4501.3649      0.48929560
       4501.9655      0.24007401
       4502.5661      0.44089081
       4503.1668      0.37654136
       4503.7674      0.31111169
       4504.3680      0.23481790
       4504.9687      0.21747337
       4505.5693      0.26356958
       4506.1700      0.24936535
       4506.7706      0.34494896
       4507.3712      0.41822838
       4507.9719      0.35694942
       4508.5725      0.23156359
       4509.1731      0.31469471
       4509.7738      0.18094350
       4510.3744      0.18449941
       4510.9750      0.21985637
       4511.5757      0.33314230
       4512.1763      0.45152743
       4512.7769      0.50750742
       4513.3776      0.31945197
       4513.9782      0.18124998
       4514.5789      0.28124967
       4515.1795      0.31553058
       4515.7801      0.45085696
       4516.3808      0.25684488
       4516.9814      0.27474649
       4517.5820      0.22215723
       4518.1827      0.28908011
       4518.7833      0.44333584
       4519.3839      0.42884597
       4519.9846     0.091057442
       4520.5852      0.15461046
       4521.1858      0.59347023
       4521.7865      0.46098569
       4522.3871      0.36875718
       4522.9878      0.39479368
       4523.5884      0.50589890
       4524.1890      0.29728887
       4524.7897      0.27696085
       4525.3903      0.30535364
       4525.9909      0.28224331
       4526.5916      0.34434894
       4527.1922      0.26401651
       4527.7928      0.22619637
       4528.3935      0.26791145
       4528.9941      0.33111210
       4529.5947      0.31953086
       4530.1954      0.26898159
       4530.7960      0.26291621
       4531.3967      0.24409214
       4531.9973      0.21992356
       4532.5979      0.24786497
       4533.1986      0.31529300
       4533.7992      0.33202654
       4534.3998      0.33527545
       4535.0005      0.34374929
       4535.6011      0.27387496
       4536.2017      0.32901729
       4536.8024      0.26049326
       4537.4030      0.24178404
       4538.0036      0.26428062
       4538.6043      0.24211903
       4539.2049      0.41449066
       4539.8056      0.38279744
       4540.4062      0.19231216
       4541.0068      0.21776940
       4541.6075      0.19775339
       4542.2081      0.31619995
       4542.8087      0.27508426
       4543.4094      0.22681519
       4544.0100    -0.070388639
       4544.6106      0.21857089
       4545.2113      0.36782838
       4545.8119      0.11422551
       4546.4125      0.27535285
       4547.0132      0.35517524
       4547.6138      0.27383825
       4548.2145      0.27388053
       4548.8151      0.33164662
       4549.4157      0.24666521
       4550.0164      0.29607653
       4550.6170      0.34409663
       4551.2176      0.33182690
       4551.8183      0.40450328
       4552.4189      0.34061961
       4553.0195      0.31411645
       4553.6202      0.20132554
       4554.2208      0.23392833
       4554.8214      0.27127351
       4555.4221      0.15210058
       4556.0227      0.28291817
       4556.6234      0.27556350
       4557.2240      0.29101667
       4557.8246      0.23602038
       4558.4253      0.30625181
       4559.0259      0.37009075
       4559.6265      0.27487287
       4560.2272      0.30308776
       4560.8278      0.25780057
       4561.4284      0.53035960
       4562.0291       2.1511447
       4562.6297       1.1548317
       4563.2303      0.36413942
       4563.8310      0.34939717
       4564.4316      0.29456820
       4565.0323      0.23422855
       4565.6329      0.25928423
       4566.2335      0.24752740
       4566.8342      0.28347995
       4567.4348      0.35509289
       4568.0354      0.35608703
       4568.6361      0.29805370
       4569.2367      0.33411625
       4569.8373      0.25669223
       4570.4380      0.17106761
       4571.0386      0.28086777
       4571.6392      0.17387440
       4572.2399      0.10204650
       4572.8405      0.19725120
       4573.4411      0.21499160
       4574.0418      0.24041204
       4574.6424      0.21440870
       4575.2431      0.32110373
       4575.8437      0.29600923
       4576.4443      0.34698987
       4577.0450      0.29756843
       4577.6456      0.24318362
       4578.2462      0.19619361
       4578.8469      0.33896579
       4579.4475      0.36088423
       4580.0481      0.27164355
       4580.6488      0.38523361
       4581.2494      0.29962673
       4581.8500      0.28164594
       4582.4507      0.33005672
       4583.0513      0.37182841
       4583.6520      0.39802515
       4584.2526      0.30845932
       4584.8532      0.27201404
       4585.4539      0.29428189
       4586.0545      0.23458467
       4586.6551      0.21947429
       4587.2558      0.21793731
       4587.8564      0.22674235
       4588.4570      0.33362066
       4589.0577      0.24852789
       4589.6583      0.26425299
       4590.2589      0.35146155
       4590.8596      0.28633863
       4591.4602      0.37458075
       4592.0609      0.34944598
       4592.6615      0.40413041
       4593.2621      0.20715458
       4593.8628      0.26356954
       4594.4634      0.32238403
       4595.0640      0.32914003
       4595.6647      0.42196108
       4596.2653      0.43900015
       4596.8659      0.35786529
       4597.4666      0.26335535
       4598.0672      0.34680825
       4598.6678      0.15108254
       4599.2685      0.19433361
       4599.8691      0.29818327
       4600.4698      0.29608836
       4601.0704      0.16770630
       4601.6710      0.34871589
       4602.2717      0.32295954
       4602.8723      0.27040592
       4603.4729      0.33835066
       4604.0736      0.32919373
       4604.6742      0.33234282
       4605.2748      0.19919261
       4605.8755      0.32776008
       4606.4761      0.29670108
       4607.0767      0.21355247
       4607.6774      0.30424548
       4608.2780      0.27311057
       4608.8787      0.26651751
       4609.4793      0.44635427
       4610.0799      0.42977734
       4610.6806      0.30204325
       4611.2812      0.32977285
       4611.8818      0.37677507
       4612.4825      0.40502222
       4613.0831      0.27058264
       4613.6837      0.18143329
       4614.2844      0.20837795
       4614.8850      0.29831419
       4615.4856      0.30797366
       4616.0863      0.34508826
       4616.6869      0.27475214
       4617.2876      0.29618949
       4617.8882      0.27353386
       4618.4888      0.19129711
       4619.0895      0.24779478
       4619.6901      0.36317851
       4620.2907      0.45512939
       4620.8914      0.34205468
       4621.4920      0.22312506
       4622.0926      0.42602437
       4622.6933      0.28907577
       4623.2939      0.30218507
       4623.8945      0.40849971
       4624.4952      0.26080051
       4625.0958      0.39326839
       4625.6965      0.40723337
       4626.2971      0.28240367
       4626.8977      0.32994981
       4627.4984      0.17549486
       4628.0990      0.11986770
       4628.6996      0.33558128
       4629.3003      0.27298366
       4629.9009      0.27386464
       4630.5015      0.47154679
       4631.1022      0.38125372
       4631.7028      0.24943354
       4632.3034      0.41409900
       4632.9041      0.49461808
       4633.5047      0.40402425
       4634.1053      0.34388062
       4634.7060      0.30376533
       4635.3066      0.33221546
       4635.9073      0.31749694
       4636.5079      0.33751023
       4637.1085      0.31079040
       4637.7092      0.30152055
       4638.3098      0.28124485
       4638.9104      0.23875290
       4639.5111      0.29322325
       4640.1117      0.28577269
       4640.7123      0.32409450
       4641.3130      0.28383165
       4641.9136      0.32134843
       4642.5142      0.21444594
       4643.1149      0.26940086
       4643.7155      0.28106567
       4644.3162      0.32472415
       4644.9168      0.24318378
       4645.5174      0.14963914
       4646.1181      0.39713320
       4646.7187      0.26605543
       4647.3193      0.35017696
       4647.9200      0.25966045
       4648.5206      0.21523372
       4649.1212      0.26065877
       4649.7219      0.33269471
       4650.3225      0.31446631
       4650.9231      0.41224806
       4651.5238      0.27199203
       4652.1244      0.23052773
       4652.7251      0.22404782
       4653.3257      0.25410970
       4653.9263      0.44193566
       4654.5270      0.28006931
       4655.1276      0.19615527
       4655.7282      0.11971464
       4656.3289      0.28530415
       4656.9295      0.19701091
       4657.5301      0.32589558
       4658.1308      0.33263914
       4658.7314      0.22388579
       4659.3320      0.35569733
       4659.9327      0.35293577
       4660.5333      0.33020687
       4661.1340      0.30427457
       4661.7346      0.31051043
       4662.3352      0.23965690
       4662.9359      0.32221694
       4663.5365      0.27898771
       4664.1371      0.23079190
       4664.7378      0.24072369
       4665.3384      0.13067758
       4665.9390     0.098283059
       4666.5397      0.14653277
       4667.1403      0.22043373
       4667.7409      0.19008418
       4668.3416      0.20679670
       4668.9422      0.27638188
       4669.5429      0.22242272
       4670.1435      0.12200586
       4670.7441      0.29879933
       4671.3448      0.49948121
       4671.9454      0.28670250
       4672.5460      0.27154953
       4673.1467      0.59633872
       4673.7473      0.29958839
       4674.3479      0.32711689
       4674.9486      0.38060091
       4675.5492      0.35299138
       4676.1498      0.30921375
       4676.7505     -0.18921788
       4677.3511     -0.59288603
       4677.9518     -0.31667222
       4678.5524      0.35049044
       4679.1530      0.42650680
       4679.7537   -0.0092137661
       4680.3543    -0.096534532
       4680.9549     -0.36010028
       4681.5556      0.30903930
       4682.1562     -0.14503243
       4682.7568     -0.18656357
       4683.3575      0.71506041
       4683.9581      0.59324066
       4684.5587      0.17873348
       4685.1594     0.098578821
       4685.7600      0.17851705
       4686.3607      0.20614469
       4686.9613      0.30542261
       4687.5619      0.10698938
       4688.1626      0.34831395
       4688.7632   -0.0055537312
       4689.3638      0.14049533
       4689.9645      0.24960576
       4690.5651      0.16756864
       4691.1657      0.19287781
       4691.7664      0.16622928
       4692.3670     0.072840817
       4692.9676      0.14063418
       4693.5683      0.26850685
       4694.1689      0.14297287
       4694.7696     0.062960869
       4695.3702      0.28605492
       4695.9708      0.48997115
       4696.5715      0.29418452
       4697.1721      0.22341266
       4697.7727      0.20596558
       4698.3734      0.11916408
       4698.9740    -0.015993005
       4699.5746     0.031960976
       4700.1753     0.074234208
       4700.7759      0.11555003
       4701.3765      0.12862723
       4701.9772      0.34045156
       4702.5778      0.26246479
       4703.1784      0.24103635
       4703.7791     0.086153932
       4704.3797      0.14484720
       4704.9804      0.22916617
       4705.5810      0.36600063
       4706.1816      0.77937710
       4706.7823     0.095816195
       4707.3829     -0.26231772
       4707.9835      0.31370390
       4708.5842      0.12867650
       4709.1848      0.18065193
       4709.7854      0.48625953
       4710.3861      0.88880351
       4710.9867      0.22318254
       4711.5873     0.024469776
       4712.1880      0.27907946
       4712.7886      0.31036333
       4713.3893      0.15226051
       4713.9899      0.28032647
       4714.5905     0.084649531
       4715.1912      0.14960236
       4715.7918      0.28067986
       4716.3924      0.18597096
       4716.9931      0.25708857
       4717.5937      0.37314741
       4718.1943      0.31473030
       4718.7950      0.28570981
       4719.3956      0.37647714
       4719.9962      0.48601657
       4720.5969      0.32967013
       4721.1975      0.33294562
       4721.7982      0.60303682
       4722.3988      0.35563933
       4722.9994      0.33712240
       4723.6001      0.19053356
       4724.2007      0.22689043
       4724.8013      0.20564597
       4725.4020      0.10509978
       4726.0026     0.048952865
       4726.6032      0.11362765
       4727.2039      0.28441627
       4727.8045      0.38742477
       4728.4051     0.060130068
       4729.0058     0.014405602
       4729.6064     0.030655649
       4730.2071      0.34511604
       4730.8077     -0.12880847
       4731.4083      0.21487691
       4732.0090      0.46055079
       4732.6096      0.18431547
       4733.2102     0.064678185
       4733.8109      0.19443010
       4734.4115      0.13830343
       4735.0121      0.17295448
       4735.6128      0.15928526
       4736.2134      0.16804319
       4736.8140      0.20322603
       4737.4147      0.21533921
       4738.0153      0.55706718
       4738.6160      0.35932287
       4739.2166      0.23586160
       4739.8172      0.36899604
       4740.4179      0.19372205
       4741.0185     -0.24323923
       4741.6191     -0.14629089
       4742.2198      0.44071823
       4742.8204      0.34126376
       4743.4210      0.13503346
       4744.0217      0.11447159
       4744.6223      0.22871486
       4745.2229      0.12626417
       4745.8236      0.22231497
       4746.4242      0.32800526
       4747.0249      0.36546312
       4747.6255      0.27346559
       4748.2261    -0.062879045
       4748.8268    -0.089018527
       4749.4274     -0.18239324
       4750.0280     -0.22240713
       4750.6287     -0.20347377
       4751.2293     -0.80341516
       4751.8299     -0.23461438
       4752.4306     0.062553107
       4753.0312      0.22209330
       4753.6318      0.18103729
       4754.2325     0.082640192
       4754.8331      0.16527713
       4755.4338      0.30168510
       4756.0344      0.43412804
       4756.6350      0.72592746
       4757.2357      0.46360045
       4757.8363      0.45029424
       4758.4369      0.39338822
       4759.0376     0.069881645
       4759.6382      0.10901954
       4760.2388      -1.1054597
       4760.8395     -0.92818013
       4761.4401     -0.12305367
       4762.0407     0.019554028
       4762.6414      0.15939524
       4763.2420      0.22051290
       4763.8426      0.24512235
       4764.4433      0.14511441
       4765.0439     0.092984829
       4765.6446      0.21662994
       4766.2452      0.22148754
       4766.8458      0.23291215
       4767.4465      0.27026909
       4768.0471      0.27041520
       4768.6477      0.26162127
       4769.2484      0.26661815
       4769.8490      0.10898072
       4770.4496      0.13438944
       4771.0503      0.40400048
       4771.6509      0.34121713
       4772.2515    -0.012187333
       4772.8522      0.20451939
       4773.4528      0.47190588
       4774.0535      0.52583622
       4774.6541      0.30707198
       4775.2547      0.26645841
       4775.8554      0.34906675
       4776.4560      0.37107022
       4777.0566      0.27982176
       4777.6573      0.33709145
       4778.2579      0.20045598
       4778.8585     -0.36002516
       4779.4592    -0.076827652
       4780.0598     -0.18300394
       4780.6604      0.26424783
       4781.2611      0.18056610
       4781.8617      0.23296380
       4782.4624      0.25985093
       4783.0630      0.25692759
       4783.6636      0.11665949
       4784.2643      0.25331842
       4784.8649      0.29917745
       4785.4655      0.24791237
       4786.0662      0.30470062
       4786.6668      0.37519887
       4787.2674      0.16767080
       4787.8681      0.14725041
       4788.4687      0.26494481
       4789.0693      0.24195116
       4789.6700      0.24209381
       4790.2706      0.20231034
       4790.8713      0.20108001
       4791.4719      0.13369443
       4792.0725      0.14378570
       4792.6732      0.14144199
       4793.2738      0.15103280
       4793.8744      0.13872841
       4794.4751     -0.10896775
       4795.0757      0.16768591
       4795.6763      0.58344852
       4796.2770      0.24655769
       4796.8776      0.26597639
       4797.4782      0.26650797
       4798.0789      0.71442111
       4798.6795      0.57213247
       4799.2802      0.15401860
       4799.8808      0.31029843
       4800.4814      0.25119666
       4801.0821      0.27104258
       4801.6827       1.1484918
       4802.2833      0.90779970
       4802.8840      0.23984489
       4803.4846    -0.073770034
       4804.0852     -0.80446605
       4804.6859      0.74404025
       4805.2865       1.7716323
       4805.8871       2.4882360
       4806.4878       1.9806459
       4807.0884      0.84521418
       4807.6891      0.47793573
       4808.2897      0.17551100
       4808.8903      0.19690804
       4809.4910      0.40076290
       4810.0916      0.20203965
       4810.6922     0.099986453
       4811.2929      0.22728554
       4811.8935      0.55246527
       4812.4941      0.42629975
       4813.0948      0.33259467
       4813.6954      0.27082660
       4814.2960      0.11700888
       4814.8967     -0.13865648
       4815.4973     -0.40045871
       4816.0980     -0.31147838
       4816.6986    -0.014053987
       4817.2992      0.15438891
       4817.8999      0.20118108
       4818.5005      0.20102246
       4819.1011      0.22229481
       4819.7018      0.11175494
       4820.3024      0.20522240
       4820.9030      0.27999007
       4821.5037      0.22252238
       4822.1043      0.23296300
       4822.7049      0.17938921
       4823.3056      0.41240417
       4823.9062      0.15713032
       4824.5069      0.28432181
       4825.1075      0.43511277
       4825.7081      0.43108494
       4826.3088      0.38730757
       4826.9094      0.31713789
       4827.5100      0.29045796
       4828.1107      0.24849983
       4828.7113      0.54772249
       4829.3119      0.61584567
       4829.9126      0.24268407
       4830.5132      0.22445533
       4831.1138      0.16657732
       4831.7145      0.14617837
       4832.3151      0.16785996
       4832.9157     0.097355704
       4833.5164      0.12047059
       4834.1170      0.31427336
       4834.7177      0.27524431
       4835.3183      0.17422361
       4835.9189      0.38140911
       4836.5196      0.42369334
       4837.1202      0.33910938
       4837.7208      0.13360757
       4838.3215     0.068546550
       4838.9221     0.092005039
       4839.5227      0.13671206
       4840.1234      0.29347837
       4840.7240      0.26636103
       4841.3246      0.15641002
       4841.9253      0.12531209
       4842.5259      0.12618436
       4843.1266     0.022650004
       4843.7272     0.064500186
       4844.3278      0.17534819
       4844.9285      0.18938754
       4845.5291      0.13944055
       4846.1297      0.30968644
       4846.7304      0.21106188
       4847.3310      0.10681602
       4847.9316     0.089875854
       4848.5323      0.26352440
       4849.1329      0.41877092
       4849.7335     0.057587066
       4850.3342      0.17639803
       4850.9348      0.35470955
       4851.5355      0.25274606
       4852.1361      0.34289398
       4852.7367      0.36311220
       4853.3374     0.028282299
       4853.9380    -0.094632509
       4854.5386      0.33915722
       4855.1393      0.75566303
       4855.7399      0.71673289
       4856.3405       1.1927434
       4856.9412       1.4412940
       4857.5418       1.7199927
       4858.1424       1.6361951
       4858.7431       1.3899907
       4859.3437       1.0342899
       4859.9444      0.46573506
       4860.5450     0.022355631
       4861.1456     -0.28080674
       4861.7463     0.063125899
       4862.3469     0.015736394
       4862.9475     0.096454015
       4863.5482      0.31512333
       4864.1488      0.19458989
       4864.7494     0.015086007
       4865.3501      0.14258077
       4865.9507      0.37727563
       4866.5513      0.26646013
       4867.1520      0.29884820
       4867.7526      0.37451327
       4868.3533      0.33631885
       4868.9539     0.020044197
       4869.5545      0.17560560
       4870.1552      0.11664132
       4870.7558     -0.12870176
       4871.3564    -0.018752459
       4871.9571      0.13603021
       4872.5577      0.50663738
       4873.1583      0.36548653
       4873.7590      0.25836959
       4874.3596      0.25881655
       4874.9602      0.20172745
       4875.5609      0.19732547
       4876.1615      0.19136883
       4876.7622      0.41708774
       4877.3628      0.42216403
       4877.9634      0.27846081
       4878.5641     0.034670024
       4879.1647      0.24734977
       4879.7653      0.49272531
       4880.3660     -0.13811282
       4880.9666      0.19379561
       4881.5672      0.48811236
       4882.1679      0.76777732
       4882.7685      0.49248165
       4883.3691      0.35092047
       4883.9698      0.19611609
       4884.5704      0.31896188
       4885.1711      0.22706835
       4885.7717      0.32712998
       4886.3723      0.25936962
       4886.9730      0.33181998
       4887.5736      0.35041798
       4888.1742      0.37210769
       4888.7749      0.20784770
       4889.3755    -0.021171941
       4889.9761     -0.28809978
       4890.5768     0.065329672
       4891.1774      0.30071684
       4891.7780      0.25849568
       4892.3787      0.23345584
       4892.9793      0.31675867
       4893.5799      0.28953546
       4894.1806      0.56370959
       4894.7812      0.44077075
       4895.3819      0.29834448
       4895.9825      0.35887631
       4896.5831      0.18607427
       4897.1838      0.13465196
       4897.7844      0.19556499
       4898.3850      0.26011752
       4898.9857      0.11586709
       4899.5863      0.17012867
       4900.1869      0.13412698
       4900.7876    -0.017587456
       4901.3882     -0.14674478
       4901.9888    0.0071325265
       4902.5895     0.053761890
       4903.1901      0.20973324
       4903.7908      0.22008878
       4904.3914     0.063307372
       4904.9920      0.10746651
       4905.5927      0.19518667
       4906.1933      0.12390906
       4906.7939      0.15504942
       4907.3946      0.29575511
       4907.9952      0.16335689
       4908.5958      0.17717140
       4909.1965      0.26934607
       4909.7971      0.10437706
       4910.3977      0.10148791
       4910.9984    0.0078151569
       4911.5990      0.25352903
       4912.1997      0.26257537
       4912.8003      0.30015774
       4913.4009      0.40164166
       4914.0016      0.33771995
       4914.6022     -0.39612461
       4915.2028     -0.14564245
       4915.8035      0.21523924
       4916.4041      0.28297777
       4917.0047      0.28471890
       4917.6054     -0.12804155
       4918.2060      0.52444966
       4918.8066      0.62516666
       4919.4073      0.34510414
       4920.0079      0.30645914
       4920.6086      0.46791748
       4921.2092      0.22887369
       4921.8098    -0.052000988
       4922.4105     0.014366366
       4923.0111      0.14613465
       4923.6117     0.066449759
       4924.2124      0.29554702
       4924.8130      0.12049824
       4925.4136    -0.067867353
       4926.0143   -0.0030742216
       4926.6149      0.22638163
       4927.2155      0.29109676
       4927.8162      0.31464688
       4928.4168      0.42570703
       4929.0175      0.32829544
       4929.6181     0.040683903
       4930.2187      0.19774159
       4930.8194      0.43206327
       4931.4200      0.32973587
       4932.0206      0.18423969
       4932.6213      0.19024413
       4933.2219      0.32379674
       4933.8225      0.23885647
       4934.4232      0.19792256
       4935.0238      0.16487637
       4935.6244      0.24282017
       4936.2251      0.22183426
       4936.8257      0.25908440
       4937.4264      0.27520523
       4938.0270      0.13551955
       4938.6276     0.099202609
       4939.2283      0.20834581
       4939.8289      0.35080313
       4940.4295      0.20388236
       4941.0302      0.12374219
       4941.6308      0.13997600
       4942.2314      0.38330082
       4942.8321      0.17831034
       4943.4327      0.27470323
       4944.0333      0.11504032
       4944.6340      0.26855800
       4945.2346     -0.14617698
       4945.8353      0.12661699
       4946.4359      0.32015539
       4947.0365      0.50081758
       4947.6372      0.58363598
       4948.2378      0.29740849
       4948.8384      0.31545592
       4949.4391      0.17450883
       4950.0397      0.25231316
       4950.6403      0.40087820
       4951.2410      0.30969045
       4951.8416      0.32097125
       4952.4422      0.48155962
       4953.0429      0.53296964
       4953.6435      0.43166742
       4954.2442      0.94014289
       4954.8448       1.0793386
       4955.4454       1.2819095
       4956.0461      0.72649615
       4956.6467      0.43657423
       4957.2473      0.53994664
       4957.8480      0.84047163
       4958.4486       1.2187495
       4959.0492       1.8324973
       4959.6499       1.2404236
       4960.2505      0.57111379
       4960.8511      0.35556371
       4961.4518      0.10067495
       4962.0524      0.17895014
       4962.6530      0.19856419
       4963.2537      0.26424842
       4963.8543      0.30487747
       4964.4550      0.33458356
       4965.0556     0.098185122
       4965.6562      0.32271550
       4966.2569      0.64406016
       4966.8575      0.29266942
       4967.4581     0.089228143
       4968.0588    -0.035675085
       4968.6594     -0.26067300
       4969.2600      0.21353645
       4969.8607      0.11863878
       4970.4613      0.44197958
       4971.0619      0.39905117
       4971.6626      0.30433604
       4972.2632      0.23138267
       4972.8639      0.20526680
       4973.4645      0.26021667
       4974.0651      0.23963097
       4974.6658      0.18754140
       4975.2664      0.19803515
       4975.8670      0.32821921
       4976.4677      0.22633567
       4977.0683      0.35820100
       4977.6689      -1.3425492
       4978.2696      -1.9389227
       4978.8702      -1.0688628
       4979.4708     -0.59469832
       4980.0715      0.44724182
       4980.6721      0.68460349
       4981.2728      0.20457085
       4981.8734      0.36061039
       4982.4740      0.37946438
       4983.0747      0.30589392
       4983.6753      0.25208435
       4984.2759      0.17315433
       4984.8766      0.34606521
       4985.4772      0.39817826
       4986.0778      0.31499467
       4986.6785      0.41643462
       4987.2791      0.21964449
       4987.8797      0.37609946
       4988.4804      0.26913217
       4989.0810      0.19870787
       4989.6817      0.17545075
       4990.2823      0.32296399
       4990.8829      0.23764803
       4991.4836      0.18882922
       4992.0842      0.41089648
       4992.6848    -0.090963399
       4993.2855     -0.32120697
       4993.8861      0.13530220
       4994.4867      0.56020503
       4995.0874      0.54362127
       4995.6880      0.96353229
       4996.2886      0.80925086
       4996.8893      0.65522064
       4997.4899      0.51600391
       4998.0906      0.33875187
       4998.6912      0.61770962
       4999.2918      0.22499096
       4999.8925      0.69354882
       5000.4931       1.3502236
       5001.0937      0.87807289
       5001.6944       1.0431582
       5002.2950       1.2593188
       5002.8956       1.5677039
       5003.4963       1.7459838
       5004.0969       1.8733366
       5004.6975       1.6096210
       5005.2982      0.97896219
       5005.8988      0.58633816
       5006.4995      0.51405172
       5007.1001      0.42088650
       5007.7007    -0.061999251
       5008.3014    -0.063657989
       5008.9020     0.053989931
       5009.5026      0.27561353
       5010.1033      0.28031177
       5010.7039      0.20100061
       5011.3045     0.093955317
       5011.9052      0.28921496
       5012.5058      0.35585432
       5013.1064      0.30324624
       5013.7071      0.41299290
       5014.3077      0.30426243
       5014.9084      0.19933209
       5015.5090      0.33190727
       5016.1096      0.24921186
       5016.7103      0.22723304
       5017.3109      0.11405488
       5017.9115      0.23429305
       5018.5122      0.28093960
       5019.1128      0.42123834
       5019.7134      0.42195690
       5020.3141      0.20509437
       5020.9147     0.046852127
       5021.5153     -0.13268505
       5022.1160      0.20019057
       5022.7166     0.032970687
       5023.3172      0.26612880
       5023.9179      0.38285542
       5024.5185     0.063777764
       5025.1192     0.089875014
       5025.7198     0.094207685
       5026.3204      0.14642909
       5026.9211      0.35152019
       5027.5217      0.56856001
       5028.1223      0.65753212
       5028.7230     -0.98689537
       5029.3236      0.16027469
       5029.9242       1.0110889
       5030.5249      0.68596831
       5031.1255      0.60356579
       5031.7261      0.36367933
       5032.3268      0.26214705
       5032.9274      0.57438553
       5033.5281      0.24426755
       5034.1287     0.088526801
       5034.7293      0.43147485
       5035.3300     -0.13269274
       5035.9306     -0.21186636
       5036.5312       1.0920310
       5037.1319      0.93112350
       5037.7325      0.55894436
       5038.3331      0.61029479
       5038.9338      0.47185536
       5039.5344      0.49955405
       5040.1350      0.36076983
       5040.7357      0.50724074
       5041.3363      0.17495075
       5041.9370     0.029175891
       5042.5376     0.027275086
       5043.1382     0.094139689
       5043.7389      0.17622482
       5044.3395     0.017095315
       5044.9401    -0.015787581
       5045.5408      0.38647128
       5046.1414      0.30480913
       5046.7420      0.40247157
       5047.3427      0.18690657
       5047.9433      0.11020720
       5048.5439      0.30276318
       5049.1446      0.20640479
       5049.7452     -0.14134167
       5050.3459    -0.044166852
       5050.9465      0.39894244
       5051.5471    -0.035293908
       5052.1478     -0.16577829
       5052.7484      0.21760897
       5053.3490      0.53028018
       5053.9497      0.65005712
       5054.5503      0.34145452
       5055.1509      0.42787510
       5055.7516     0.030451672
       5056.3522      0.16472151
       5056.9528      0.38409628
       5057.5535      0.66351015
       5058.1541      0.33609095
       5058.7548      0.18559628
       5059.3554      0.27176028
       5059.9560     0.070621940
       5060.5567      0.13490630
       5061.1573     -0.17622941
       5061.7579      0.34620135
       5062.3586     0.093842902
       5062.9592    -0.084202437
       5063.5598    -0.068736477
       5064.1605      0.28832813
       5064.7611      0.65312665
       5065.3617      0.63456347
       5065.9624      0.36766537
       5066.5630      0.37506096
       5067.1637      0.30062116
       5067.7643      0.12903807
       5068.3649      0.25885272
       5068.9656      0.27820001
       5069.5662      0.32962795
       5070.1668      0.32229726
       5070.7675      0.49395381
       5071.3681      0.50353171
       5071.9687      0.18767331
       5072.5694      0.44673660
       5073.1700      0.72272291
       5073.7706      0.46349315
       5074.3713      0.15402206
       5074.9719      0.20928220
       5075.5726      0.25289846
       5076.1732      0.45711420
       5076.7738      0.34842228
       5077.3745     0.092458971
       5077.9751      0.34129241
       5078.5757      0.24899501
       5079.1764      0.21272527
       5079.7770      0.41061208
       5080.3776      0.18994928
       5080.9783      0.35788688
       5081.5789       1.0463730
       5082.1795      0.67420589
       5082.7802      0.73211536
       5083.3808      0.96189084
       5083.9815      0.44057743
       5084.5821      0.51534584
       5085.1827       1.2834107
       5085.7834       1.5445362
       5086.3840       1.2018500
       5086.9846      0.51505149
       5087.5853      0.32946452
       5088.1859      0.45603406
       5088.7865     0.081696022
       5089.3872      0.12441048
       5089.9878     0.065305983
       5090.5884      0.22152096
       5091.1891      0.53314669
       5091.7897      0.34008132
       5092.3903      0.28744190
       5092.9910      0.24261996
       5093.5916      0.17608245
       5094.1923      0.10124314
       5094.7929      0.31985372
       5095.3935      0.20600483
       5095.9942      0.48337093
