# wavelength flux
       2309.0206     0.027168384
       2309.8263    -0.035932659
       2310.6321      0.11096352
       2311.4378      0.19181470
       2312.2436     0.026137386
       2313.0493     -0.18895385
       2313.8551     0.082607406
       2314.6608     0.053156008
       2315.4666    -0.013193558
       2316.2723    -0.068879279
       2317.0780     -0.18693650
       2317.8838      0.10279358
       2318.6895     0.070368322
       2319.4953    -0.017966549
       2320.3010   -0.0019414888
       2321.1068    -0.017652930
       2321.9125     0.046280471
       2322.7183     0.030423097
       2323.5240    -0.028354394
       2324.3298     0.010663000
       2325.1355     0.048188540
       2325.9412    -0.068573020
       2326.7470    -0.051585994
       2327.5527     -0.16823160
       2328.3585    -0.019478882
       2329.1642     0.043391210
       2329.9700    0.0025984803
       2330.7757     0.012034810
       2331.5815     0.025865157
       2332.3872     0.035455300
       2333.1929    -0.039200455
       2333.9987    0.0019993629
       2334.8044   -0.0047563370
       2335.6102     0.050759252
       2336.4159     -0.10219251
       2337.2217     0.091144816
       2338.0274    -0.038673733
       2338.8332     0.012131026
       2339.6389   -0.0050631760
       2340.4447     0.080291503
       2341.2504    0.0019210768
       2342.0561     0.054740161
       2342.8619     0.024008546
       2343.6676     0.041183939
       2344.4734     0.061666040
       2345.2791     0.045299230
       2346.0849     0.014519560
       2346.8906    -0.062061044
       2347.6964    -0.028896595
       2348.5021    -0.057300811
       2349.3078     0.063375762
       2350.1136    -0.023396514
       2350.9193     0.048113136
       2351.7251    -0.062800801
       2352.5308     0.013485664
       2353.3366     0.040773922
       2354.1423     0.048372200
       2354.9481     0.023023962
       2355.7538     0.040440066
       2356.5595    -0.011278343
       2357.3653     0.069974802
       2358.1710    -0.010612371
       2358.9768    0.0096400365
       2359.7825     0.023032197
       2360.5883    -0.071190763
       2361.3940    0.0049814748
       2362.1998    -0.073471599
       2363.0055    -0.054883751
       2363.8113     0.025356073
       2364.6170    -0.032744680
       2365.4227     0.027355081
       2366.2285     0.035854160
       2367.0342    0.0073747520
       2367.8400      0.13666009
       2368.6457      0.14541437
       2369.4515     0.032563258
       2370.2572    -0.041690850
       2371.0630     0.091353709
       2371.8687     0.036509944
       2372.6744     0.017736944
       2373.4802     0.047170629
       2374.2859     0.069438485
       2375.0917    -0.061774671
       2375.8974     0.035716261
       2376.7032    -0.023291840
       2377.5089    -0.034017692
       2378.3147     0.070152154
       2379.1204     0.080528037
       2379.9261    -0.016992861
       2380.7319     0.043430551
       2381.5376    -0.035803052
       2382.3434    -0.028019187
       2383.1491    -0.032239722
       2383.9549     0.091417589
       2384.7606      0.12784156
       2385.5664     0.014748625
       2386.3721     0.086587629
       2387.1779     -0.10351654
       2387.9836    -0.043256074
       2388.7893     0.024176808
       2389.5951     0.079725827
       2390.4008     0.078342298
       2391.2066     0.012813285
       2392.0123     0.060733981
       2392.8181    -0.015533344
       2393.6238    -0.018366523
       2394.4296    -0.039712921
       2395.2353     0.073062724
       2396.0410    -0.038373147
       2396.8468    -0.067372685
       2397.6525    -0.012745153
       2398.4583      0.11642920
       2399.2640     0.039583058
       2400.0698    -0.035091818
       2400.8755    -0.063797614
       2401.6813    -0.026027720
       2402.4870    -0.022037122
       2403.2927     0.036148873
       2404.0985    -0.094174030
       2404.9042     0.035426606
       2405.7100    -0.015282488
       2406.5157     0.072360888
       2407.3215    -0.032770496
       2408.1272    -0.013676021
       2408.9330     0.035056371
       2409.7387      0.10987513
       2410.5445     0.053245953
       2411.3502    0.0052151905
       2412.1559    -0.023121939
       2412.9617     0.010289600
       2413.7674     0.017416807
       2414.5732     -0.10305788
       2415.3789     0.030385543
       2416.1847     0.012386976
       2416.9904    -0.075046245
       2417.7962    -0.064596232
       2418.6019    -0.018857582
       2419.4076    0.0093682519
       2420.2134   -0.0091466782
       2421.0191    -0.010791321
       2421.8249    -0.027620699
       2422.6306   -0.0074600604
       2423.4364    -0.018258746
       2424.2421     0.079359926
       2425.0479    -0.012557179
       2425.8536     0.010619723
       2426.6594    -0.017656769
       2427.4651    -0.012212242
       2428.2708   -0.0035613351
       2429.0766     0.043458677
       2429.8823     0.023605821
       2430.6881    0.0071772355
       2431.4938     0.043540172
       2432.2996     0.055938015
       2433.1053     0.049084801
       2433.9111    -0.048106114
       2434.7168     0.017932350
       2435.5225    0.0063488511
       2436.3283     0.099107092
       2437.1340     0.024057403
       2437.9398    -0.073725081
       2438.7455    -0.046728800
       2439.5513     0.050533448
       2440.3570     0.069125325
       2441.1628     0.065888107
       2441.9685     0.051225052
       2442.7742      0.12458741
       2443.5800    0.0092149411
       2444.3857    -0.027993134
       2445.1915     0.048515399
       2445.9972      0.10492426
       2446.8030    0.0011606686
       2447.6087     0.022378274
       2448.4145      0.11780470
       2449.2202      0.13670645
       2450.0260     0.020423061
       2450.8317   -0.0091597544
       2451.6374      0.12733103
       2452.4432      0.10278318
       2453.2489    -0.070846330
       2454.0547    -0.076279337
       2454.8604     0.052506686
       2455.6662     0.071843544
       2456.4719     0.094455310
       2457.2777     0.051624565
       2458.0834     0.062037193
       2458.8891     0.035061616
       2459.6949     0.015205345
       2460.5006     0.031913873
       2461.3064     0.026933603
       2462.1121     0.071865720
       2462.9179     0.059039213
       2463.7236     0.017808472
       2464.5294     0.029190970
       2465.3351    -0.037441424
       2466.1408    -0.079482483
       2466.9466    -0.050206425
       2467.7523     0.040996245
       2468.5581     0.027092679
       2469.3638   -0.0050829688
       2470.1696     0.025851365
       2470.9753     0.097699895
       2471.7811     0.077193826
       2472.5868    -0.011033754
       2473.3926     0.011631959
       2474.1983     0.048709851
       2475.0040     0.064618942
       2475.8098     0.058369491
       2476.6155     0.020376286
       2477.4213     0.043902031
       2478.2270     0.038273277
       2479.0328      0.10123980
       2479.8385     0.026389405
       2480.6443     0.029068244
       2481.4500     0.078230910
       2482.2557    0.0081538937
       2483.0615     0.020565566
       2483.8672     0.054918720
       2484.6730     0.089524139
       2485.4787     0.012047305
       2486.2845    0.0059697188
       2487.0902   0.00099171886
       2487.8960    -0.011341721
       2488.7017     0.036664127
       2489.5074    -0.012913307
       2490.3132     0.079945588
       2491.1189    0.0090927357
       2491.9247    -0.040347126
       2492.7304     0.046290099
       2493.5362     0.060433037
       2494.3419    -0.010955318
       2495.1477    -0.048154050
       2495.9534    -0.033533347
       2496.7592     -0.10276804
       2497.5649     0.010974148
       2498.3706     0.043789783
       2499.1764     0.062352440
       2499.9821     0.094556896
       2500.7879    -0.060497676
       2501.5936     0.037088233
       2502.3994     0.025431902
       2503.2051     0.097732293
       2504.0109     0.012414084
       2504.8166    -0.064759442
       2505.6223     0.027939456
       2506.4281    -0.053173266
       2507.2338   0.00054624479
       2508.0396    0.0097846754
       2508.8453     0.034974195
       2509.6511      0.10813560
       2510.4568     0.024904149
       2511.2626     0.030642782
       2512.0683    0.0068862413
       2512.8741    -0.028681897
       2513.6798    0.0033740025
       2514.4855     0.036582677
       2515.2913     0.049345923
       2516.0970    -0.040449875
       2516.9028    -0.050402727
       2517.7085    -0.011993237
       2518.5143     0.031524910
       2519.3200    -0.013936359
       2520.1258     0.049571344
       2520.9315    -0.022228725
       2521.7372   -0.0097437950
       2522.5430    0.0067272817
       2523.3487     0.043035277
       2524.1545     0.036573794
       2524.9602     0.038057975
       2525.7660    0.0027158526
       2526.5717    -0.012516262
       2527.3775     0.065565733
       2528.1832     0.059368586
       2528.9889     0.010169847
       2529.7947    0.0070504743
       2530.6004    -0.030920675
       2531.4062     0.066169427
       2532.2119   -0.0038297814
       2533.0177     0.036708021
       2533.8234    -0.017128076
       2534.6292     0.023798749
       2535.4349     0.058236405
       2536.2407     0.083368711
       2537.0464    -0.023998558
       2537.8521     0.023955807
       2538.6579     0.032244705
       2539.4636   -0.0080208012
       2540.2694     0.044786953
       2541.0751    -0.033631426
       2541.8809    -0.020651435
       2542.6866    -0.038123379
       2543.4924     0.057076171
       2544.2981    -0.027847894
       2545.1038    -0.027756669
       2545.9096    -0.022606446
       2546.7153     0.076535124
       2547.5211    -0.025049990
       2548.3268    -0.057481768
       2549.1326     0.084778282
       2549.9383     0.032210889
       2550.7441     0.066574355
       2551.5498     0.047882094
       2552.3555     0.066614231
       2553.1613     0.031719495
       2553.9670     0.025142936
       2554.7728     0.022795604
       2555.5785     0.037190729
       2556.3843     0.024562406
       2557.1900     0.045906548
       2557.9958    -0.011932203
       2558.8015     0.029240070
       2559.6073    0.0046989435
       2560.4130     0.033954708
       2561.2187    -0.057331512
       2562.0245     0.046271670
       2562.8302     0.034220261
       2563.6360     0.043665779
       2564.4417    -0.057672705
       2565.2475     -0.10116114
       2566.0532     0.017762667
       2566.8590    -0.027334454
       2567.6647   -0.0099796691
       2568.4704     0.070092107
       2569.2762     0.023700379
       2570.0819     0.064223285
       2570.8877     0.061415539
       2571.6934    0.0010933577
       2572.4992      0.11228342
       2573.3049     0.020355812
       2574.1107   -0.0070767327
       2574.9164    -0.028361485
       2575.7221     0.024372235
       2576.5279     0.023836591
       2577.3336     0.012691202
       2578.1394   -0.0021330066
       2578.9451     0.023127898
       2579.7509    0.0043429420
       2580.5566    -0.049293659
       2581.3624     0.037972354
       2582.1681     0.024740861
       2582.9739    -0.042876410
       2583.7796     0.030756125
       2584.5853     0.040230693
       2585.3911     0.016047211
       2586.1968     0.077203650
       2587.0026    0.0082800899
       2587.8083    -0.067293256
       2588.6141    -0.037592445
       2589.4198    -0.028093857
       2590.2256    -0.054565466
       2591.0313    -0.032753195
       2591.8370     0.018581588
       2592.6428     0.013398575
       2593.4485     0.061296757
       2594.2543     0.065701781
       2595.0600     0.052973492
       2595.8658   -0.0083758931
       2596.6715    -0.014403379
       2597.4773     0.015570372
       2598.2830     0.065636862
       2599.0888     0.026512235
       2599.8945    -0.020437142
       2600.7002     0.097007234
       2601.5060   -0.0036566395
       2602.3117     0.053912401
       2603.1175   -0.0068494528
       2603.9232   -0.0035281678
       2604.7290    -0.018826510
       2605.5347    -0.028314734
       2606.3405    -0.065251062
       2607.1462   -0.0034977860
       2607.9519    -0.034169319
       2608.7577     0.032444184
       2609.5634    -0.010612748
       2610.3692    0.0061098593
       2611.1749    -0.013027183
       2611.9807     0.042098989
       2612.7864    -0.015073084
       2613.5922    -0.079816388
       2614.3979     0.051056043
       2615.2036     0.027296725
       2616.0094     0.054288191
       2616.8151     0.030308320
       2617.6209     0.070493239
       2618.4266     0.054498708
       2619.2324     0.036735570
       2620.0381     0.023049999
       2620.8439  -9.4520515e-05
       2621.6496     0.039874866
       2622.4554    -0.020332430
       2623.2611     0.012022575
       2624.0668     0.026910678
       2624.8726    -0.030682276
       2625.6783    -0.022516165
       2626.4841     0.019914043
       2627.2898    -0.038880290
       2628.0956     0.026437254
       2628.9013     0.049857323
       2629.7071     0.049752341
       2630.5128     0.013220448
       2631.3185     0.057864622
       2632.1243     0.065679327
       2632.9300     0.011562431
       2633.7358    -0.084258935
       2634.5415     0.081037695
       2635.3473     0.042868521
       2636.1530     0.073810252
       2636.9588  -0.00013308767
       2637.7645     0.015812600
       2638.5702    0.0042222684
       2639.3760     0.038366160
       2640.1817     0.046790963
       2640.9875     0.062172668
       2641.7932     0.040015570
       2642.5990     0.057661069
       2643.4047    -0.021437505
       2644.2105   0.00018479006
       2645.0162     0.029795739
       2645.8220    -0.028588902
       2646.6277    0.0080921510
       2647.4334   -0.0035385960
       2648.2392     0.034445836
       2649.0449    0.0086810576
       2649.8507    -0.022948509
       2650.6564    -0.010795190
       2651.4622   -0.0013094020
       2652.2679     0.010151912
       2653.0737     0.025191676
       2653.8794     0.075673989
       2654.6851     0.050680062
       2655.4909     0.030993409
       2656.2966     0.065512728
       2657.1024     0.042491081
       2657.9081   -0.0010469746
       2658.7139     0.063377398
       2659.5196     0.011096146
       2660.3254     0.023979814
       2661.1311     0.033523193
       2661.9369     0.028886526
       2662.7426     0.090835594
       2663.5483     0.021706197
       2664.3541   -0.0052716275
       2665.1598   -0.0063719227
       2665.9656    0.0018592011
       2666.7713     0.058634088
       2667.5771     0.020581650
       2668.3828     0.039074896
       2669.1886  -0.00068442509
       2669.9943    -0.021363083
       2670.8000     0.046778734
       2671.6058    0.0011316103
       2672.4115     0.043434347
       2673.2173    -0.021609345
       2674.0230    -0.034499937
       2674.8288     0.011679694
       2675.6345     0.025448789
       2676.4403    -0.014534017
       2677.2460     0.043622224
       2678.0517     0.027954835
       2678.8575   -0.0021896179
       2679.6632     0.026834151
       2680.4690     0.033009064
       2681.2747   -0.0025148405
       2682.0805    0.0086183853
       2682.8862     0.028245054
       2683.6920     0.072474912
       2684.4977     0.033753554
       2685.3035     0.032544118
       2686.1092     0.073457565
       2686.9149     0.020859232
       2687.7207    -0.050112394
       2688.5264    -0.033507012
       2689.3322    -0.016454694
       2690.1379     0.016271877
       2690.9437    0.0087775252
       2691.7494     0.058894735
       2692.5552    -0.029518136
       2693.3609     0.034876195
       2694.1666     0.015287048
       2694.9724    -0.019024015
       2695.7781     0.020581930
       2696.5839     0.019706809
       2697.3896     0.092106812
       2698.1954     0.038354092
       2699.0011     0.021404535
       2699.8069     0.064159059
       2700.6126     0.013169376
       2701.4183     0.034375366
       2702.2241     0.010480656
       2703.0298     0.014311032
       2703.8356     0.069366246
       2704.6413    0.0046530457
       2705.4471     0.068074600
       2706.2528     0.011835213
       2707.0586     0.082480063
       2707.8643     0.024199729
       2708.6701     0.041890668
       2709.4758      0.10151482
       2710.2815     0.092370030
       2711.0873      0.11027371
       2711.8930     0.059039356
       2712.6988     0.027659882
       2713.5045    0.0058514553
       2714.3103     0.072326695
       2715.1160     0.045341270
       2715.9218     0.068987668
       2716.7275     0.052643740
       2717.5332     0.027190702
       2718.3390     0.059148971
       2719.1447     0.092872596
       2719.9505    -0.021810633
       2720.7562     0.030891517
       2721.5620     0.015135912
       2722.3677     0.024583350
       2723.1735    -0.020050699
       2723.9792     0.012120778
       2724.7849     0.048988659
       2725.5907     0.068416334
       2726.3964   -0.0078744537
       2727.2022     0.031113446
       2728.0079     0.059522217
       2728.8137     0.068512761
       2729.6194     0.034164344
       2730.4252    -0.016293915
       2731.2309     0.058530094
       2732.0367     0.014043714
       2732.8424     0.029622017
       2733.6481     0.053597338
       2734.4539     0.037431509
       2735.2596     0.015609786
       2736.0654     0.043797499
       2736.8711    -0.025400747
       2737.6769    -0.015427948
       2738.4826     0.039361826
       2739.2884     0.030073313
       2740.0941     0.011615442
       2740.8998     0.049553794
       2741.7056     0.039673137
       2742.5113    -0.027393602
       2743.3171     0.075724619
       2744.1228    0.0066195583
       2744.9286     0.016391267
       2745.7343    -0.032800027
       2746.5401    0.0032039690
       2747.3458     0.044112890
       2748.1516    -0.010197762
       2748.9573    -0.019546195
       2749.7630    0.0072455101
       2750.5688     0.050326316
       2751.3745     0.033352682
       2752.1803     0.092904076
       2752.9860     0.046531354
       2753.7918  -0.00034239581
       2754.5975     0.028063143
       2755.4033     0.089196709
       2756.2090     0.074690257
       2757.0147     0.041264556
       2757.8205     0.043106026
       2758.6262     0.048350529
       2759.4320     0.016179945
       2760.2377     0.018494881
       2761.0435     0.042552645
       2761.8492     0.056979040
       2762.6550     0.049504130
       2763.4607     0.051471173
       2764.2664     0.027130619
       2765.0722     0.018257202
       2765.8779     0.069714492
       2766.6837     0.025538557
       2767.4894    0.0092640502
       2768.2952     0.042075666
       2769.1009   -0.0097202793
       2769.9067     0.018493286
       2770.7124     0.047674184
       2771.5182     0.054765932
       2772.3239    0.0062569326
       2773.1296   -0.0039594927
       2773.9354    -0.045665985
       2774.7411     0.039494934
       2775.5469    0.0049612655
       2776.3526     0.035240366
       2777.1584     0.028368344
       2777.9641    -0.016503173
       2778.7699     0.097730992
       2779.5756     0.072926847
       2780.3813   0.00023870244
       2781.1871     0.055995284
       2781.9928    -0.016436014
       2782.7986    -0.038710803
       2783.6043     0.071664456
       2784.4101     0.083901945
       2785.2158    -0.021964222
       2786.0216     0.020923521
       2786.8273    -0.010447610
       2787.6330    -0.010830393
       2788.4388    -0.030948815
       2789.2445    -0.016478348
       2790.0503   -0.0064932443
       2790.8560   -0.0018983508
       2791.6618     0.025838307
       2792.4675    -0.036681093
       2793.2733     0.053125445
       2794.0790     0.050394447
       2794.8848     0.048132410
       2795.6905     0.047247641
       2796.4962     0.012382127
       2797.3020   -0.0091234001
       2798.1077     0.055884222
       2798.9135   -0.0098478388
       2799.7192    0.0033103730
       2800.5250    -0.017205242
       2801.3307   -0.0081830027
       2802.1365     0.040727810
       2802.9422     0.021344596
       2803.7479     0.049814178
       2804.5537    0.0047182071
       2805.3594  -0.00060341052
       2806.1652     0.057885605
       2806.9709    0.0064700992
       2807.7767     0.098640621
       2808.5824     0.086664691
       2809.3882    0.0046303758
       2810.1939     0.027460270
       2810.9996  -0.00024425407
       2811.8054     0.025858620
       2812.6111    -0.023753561
       2813.4169     0.064929763
       2814.2226   -0.0087824343
       2815.0284     0.031194092
       2815.8341    0.0036684193
       2816.6399     0.029511055
       2817.4456    0.0038172987
       2818.2514     0.051402706
       2819.0571     0.054621259
       2819.8628     0.018504839
       2820.6686    -0.022750693
       2821.4743    -0.016108404
       2822.2801     0.026160013
       2823.0858     0.060752678
       2823.8916     0.037065996
       2824.6973     0.044139958
       2825.5031    0.0050583916
       2826.3088     0.048599862
       2827.1145     0.020511928
       2827.9203     0.071125959
       2828.7260     0.017587435
       2829.5318     0.051062081
       2830.3375     0.081447908
       2831.1433    -0.011253301
       2831.9490   -0.0067214742
       2832.7548     0.045020811
       2833.5605    -0.010031337
       2834.3663    0.0044499429
       2835.1720     0.031027125
       2835.9777     0.053095230
       2836.7835     0.067227674
       2837.5892     0.022663875
       2838.3950     0.026549017
       2839.2007     0.060274498
       2840.0065     0.072942568
       2840.8122     0.021156065
       2841.6180   -0.0046643348
       2842.4237     0.056566859
       2843.2294     0.041565318
       2844.0352     0.025955044
       2844.8409     0.033968804
       2845.6467     0.066170297
       2846.4524     0.024695157
       2847.2582     0.035178030
       2848.0639     0.019242605
       2848.8697     0.059733509
       2849.6754     0.069248029
       2850.4811     0.018942166
       2851.2869     0.023156237
       2852.0926   -0.0054503096
       2852.8984     0.017218551
       2853.7041     0.032592925
       2854.5099    -0.041362487
       2855.3156     0.026387960
       2856.1214   0.00039375436
       2856.9271   -0.0016465833
       2857.7329     0.075898514
       2858.5386     0.029029584
       2859.3443     0.023206217
       2860.1501     0.019865994
       2860.9558     0.019410644
       2861.7616     0.029718239
       2862.5673     0.032430426
       2863.3731     0.034067603
       2864.1788     0.050329595
       2864.9846     0.028969405
       2865.7903     0.016448740
       2866.5960      0.10827185
       2867.4018     0.022271452
       2868.2075     0.051305966
       2869.0133     0.033824255
       2869.8190     0.040240186
       2870.6248     0.044312343
       2871.4305     0.042495625
       2872.2363     0.027706151
       2873.0420     0.032355303
       2873.8477     0.026686139
       2874.6535     0.031947360
       2875.4592     0.010900521
       2876.2650     0.019151369
       2877.0707  -8.4089419e-05
       2877.8765     0.024723045
       2878.6822     0.034104277
       2879.4880     0.072545390
       2880.2937     0.037148622
       2881.0995     0.035793737
       2881.9052     0.021871521
       2882.7109    0.0012979862
       2883.5167     0.034601480
       2884.3224     0.031406585
       2885.1282     0.012098093
       2885.9339   7.3982011e-05
       2886.7397     0.057781147
       2887.5454     0.060805539
       2888.3512     0.049502658
       2889.1569    -0.020490784
       2889.9626     0.052126740
       2890.7684     0.012733640
       2891.5741     0.036927512
       2892.3799     0.023594172
       2893.1856     0.025016831
       2893.9914    0.0058838652
       2894.7971     0.027083263
       2895.6029     0.049131918
       2896.4086     0.030592382
       2897.2143     0.057986158
       2898.0201     0.055695272
       2898.8258    0.0085083867
       2899.6316     0.011172008
       2900.4373     0.029157550
       2901.2431    0.0063081379
       2902.0488     0.065556872
       2902.8546     0.042025953
       2903.6603   -0.0042713575
       2904.4661   -0.0035565278
       2905.2718     0.024781050
       2906.0775     0.038097051
       2906.8833     0.020271646
       2907.6890    -0.019803111
       2908.4948   -0.0068568113
       2909.3005   0.00031855895
       2910.1063    0.0013025873
       2910.9120   -0.0027284107
       2911.7178     0.019299080
       2912.5235    0.0080490300
       2913.3292     0.042295343
       2914.1350     0.066201087
       2914.9407     0.076290662
       2915.7465    0.0016415822
       2916.5522     0.051226075
       2917.3580    0.0077671678
       2918.1637     0.086486254
       2918.9695     0.033670227
       2919.7752     0.022330218
       2920.5810     0.028779280
       2921.3867     0.040343920
       2922.1924     0.017350350
       2922.9982     0.038155199
       2923.8039     0.051131304
       2924.6097     0.033400732
       2925.4154    0.0068291765
       2926.2212     0.018469635
       2927.0269     0.052950449
       2927.8327     0.022658398
       2928.6384     0.019782678
       2929.4441     0.049703989
       2930.2499     0.048987228
       2931.0556     0.044226078
       2931.8614     0.023505118
       2932.6671     0.016712157
       2933.4729     0.012779343
       2934.2786     0.021870038
       2935.0844     0.050212745
       2935.8901    -0.010252335
       2936.6958     0.051273372
       2937.5016    0.0073325557
       2938.3073    -0.011292057
       2939.1131     0.064814431
       2939.9188     0.039502898
       2940.7246     0.049512997
       2941.5303     0.071266507
       2942.3361     0.019899219
       2943.1418    0.0038389984
       2943.9476     0.011878335
       2944.7533     0.025118451
       2945.5590     0.018700421
       2946.3648     0.025488843
       2947.1705     0.024902080
       2947.9763    0.0080677214
       2948.7820     0.028522525
       2949.5878     0.031171499
       2950.3935     0.031005793
       2951.1993     0.064011794
       2952.0050     0.057487024
       2952.8107    0.0011631518
       2953.6165     0.032174576
       2954.4222     0.042772613
       2955.2280    0.0042962728
       2956.0337  -0.00057750942
       2956.8395     0.075659387
       2957.6452     0.024435868
       2958.4510     0.044829587
       2959.2567      0.10532144
       2960.0624     0.039316839
       2960.8682     0.042963876
       2961.6739     0.035602890
       2962.4797     0.098278686
       2963.2854     0.033255828
       2964.0912     0.075750008
       2964.8969     0.046342396
       2965.7027     0.086216033
       2966.5084     0.036468350
       2967.3142  -0.00060195886
       2968.1199     0.031028375
       2968.9256     0.044402255
       2969.7314     0.019943466
       2970.5371    -0.022861060
       2971.3429    0.0052697751
       2972.1486     0.069361114
       2972.9544     0.065956970
       2973.7601     0.025622491
       2974.5659    -0.012052666
       2975.3716     0.040766109
       2976.1773     0.035761841
       2976.9831     0.035776508
       2977.7888     0.069125124
       2978.5946     0.045417122
       2979.4003   -0.0045887332
       2980.2061     0.086097763
       2981.0118     0.087663614
       2981.8176     0.065777343
       2982.6233     0.044444694
       2983.4291     0.032909557
       2984.2348     0.077534514
       2985.0405     0.041489466
       2985.8463    -0.013643013
       2986.6520     0.057655121
       2987.4578     0.018070954
       2988.2635     0.029917666
       2989.0693     0.047707943
       2989.8750     0.058684794
       2990.6808   -0.0084655994
       2991.4865     0.069869476
       2992.2922    -0.015926425
       2993.0980     0.067027137
       2993.9037     0.023847654
       2994.7095     0.018072295
       2995.5152     0.042091960
       2996.3210     0.042368825
       2997.1267     0.063933284
       2997.9325     0.038488777
       2998.7382     0.056315324
       2999.5439     0.045428537
       3000.3497     0.092610431
       3001.1554   -0.0067997787
       3001.9612     0.050836955
       3002.7669     0.045125545
       3003.5727    0.0017096366
       3004.3784   -0.0038890732
       3005.1842     0.024380358
       3005.9899     0.058232146
       3006.7957     0.093492854
       3007.6014     0.056475313
       3008.4071     0.042583786
       3009.2129     0.054357614
       3010.0186     0.024600876
       3010.8244     0.080506486
       3011.6301     0.045889022
       3012.4359     0.030236604
       3013.2416     0.076802863
       3014.0474    0.0047551219
       3014.8531     0.018713202
       3015.6588    0.0073007352
       3016.4646     0.014710353
       3017.2703     0.030682364
       3018.0761     0.013062534
       3018.8818   -0.0053659511
       3019.6876     0.040002231
       3020.4933     0.039090228
       3021.2991     0.091062865
       3022.1048     0.011124623
       3022.9105   0.00087598769
       3023.7163     0.042714118
       3024.5220    0.0054249524
       3025.3278     0.080901303
       3026.1335     0.017118617
       3026.9393    0.0028110633
       3027.7450     0.041201013
       3028.5508     0.030658439
       3029.3565     0.056512508
       3030.1623     0.018371209
       3030.9680     0.053227116
       3031.7737     0.073213766
       3032.5795     0.017265821
       3033.3852     0.053260877
       3034.1910     0.012605179
       3034.9967     0.022472668
       3035.8025     0.028137677
       3036.6082    0.0078782103
       3037.4140     0.048671876
       3038.2197     0.067981497
       3039.0254     0.044584217
       3039.8312     0.028371760
       3040.6369     0.025525811
       3041.4427     0.013864212
       3042.2484     0.031902476
       3043.0542     0.037325436
       3043.8599     0.027394880
       3044.6657     0.029160417
       3045.4714     0.048034265
       3046.2771     0.063597034
       3047.0829     0.033597634
       3047.8886     0.017127229
       3048.6944     0.029850039
       3049.5001     0.013375316
       3050.3059     0.059973052
       3051.1116     0.078295219
       3051.9174   -0.0043068510
       3052.7231     0.031849939
       3053.5289     0.044964514
       3054.3346     0.056503125
       3055.1403     0.030765934
       3055.9461     0.036586388
       3056.7518    0.0070298551
       3057.5576     0.027292256
       3058.3633     0.061561301
       3059.1691     0.046811796
       3059.9748     0.013020953
       3060.7806     0.059393690
       3061.5863     0.048029784
       3062.3920    0.0047289389
       3063.1978     0.032466951
       3064.0035    0.0025077433
       3064.8093     0.034786084
       3065.6150    0.0085098909
       3066.4208     0.045503982
       3067.2265     0.047986632
       3068.0323     0.037915298
       3068.8380     0.049742834
       3069.6438     0.036670455
       3070.4495   -0.0065534572
       3071.2552    0.0080787070
       3072.0610     0.019584401
       3072.8667     0.065315323
       3073.6725     0.090566247
       3074.4782     0.091282143
       3075.2840     0.045256462
       3076.0897     0.060402264
       3076.8955     0.048090400
       3077.7012     0.065719772
       3078.5069     0.061156265
       3079.3127     0.010387059
       3080.1184      0.11374475
       3080.9242     0.066052315
       3081.7299      0.10513903
       3082.5357     0.071046103
       3083.3414     0.014223366
       3084.1472     0.076624433
       3084.9529     0.050586079
       3085.7586     0.043823356
       3086.5644     0.038299132
       3087.3701      0.13799722
       3088.1759     0.045430135
       3088.9816     0.067631816
       3089.7874     0.025080627
       3090.5931     0.070482203
       3091.3989     0.057278165
       3092.2046     0.015790707
       3093.0104     0.038200079
       3093.8161     0.090839937
       3094.6218     0.059627952
       3095.4276     0.013195227
       3096.2333     0.044715858
       3097.0391     0.048261279
       3097.8448     0.083810601
       3098.6506    0.0043290785
       3099.4563    -0.014276383
       3100.2621     0.063438559
       3101.0678     0.018101641
       3101.8735     0.024049768
       3102.6793     0.081961337
       3103.4850     0.097714545
       3104.2908     0.054190618
       3105.0965     0.038874917
       3105.9023     0.063955222
       3106.7080   -0.0071451699
       3107.5138     0.068195223
       3108.3195    0.0029417576
       3109.1252     0.096757035
       3109.9310   0.00013205087
       3110.7367     0.060449356
       3111.5425     0.034343312
       3112.3482     0.064212627
       3113.1540     0.045054457
       3113.9597   -0.0095320969
       3114.7655     0.058849372
       3115.5712     0.044731131
       3116.3770     0.023267239
       3117.1827     0.058796292
       3117.9884     0.094460854
       3118.7942    -0.013966550
       3119.5999     0.065279742
       3120.4057   -0.0048758075
       3121.2114     0.052001485
       3122.0172     0.020235037
       3122.8229     0.052566991
       3123.6287     0.020152685
       3124.4344     0.091857253
       3125.2401     0.057941197
       3126.0459     0.045783786
       3126.8516     0.059316610
       3127.6574     0.051271664
       3128.4631     0.031491263
       3129.2689    -0.022439355
       3130.0746     0.065512110
       3130.8804     0.065718958
       3131.6861     0.067291604
       3132.4918    0.0049805509
       3133.2976    0.0086278178
       3134.1033     0.033556676
       3134.9091     0.021617876
       3135.7148     0.050694394
       3136.5206      0.10313988
       3137.3263     0.010493287
       3138.1321   -0.0086987756
       3138.9378     0.053206285
       3139.7436     0.053135082
       3140.5493     0.061692800
       3141.3550    0.0066263613
       3142.1608     0.039695069
       3142.9665     0.071617402
       3143.7723     0.058646524
       3144.5780     0.019573081
       3145.3838     0.067587129
       3146.1895     0.040679347
       3146.9953     0.035283031
       3147.8010     0.049891115
       3148.6067     0.076019846
       3149.4125     0.027709001
       3150.2182     0.058805207
       3151.0240    0.0055817513
       3151.8297     0.017938842
       3152.6355     0.042763172
       3153.4412     0.033341973
       3154.2470     0.025749915
       3155.0527     0.010909240
       3155.8585     0.016326730
       3156.6642   -0.0090366655
       3157.4699     0.029602262
       3158.2757     0.073087237
       3159.0814     0.056029164
       3159.8872     0.032553957
       3160.6929     0.092704965
       3161.4987     0.053045223
       3162.3044     0.058863820
       3163.1102    -0.021333061
       3163.9159     0.096433013
       3164.7216     0.082791182
       3165.5274    0.0018498125
       3166.3331     0.052529370
       3167.1389     0.055814069
       3167.9446     0.014463388
       3168.7504     0.069402573
       3169.5561     0.039813707
       3170.3619   -0.0038715805
       3171.1676     0.081210834
       3171.9733     0.051257325
       3172.7791     0.056827581
       3173.5848     0.016912920
       3174.3906      0.12350136
       3175.1963     0.085847300
       3176.0021   -0.0033213525
       3176.8078     0.016955018
       3177.6136     0.058859271
       3178.4193     0.027126605
       3179.2251   -0.0021335463
       3180.0308    -0.032098243
       3180.8365    -0.014991827
       3181.6423     0.068235909
       3182.4480     0.045054919
       3183.2538     0.031561087
       3184.0595     0.051181224
       3184.8653     0.053257977
       3185.6710     0.021931804
       3186.4768     0.046800349
       3187.2825     0.089684642
       3188.0882     0.078910522
       3188.8940     0.050473764
       3189.6997  -0.00080524465
       3190.5055     0.077568529
       3191.3112     0.092186434
       3192.1170     0.018842371
       3192.9227     0.066654739
       3193.7285     0.012824644
       3194.5342     0.040819480
       3195.3399     0.047346226
       3196.1457     0.041915747
       3196.9514     0.045320757
       3197.7572     0.053078151
       3198.5629     0.044674320
       3199.3687     0.041157825
       3200.1744     0.045577325
       3200.9802     0.077481795
       3201.7859     0.052143923
       3202.5917     0.059563477
       3203.3974     0.024067713
       3204.2031     0.019611104
       3205.0089     0.037292937
       3205.8146     0.021944724
       3206.6204     0.015132603
       3207.4261     0.045012758
       3208.2319     0.068135452
       3209.0376     0.034628877
       3209.8434     0.041056243
       3210.6491     0.036224646
       3211.4548     0.066416276
       3212.2606     0.072659779
       3213.0663     0.092950176
       3213.8721     0.022887603
       3214.6778     0.057836388
       3215.4836     0.046663633
       3216.2893      0.10667241
       3217.0951     0.018982428
       3217.9008   -0.0046540098
       3218.7065     0.018431488
       3219.5123     0.012358906
       3220.3180   0.00062457892
       3221.1238   -0.0011017712
       3221.9295     0.065877215
       3222.7353    -0.018490238
       3223.5410     0.053787169
       3224.3468     0.021630609
       3225.1525     0.028084222
       3225.9583     0.043029670
       3226.7640     0.038983438
       3227.5697     0.061306321
       3228.3755     0.062016160
       3229.1812     0.070563919
       3229.9870     0.029903233
       3230.7927     0.065982396
       3231.5985     0.093197382
       3232.4042     0.024463349
       3233.2100     0.043917712
       3234.0157     0.069891450
       3234.8214     0.043165037
       3235.6272     0.077880447
       3236.4329     0.037654718
       3237.2387     0.073998163
       3238.0444     0.049601716
       3238.8502     0.043746561
       3239.6559     0.037905735
       3240.4617   -0.0026809515
       3241.2674     0.025878697
       3242.0732      0.10371239
       3242.8789    0.0033557374
       3243.6846     0.017760821
       3244.4904     0.069868329
       3245.2961     0.011244985
       3246.1019     0.098630321
       3246.9076   -0.0013564484
       3247.7134     0.056085681
       3248.5191     0.037014769
       3249.3249      0.10109274
       3250.1306     0.041464230
       3250.9363    -0.016915601
       3251.7421     0.029801528
       3252.5478     0.045806688
       3253.3536     0.045441849
       3254.1593     0.080667761
       3254.9651     0.064820896
       3255.7708     0.038985146
       3256.5766     0.024995995
       3257.3823     0.022305938
       3258.1880     0.052765205
       3258.9938     0.010585723
       3259.7995     0.020361951
       3260.6053     0.070494957
       3261.4110     0.096916909
       3262.2168     0.034555639
       3263.0225     0.016909873
       3263.8283     0.057703850
       3264.6340     0.058191647
       3265.4398     0.032579905
       3266.2455     0.042245255
       3267.0512     0.064985571
       3267.8570    -0.022169658
       3268.6627    0.0057999707
       3269.4685     0.069757990
       3270.2742     0.096099662
       3271.0800     0.082311103
       3271.8857     0.065318403
       3272.6915     0.013652734
       3273.4972     0.085058678
       3274.3029     0.052411966
       3275.1087     0.010528616
       3275.9144     0.054921610
       3276.7202      0.10311477
       3277.5259     0.033845687
       3278.3317     0.061182605
       3279.1374     0.048625008
       3279.9432    -0.013313493
       3280.7489     0.062576057
       3281.5546     0.042204807
       3282.3604     0.055508601
       3283.1661     0.056744840
       3283.9719     0.075199372
       3284.7776     0.039347252
       3285.5834     0.049491910
       3286.3891     0.082780837
       3287.1949     0.036468583
       3288.0006     0.087549035
       3288.8064     0.059502846
       3289.6121     0.049634935
       3290.4178     0.083265543
       3291.2236    -0.020817952
       3292.0293     0.077468267
       3292.8351     0.068611847
       3293.6408     0.061689060
       3294.4466      0.15659816
       3295.2523      0.12183292
       3296.0581     0.056600827
       3296.8638    0.0066821150
       3297.6695     0.022849309
       3298.4753     0.033127662
       3299.2810     0.077562891
       3300.0868     0.046856432
       3300.8925     0.050510083
       3301.6983     0.072174825
       3302.5040    -0.013082252
       3303.3098     0.036992419
       3304.1155     0.054364006
       3304.9212      0.11489160
       3305.7270     0.036423079
       3306.5327     0.066672663
       3307.3385     0.057443907
       3308.1442     0.020025679
       3308.9500     0.045076630
       3309.7557    -0.014228169
       3310.5615     0.050775584
       3311.3672     0.037744838
       3312.1730     0.045901983
       3312.9787     0.039711985
       3313.7844     0.043058548
       3314.5902      0.12222626
       3315.3959     0.022852925
       3316.2017     0.029759315
       3317.0074     0.082681175
       3317.8132     0.083136912
       3318.6189     0.093381343
       3319.4247    -0.010621593
       3320.2304     0.081957495
       3321.0361   0.00066348416
       3321.8419     0.038006666
       3322.6476     0.036947455
       3323.4534     0.055961343
       3324.2591     0.083739575
       3325.0649     0.063213586
       3325.8706     0.065355639
       3326.6764     0.018140940
       3327.4821     0.053790965
       3328.2879     0.030706746
       3329.0936     0.017412965
       3329.8993    -0.046322161
       3330.7051     0.016233281
       3331.5108     0.031355851
       3332.3166     0.062131192
       3333.1223   -0.0027085664
       3333.9281     0.052565038
       3334.7338      0.10674779
       3335.5396     0.037739734
       3336.3453     0.063473978
       3337.1510     0.011593988
       3337.9568    0.0026573249
       3338.7625     0.069448091
       3339.5683     0.018190334
       3340.3740     0.060774071
       3341.1798     0.017829576
       3341.9855     0.035218153
       3342.7913     0.015252608
       3343.5970     0.019562486
       3344.4027     0.037164929
       3345.2085     0.067486981
       3346.0142     0.010988631
       3346.8200     0.024637739
       3347.6257     0.053668210
       3348.4315     0.070648911
       3349.2372      0.12180267
       3350.0430     0.090479068
       3350.8487      0.11696383
       3351.6545     0.045116935
       3352.4602     0.083479405
       3353.2659     0.045412664
       3354.0717     0.032039686
       3354.8774     0.056753239
       3355.6832     0.020418058
       3356.4889     0.054962532
       3357.2947     0.090473440
       3358.1004     0.021278596
       3358.9062     0.047637537
       3359.7119     0.020502781
       3360.5176     0.069390993
       3361.3234     0.035248222
       3362.1291   0.00051773999
       3362.9349     0.058136698
       3363.7406     0.068541151
       3364.5464     0.060580410
       3365.3521     0.085155983
       3366.1579     0.055570936
       3366.9636   -0.0012774210
       3367.7693      0.11010986
       3368.5751   -0.0072555345
       3369.3808     0.019283461
       3370.1866     0.057081635
       3370.9923     0.060861118
       3371.7981      0.11860567
       3372.6038     0.046340541
       3373.4096     0.066178760
       3374.2153     0.053288453
       3375.0211    0.0022125261
       3375.8268     0.084430421
       3376.6325     0.077823506
       3377.4383     0.047133885
       3378.2440    0.0026995655
       3379.0498     0.084557576
       3379.8555     0.089332748
       3380.6613     0.029632090
       3381.4670     0.078866079
       3382.2728    -0.016355745
       3383.0785    0.0037627667
       3383.8842     0.050938541
       3384.6900     0.036287081
       3385.4957     0.011803173
       3386.3015     0.099609205
       3387.1072     0.073687661
       3387.9130     0.064430409
       3388.7187     0.040968198
       3389.5245      0.12172686
       3390.3302     0.088043404
       3391.1360     0.054566805
       3391.9417    0.0057484776
       3392.7474      0.10056324
       3393.5532    0.0054032366
       3394.3589     0.034220276
       3395.1647     0.062956845
       3395.9704     0.054726838
       3396.7762     0.056324553
       3397.5819     0.062767501
       3398.3877     0.016723119
       3399.1934     0.028517053
       3399.9991     0.075756561
       3400.8049     0.070271397
       3401.6106     0.056230572
       3402.4164     0.024780901
       3403.2221     0.058993797
       3404.0279     0.021180021
       3404.8336     0.090160962
       3405.6394     0.044048886
       3406.4451     0.068246732
       3407.2508     0.027988692
       3408.0566     0.026391555
       3408.8623     0.061712386
       3409.6681     0.041063577
       3410.4738     0.012119717
       3411.2796     0.089716630
       3412.0853      0.12409664
       3412.8911     0.030656388
       3413.6968     0.066248720
       3414.5026     0.025636304
       3415.3083     0.042402751
       3416.1140     0.011291472
       3416.9198     0.084113381
       3417.7255     0.073229742
       3418.5313     0.035595238
       3419.3370     0.033767455
       3420.1428     0.045899179
       3420.9485     0.092035900
       3421.7543     0.097224126
       3422.5600     0.058581793
       3423.3657     0.062315099
       3424.1715      0.10081627
       3424.9772      0.12140349
       3425.7830     0.030151239
       3426.5887     0.036953724
       3427.3945     0.050520990
       3428.2002     0.094218065
       3429.0060     0.010666311
       3429.8117     0.072781429
       3430.6174     0.051165973
       3431.4232      0.10104167
       3432.2289     0.052799102
       3433.0347     0.027631113
       3433.8404     0.027494395
       3434.6462   -0.0079427575
       3435.4519     0.070071509
       3436.2577     0.055325687
       3437.0634     0.055907870
       3437.8692   -0.0022532815
       3438.6749     0.047607289
       3439.4806   -0.0067816993
       3440.2864     0.029288869
       3441.0921     0.049584479
       3441.8979     0.050367435
       3442.7036     0.010008104
       3443.5094     0.066058606
       3444.3151     0.083369534
       3445.1209     0.033309030
       3445.9266     0.073320249
       3446.7323     0.043434700
       3447.5381     0.033672747
       3448.3438     0.052272022
       3449.1496     0.038683005
       3449.9553     0.083842382
       3450.7611     0.044967408
       3451.5668     0.031333614
       3452.3726     0.025173746
       3453.1783     0.092572447
       3453.9840     0.038070057
       3454.7898     0.085160536
       3455.5955      0.11125295
       3456.4013     0.032254035
       3457.2070     0.020636853
       3458.0128     0.034250673
       3458.8185     0.061554362
       3459.6243     0.063812499
       3460.4300     0.087662419
       3461.2358     0.020404813
       3462.0415     0.093838812
       3462.8472     0.058303793
       3463.6530     0.022566930
       3464.4587    -0.011500031
       3465.2645    0.0032342826
       3466.0702     0.016429079
       3466.8760      0.12359985
       3467.6817     0.090358735
       3468.4875     0.055345709
       3469.2932     0.032283136
       3470.0989     0.087288565
       3470.9047     0.034135634
       3471.7104     0.014527460
       3472.5162    -0.013679132
       3473.3219   -0.0097976873
       3474.1277     0.036980468
       3474.9334     0.083436367
       3475.7392     0.020482592
       3476.5449     0.081968810
       3477.3507     0.076168019
       3478.1564     0.071472555
       3478.9621     0.019430837
       3479.7679   -0.0034963388
       3480.5736     0.053533218
       3481.3794     0.045354008
       3482.1851     0.061854940
       3482.9909     0.033886586
       3483.7966     0.066580140
       3484.6024     0.043316836
       3485.4081     0.080218180
       3486.2138      0.10018830
       3487.0196     0.033111382
       3487.8253     0.026666497
       3488.6311     0.069908264
       3489.4368     0.074053182
       3490.2426     0.067531901
       3491.0483     0.061189435
       3491.8541     0.075582548
       3492.6598     0.041469342
       3493.4655     0.090352730
       3494.2713      0.12104887
       3495.0770     0.052973133
       3495.8828     0.058870629
       3496.6885      0.10753420
       3497.4943     0.053244738
       3498.3000     0.089785856
       3499.1058     0.067421864
       3499.9115     0.036553182
       3500.7173     0.076796443
       3501.5230     0.052339579
       3502.3287     0.065668898
       3503.1345      0.13362272
       3503.9402     0.079131281
       3504.7460     0.047679281
       3505.5517      0.10787798
       3506.3575      0.10899446
       3507.1632     0.056126801
       3507.9690     0.076093974
       3508.7747     0.047761922
       3509.5804     0.027107103
       3510.3862      0.10183490
       3511.1919      0.10919412
       3511.9977     0.081354947
       3512.8034     0.035881724
       3513.6092      0.10304622
       3514.4149     0.070792912
       3515.2207     0.044540583
       3516.0264     0.074362423
       3516.8321     0.078008989
       3517.6379     0.023405736
       3518.4436     0.042679092
       3519.2494     0.059490709
       3520.0551     0.068350194
       3520.8609     0.041622275
       3521.6666     0.090828150
       3522.4724     0.077797776
       3523.2781     0.057580135
       3524.0839     0.071918133
       3524.8896     0.074450996
       3525.6953     0.022902621
       3526.5011     0.023330394
       3527.3068      0.10862004
       3528.1126     0.054767686
       3528.9183     0.039407715
       3529.7241     0.056203651
       3530.5298     0.035586653
       3531.3356     0.038622883
       3532.1413     0.050492135
       3532.9470     0.048970353
       3533.7528     0.059881184
       3534.5585      0.11453269
       3535.3643     0.062325386
       3536.1700     0.048709565
       3536.9758    0.0047169047
       3537.7815     0.089670548
       3538.5873     0.052153648
       3539.3930     0.083383838
       3540.1987      0.13205958
       3541.0045     0.036100775
       3541.8102     0.052451445
       3542.6160      0.12885724
       3543.4217     0.051498492
       3544.2275     0.033081389
       3545.0332     0.016235857
       3545.8390     0.013682033
       3546.6447     0.020408889
       3547.4505     0.082653347
       3548.2562      0.11646426
       3549.0619     0.039170822
       3549.8677     0.073584509
       3550.6734      0.10166699
       3551.4792     0.079585165
       3552.2849     0.036121630
       3553.0907     0.077169867
       3553.8964     0.080677434
       3554.7022     0.054749962
       3555.5079     0.036843367
       3556.3136     0.060321124
       3557.1194     0.088578122
       3557.9251     0.070326067
       3558.7309     0.041352372
       3559.5366     0.012630653
       3560.3424     0.063180640
       3561.1481     0.053399172
       3561.9539     0.039300821
       3562.7596     0.026679446
       3563.5654     0.075882350
       3564.3711     0.087661975
       3565.1768     0.048628687
       3565.9826     0.016253985
       3566.7883     0.053364483
       3567.5941     0.050105222
       3568.3998     0.038448289
       3569.2056     0.011171122
       3570.0113     0.063664590
       3570.8171     0.039723213
       3571.6228     0.044545133
       3572.4285     0.048226199
       3573.2343     0.051360207
       3574.0400     0.030255691
       3574.8458     0.055921732
       3575.6515     0.041684127
       3576.4573     0.063665129
       3577.2630     0.053574355
       3578.0688     0.089430814
       3578.8745     0.018511224
       3579.6802     0.014998368
       3580.4860   -0.0095133445
       3581.2917     0.062569338
       3582.0975     0.021224252
       3582.9032     0.057689667
       3583.7090     0.047222149
       3584.5147     0.017165231
       3585.3205     0.085923905
       3586.1262     0.051552732
       3586.9320     0.072993476
       3587.7377     0.091337246
       3588.5434     0.066903825
       3589.3492     0.063557982
       3590.1549     0.056677015
       3590.9607     0.067688782
       3591.7664     0.049563242
       3592.5722     0.036483445
       3593.3779     0.046876505
       3594.1837     0.095350426
       3594.9894     0.061822179
       3595.7951     0.067457357
       3596.6009      0.10610055
       3597.4066   -0.0024970263
       3598.2124     0.027655880
       3599.0181     0.042682644
       3599.8239     0.047961255
       3600.6296     0.067317751
       3601.4354     0.063755831
       3602.2411   -0.0085158862
       3603.0468     0.068814205
       3603.8526     0.038004025
       3604.6583     0.098279250
       3605.4641     0.036951260
       3606.2698      0.12179309
       3607.0756     0.045956054
       3607.8813     0.081988735
       3608.6871     0.021033989
       3609.4928     0.067802280
       3610.2986     0.042202987
       3611.1043     0.036841261
       3611.9100     0.075403516
       3612.7158     0.051550255
       3613.5215     0.064606062
       3614.3273     0.041940551
       3615.1330  -0.00022060363
       3615.9388     0.013724353
       3616.7445     0.080580231
       3617.5503     0.050134997
       3618.3560     0.019767568
       3619.1617    -0.010923451
       3619.9675     0.073719252
       3620.7732     0.050605462
       3621.5790     0.088055913
       3622.3847     0.032296283
       3623.1905   -0.0013807392
       3623.9962     0.032104855
       3624.8020     0.036281972
       3625.6077     0.054964007
       3626.4134      0.13065551
       3627.2192     0.057778880
       3628.0249      0.10611721
       3628.8307     0.089781923
       3629.6364      0.10410326
       3630.4422     0.039136418
       3631.2479     0.083602276
       3632.0537     0.058058512
       3632.8594     0.060278484
       3633.6652    0.0098188238
       3634.4709     0.051364918
       3635.2766     0.054975944
       3636.0824     0.049665121
       3636.8881     0.054768143
       3637.6939     0.069638080
       3638.4996    0.0045308093
       3639.3054     0.037969349
       3640.1111     0.078351776
       3640.9169     0.072235865
       3641.7226   0.00062315132
       3642.5283     0.083247417
       3643.3341     0.011836849
       3644.1398     0.086822545
       3644.9456      0.12350344
       3645.7513     0.075931087
       3646.5571     0.027020281
       3647.3628     0.068428998
       3648.1686     0.072073141
       3648.9743     0.069771776
       3649.7801     0.062755798
       3650.5858     0.080984918
       3651.3915     0.079639453
       3652.1973     0.091440282
       3653.0030     0.085852033
       3653.8088     0.055726015
       3654.6145     0.088870197
       3655.4203     0.070498017
       3656.2260     0.098664392
       3657.0318     0.055418679
       3657.8375     0.044424503
       3658.6432     0.041781866
       3659.4490     0.015336569
       3660.2547     0.060765764
       3661.0605     0.054536763
       3661.8662      0.12078839
       3662.6720     0.073585545
       3663.4777     0.097018540
       3664.2835     0.036225688
       3665.0892     0.066578303
       3665.8949     0.058143098
       3666.7007     0.082890054
       3667.5064     0.038725314
       3668.3122      0.11783981
       3669.1179     0.040188580
       3669.9237      0.11095957
       3670.7294     0.021099578
       3671.5352     0.016017677
       3672.3409     0.094379431
       3673.1467     0.066936286
       3673.9524     0.048590729
       3674.7581     0.060085519
       3675.5639     0.060998248
       3676.3696     0.048400399
       3677.1754     0.074498033
       3677.9811     0.096261048
       3678.7869     0.036733963
       3679.5926     0.092111011
       3680.3984     0.047459135
       3681.2041     0.063753729
       3682.0098     0.057232682
       3682.8156     0.068451357
       3683.6213     0.065643840
       3684.4271      0.15335643
       3685.2328     0.049757491
       3686.0386      0.14073078
       3686.8443    0.0023042452
       3687.6501     0.085058765
       3688.4558      0.11449860
       3689.2615     0.028830802
       3690.0673     0.062520668
       3690.8730     0.077657554
       3691.6788     0.074768206
       3692.4845     0.095245971
       3693.2903      0.11681556
       3694.0960   -0.0052391410
       3694.9018     0.047243859
       3695.7075      0.10504415
       3696.5133     0.059858900
       3697.3190     0.054287203
       3698.1247      0.11033214
       3698.9305     0.035700618
       3699.7362     0.087164410
       3700.5420      0.10742524
       3701.3477     0.038854136
       3702.1535      0.15021030
       3702.9592     0.030176419
       3703.7650     0.047759480
       3704.5707     0.068459992
       3705.3764     0.084188445
       3706.1822      0.11110508
       3706.9879     0.093997178
       3707.7937      0.13050559
       3708.5994     0.034548834
       3709.4052     0.023362383
       3710.2109     0.022548762
       3711.0167     0.073826809
       3711.8224     0.028500531
       3712.6281     0.094925923
       3713.4339     0.051538749
       3714.2396     0.064892732
       3715.0454     0.082386657
       3715.8511     0.088751993
       3716.6569     0.064024837
       3717.4626     0.033972521
       3718.2684     0.059566535
       3719.0741     0.062925116
       3719.8799     0.049221644
       3720.6856     0.070111091
       3721.4913     0.054248011
       3722.2971     0.073558078
       3723.1028      0.13319803
       3723.9086      0.17070064
       3724.7143      0.17680260
       3725.5201      0.30941571
       3726.3258      0.25128531
       3727.1316      0.22807572
       3727.9373      0.21153091
       3728.7430      0.23414511
       3729.5488      0.15622463
       3730.3545     0.086494925
       3731.1603     0.042472251
       3731.9660     0.067200228
       3732.7718   -0.0078907539
       3733.5775     0.065047139
       3734.3833     0.097674282
       3735.1890     0.080984262
       3735.9948     0.068180439
       3736.8005      0.10322659
       3737.6062     0.050498147
       3738.4120     0.056833568
       3739.2177     0.089960225
       3740.0235     0.094494310
       3740.8292      0.13430774
       3741.6350     0.093672850
       3742.4407      0.11169453
       3743.2465     0.095718110
       3744.0522     0.053687412
       3744.8579     0.072923700
       3745.6637     0.077437257
       3746.4694     0.067198473
       3747.2752     0.091709406
       3748.0809    -0.016825013
       3748.8867     0.069605275
       3749.6924      0.10869191
       3750.4982     0.088324719
       3751.3039     0.062483473
       3752.1096     0.044153484
       3752.9154     0.089883420
       3753.7211      0.11240789
       3754.5269     0.079339712
       3755.3326     0.032013592
       3756.1384      0.10350279
       3756.9441     0.041055128
       3757.7499      0.10159739
       3758.5556     0.099483418
       3759.3614      0.11007015
       3760.1671     0.057885024
       3760.9728     0.090774078
       3761.7786    0.0011584417
       3762.5843     0.037685426
       3763.3901     0.091124140
       3764.1958      0.10943246
       3765.0016     0.090476657
       3765.8073     0.063586788
       3766.6131     0.072697446
       3767.4188    -0.016087129
       3768.2245     0.044720242
       3769.0303    0.0096259252
       3769.8360     0.098320289
       3770.6418     0.085870655
       3771.4475     0.015558942
       3772.2533     0.090264401
       3773.0590     0.088809744
       3773.8648     0.052584755
       3774.6705     0.087231743
       3775.4762      0.12742847
       3776.2820     0.069751412
       3777.0877     0.087114150
       3777.8935     0.056063782
       3778.6992     0.096678528
       3779.5050      0.10339041
       3780.3107      0.12103734
       3781.1165      0.13381941
       3781.9222     0.081899445
       3782.7280     0.098353570
       3783.5337     0.079225861
       3784.3394      0.16254096
       3785.1452     0.087888048
       3785.9509     0.060642046
       3786.7567     0.052730097
       3787.5624     0.042346365
       3788.3682      0.15139421
       3789.1739      0.11717703
       3789.9797      0.10029808
       3790.7854     0.048224947
       3791.5911     0.071354025
       3792.3969     0.013696398
       3793.2026     0.034426168
       3794.0084     0.019121503
       3794.8141     0.058275172
       3795.6199     0.048037255
       3796.4256     0.038873104
       3797.2314     0.029446993
       3798.0371     0.061243738
       3798.8429     0.076786256
       3799.6486    0.0081924407
       3800.4543     0.074730556
       3801.2601     0.064593002
       3802.0658     0.039506521
       3802.8716      0.12308632
       3803.6773     0.045802547
       3804.4831      0.15424729
       3805.2888      0.13709747
       3806.0946     0.084984387
       3806.9003      0.14061382
       3807.7060     0.035461662
       3808.5118     0.033883862
       3809.3175     0.070716301
       3810.1233     0.098089433
       3810.9290      0.13019002
       3811.7348      0.11525488
       3812.5405     0.089908460
       3813.3463      0.10288667
       3814.1520     0.021361469
       3814.9577    -0.022330048
       3815.7635     0.028670430
       3816.5692     0.063618929
       3817.3750      0.10104802
       3818.1807     0.059969367
       3818.9865     0.094202375
       3819.7922      0.10364768
       3820.5980      0.12388298
       3821.4037     0.078086087
       3822.2095     0.086386281
       3823.0152    0.0048777389
       3823.8209     0.041158218
       3824.6267    -0.021005360
       3825.4324     0.098725768
       3826.2382     0.024651576
       3827.0439      0.11439637
       3827.8497      0.13887980
       3828.6554      0.11318719
       3829.4612     0.038145280
       3830.2669     0.046395272
       3831.0726     0.076016700
       3831.8784     0.061677475
       3832.6841     0.075335033
       3833.4899     0.077666060
       3834.2956     0.055500275
       3835.1014      0.13132963
       3835.9071     0.071845266
       3836.7129     0.082854581
       3837.5186     0.047206869
       3838.3243     0.053517370
       3839.1301      0.10022213
       3839.9358     0.060511815
       3840.7416      0.16049279
       3841.5473     0.090343827
       3842.3531     0.090415230
       3843.1588     0.069944825
       3843.9646     0.079837218
       3844.7703     0.059996358
       3845.5761     0.082946396
       3846.3818     0.014562151
       3847.1875     0.095242741
       3847.9933      0.10037448
       3848.7990      0.12115899
       3849.6048     0.085180818
       3850.4105     0.092282131
       3851.2163      0.11210960
       3852.0220      0.10469284
       3852.8278     0.067627429
       3853.6335     0.025207948
       3854.4392     0.075322727
       3855.2450      0.10496266
       3856.0507   -0.0024773071
       3856.8565     0.072578372
       3857.6622      0.10829276
       3858.4680      0.12739043
       3859.2737      0.12286288
       3860.0795      0.10742953
       3860.8852      0.10852355
       3861.6909     0.077518775
       3862.4967     0.074824178
       3863.3024      0.11217873
       3864.1082      0.17531509
       3864.9139     0.021095077
       3865.7197      0.13972439
       3866.5254      0.10699887
       3867.3312     0.073733698
       3868.1369     0.041070236
       3868.9427      0.14781524
       3869.7484     0.054182068
       3870.5541     0.084999436
       3871.3599      0.17330013
       3872.1656      0.14537151
       3872.9714      0.10338273
       3873.7771     0.082110134
       3874.5829     0.011973279
       3875.3886      0.11068890
       3876.1944     0.032253512
       3877.0001     0.081605805
       3877.8058     0.089084624
       3878.6116     0.034755417
       3879.4173    -0.086205029
       3880.2231     0.077889697
       3881.0288     0.040249844
       3881.8346      0.10194782
       3882.6403     0.096888929
       3883.4461      0.10498465
       3884.2518     0.083192547
       3885.0576     0.039851185
       3885.8633      0.10856924
       3886.6690      0.11739628
       3887.4748    0.0097878421
       3888.2805     0.071714879
       3889.0863     0.087998558
       3889.8920     0.039784788
       3890.6978     0.068969887
       3891.5035      0.12088556
       3892.3093     0.076093655
       3893.1150      0.10506431
       3893.9207     0.026722092
       3894.7265     0.047547889
       3895.5322      0.11322601
       3896.3380     0.089820905
       3897.1437     0.089969080
       3897.9495     0.090945516
       3898.7552     0.091433575
       3899.5610     0.011523743
       3900.3667     0.056059324
       3901.1724     0.073002011
       3901.9782      0.16326791
       3902.7839      0.16606653
       3903.5897      0.13624884
       3904.3954      0.15192051
       3905.2012      0.11562621
       3906.0069     0.053770099
       3906.8127     0.061714874
       3907.6184      0.14233621
       3908.4242     0.072677577
       3909.2299     0.097096554
       3910.0356      0.11793001
       3910.8414      0.10852930
       3911.6471     0.096424454
       3912.4529     0.091167856
       3913.2586     0.094281676
       3914.0644      0.12538360
       3914.8701      0.15015512
       3915.6759      0.16541194
       3916.4816     0.092345238
       3917.2873     0.054484851
       3918.0931    0.0088419932
       3918.8988     0.065190892
       3919.7046     0.072802400
       3920.5103      0.17309479
       3921.3161      0.13556160
       3922.1218     0.097892673
       3922.9276      0.14152031
       3923.7333      0.12602141
       3924.5390     0.096395491
       3925.3448     0.037491533
       3926.1505     0.075752536
       3926.9563     0.079968718
       3927.7620     0.087665268
       3928.5678     0.035006420
       3929.3735     0.076569965
       3930.1793     0.095715905
       3930.9850     0.068210330
       3931.7908      0.13362699
       3932.5965      0.16227931
       3933.4022      0.11868549
       3934.2080     0.080956234
       3935.0137      0.15271432
       3935.8195      0.12741220
       3936.6252      0.12427464
       3937.4310      0.13090942
       3938.2367      0.13366307
       3939.0425      0.10328566
       3939.8482     0.083703292
       3940.6539      0.13733999
       3941.4597      0.12691569
       3942.2654      0.11076893
       3943.0712      0.11635160
       3943.8769     0.082709304
       3944.6827     0.016555145
       3945.4884     0.067840525
       3946.2942     0.051604350
       3947.0999     0.089775128
       3947.9056     0.064070209
       3948.7114      0.10167477
       3949.5171      0.11773689
       3950.3229      0.16291602
       3951.1286      0.13050786
       3951.9344      0.11810557
       3952.7401     0.075725018
       3953.5459     0.069586576
       3954.3516      0.14679852
       3955.1574      0.11117958
       3955.9631     0.059730263
       3956.7688     0.064463659
       3957.5746     0.065985965
       3958.3803     0.065142345
       3959.1861     0.092682954
       3959.9918     0.081511972
       3960.7976     0.055421956
       3961.6033     0.089331384
       3962.4091   0.00058274634
       3963.2148      0.10504280
       3964.0205      0.11229147
       3964.8263    0.0029177567
       3965.6320     0.042659458
       3966.4378     0.030356573
       3967.2435      0.19433903
       3968.0493      0.15300811
       3968.8550     0.098911430
       3969.6608     0.084668057
       3970.4665     0.049980219
       3971.2723      0.11761817
       3972.0780      0.10976873
       3972.8837      0.12169804
       3973.6895      0.11128022
       3974.4952     0.067345143
       3975.3010      0.14360261
       3976.1067      0.14899980
       3976.9125      0.15377708
       3977.7182      0.18709541
       3978.5240      0.17995215
       3979.3297      0.18026638
       3980.1354      0.27100109
       3980.9412      0.23266586
       3981.7469      0.22363007
       3982.5527      0.13224762
       3983.3584      0.12377957
       3984.1642      0.14228117
       3984.9699     0.095038426
       3985.7757      0.10287923
       3986.5814      0.17591678
       3987.3871      0.12751409
       3988.1929      0.13881251
       3988.9986      0.13807213
       3989.8044      0.16800114
       3990.6101      0.17188731
       3991.4159      0.16516681
       3992.2216      0.17514243
       3993.0274      0.12075222
       3993.8331     0.039417693
       3994.6389      0.11952021
       3995.4446      0.13721310
       3996.2503     0.078627140
       3997.0561      0.11294253
       3997.8618      0.13881233
       3998.6676      0.14744194
       3999.4733     0.093461379
       4000.2791      0.13925787
       4001.0848      0.12047772
       4001.8906      0.15489483
       4002.6963      0.12553516
       4003.5020      0.18758816
       4004.3078      0.14158894
       4005.1135      0.12219916
       4005.9193      0.13369888
       4006.7250     0.080566277
       4007.5308      0.11405312
       4008.3365      0.10667583
       4009.1423     0.049990252
       4009.9480      0.15988515
       4010.7537      0.15024826
       4011.5595      0.15695706
       4012.3652      0.16344490
       4013.1710      0.11320810
       4013.9767     0.076647095
       4014.7825     0.059528013
       4015.5882      0.10063822
       4016.3940      0.11676581
       4017.1997      0.10028713
       4018.0055      0.11594188
       4018.8112      0.16248403
       4019.6169      0.13121766
       4020.4227      0.15622847
       4021.2284      0.11628628
       4022.0342      0.13740452
       4022.8399      0.13210100
       4023.6457      0.18190808
       4024.4514      0.13192045
       4025.2572      0.18525476
       4026.0629      0.19881833
       4026.8686      0.18916528
       4027.6744      0.18569257
       4028.4801      0.12110861
       4029.2859     0.083085317
       4030.0916     0.063367409
       4030.8974     0.061369916
       4031.7031      0.13533445
       4032.5089      0.15725145
       4033.3146      0.11928598
       4034.1203      0.19102189
       4034.9261     0.080520133
       4035.7318     0.066621127
       4036.5376      0.17045658
       4037.3433      0.15934770
       4038.1491      0.13541842
       4038.9548      0.18511010
       4039.7606      0.18801996
       4040.5663      0.17408241
       4041.3721      0.12144470
       4042.1778      0.12009336
       4042.9835      0.12549988
       4043.7893      0.13270364
       4044.5950      0.16349964
       4045.4008      0.23274765
       4046.2065      0.16924471
       4047.0123      0.14184088
       4047.8180     0.030686172
       4048.6238     0.082147563
       4049.4295      0.10845154
       4050.2352      0.16254354
       4051.0410      0.14390496
       4051.8467     0.068577408
       4052.6525     0.097591812
       4053.4582      0.11864301
       4054.2640      0.14910884
       4055.0697      0.14229581
       4055.8755      0.15264080
       4056.6812      0.20822266
       4057.4870      0.13828173
       4058.2927      0.15795879
       4059.0984      0.10325156
       4059.9042      0.11322464
       4060.7099      0.17311736
       4061.5157      0.11042063
       4062.3214      0.19174110
       4063.1272      0.11320119
       4063.9329     0.099310422
       4064.7387      0.13805501
       4065.5444      0.16489310
       4066.3501      0.20663601
       4067.1559      0.12227690
       4067.9616      0.13931777
       4068.7674      0.11262536
       4069.5731      0.14592903
       4070.3789      0.14845036
       4071.1846      0.23082158
       4071.9904      0.11348682
       4072.7961      0.14942452
       4073.6018      0.24483634
       4074.4076      0.12733599
       4075.2133      0.17641053
       4076.0191      0.12193755
       4076.8248      0.13009168
       4077.6306      0.14665747
       4078.4363      0.20912749
       4079.2421      0.16527815
       4080.0478      0.12039040
       4080.8536      0.11677806
       4081.6593      0.13511837
       4082.4650     0.065055248
       4083.2708     0.080681788
       4084.0765      0.12541830
       4084.8823      0.11587051
       4085.6880      0.14209024
       4086.4938      0.24481479
       4087.2995      0.18857445
       4088.1053      0.16963632
       4088.9110      0.11660410
       4089.7167      0.11335886
       4090.5225      0.11630274
       4091.3282     0.064807553
       4092.1340      0.14383560
       4092.9397      0.12595311
       4093.7455      0.12248690
       4094.5512      0.12742169
       4095.3570      0.13119260
       4096.1627     0.069540592
       4096.9684      0.13092670
       4097.7742      0.11017380
       4098.5799      0.11760665
       4099.3857      0.12738050
       4100.1914     0.086274544
       4100.9972      0.12890710
       4101.8029      0.19941770
       4102.6087      0.23741212
       4103.4144      0.17382894
       4104.2202      0.18466775
       4105.0259     0.078335632
       4572.0194      0.27001125
       4572.9049      0.19971429
       4573.7904      0.21272830
       4574.6759      0.13811258
       4575.5614      0.13951405
       4576.4469      0.25881703
       4577.3324      0.16352456
       4578.2179      0.14154649
       4579.1034      0.27194271
       4579.9889      0.14583769
       4580.8745      0.15993542
       4581.7600      0.16143000
       4582.6455      0.21398490
       4583.5310      0.19683851
       4584.4165      0.23558102
       4585.3020      0.22339253
       4586.1875      0.23743922
       4587.0730      0.24083914
       4587.9585      0.17227219
       4588.8440      0.13634114
       4589.7295      0.16391683
       4590.6150      0.12084679
       4591.5005      0.18498985
       4592.3860      0.21671688
       4593.2715      0.36499359
       4594.1570      0.13802529
       4595.0425      0.23810186
       4595.9280      0.14034367
       4596.8135      0.10499458
       4597.6990      0.12972992
       4598.5845      0.24887716
       4599.4700      0.23245195
       4600.3555      0.20382525
       4601.2410      0.23639646
       4602.1265      0.26726533
       4603.0120      0.23745542
       4603.8975      0.18985725
       4604.7831      0.24653644
       4605.6686      0.19903834
       4606.5541      0.17602936
       4607.4396      0.25896614
       4608.3251      0.21979093
       4609.2106      0.27855584
       4610.0961     0.086299852
       4610.9816      0.18402209
       4611.8671      0.26425713
       4612.7526      0.12230255
       4613.6381      0.12267934
       4614.5236      0.24922398
       4615.4091      0.31144058
       4616.2946      0.24058252
       4617.1801      0.17591018
       4618.0656      0.28240624
       4618.9511      0.18940774
       4619.8366      0.21241219
       4620.7221      0.22885163
       4621.6076      0.21466405
       4622.4931      0.27508004
       4623.3786      0.27013648
       4624.2641     0.087546642
       4625.1496      0.10221679
       4626.0351      0.34257647
       4626.9206      0.14261662
       4627.8062      0.14077884
       4628.6917      0.14852541
       4629.5772      0.16520155
       4630.4627      0.23630037
       4631.3482      0.17823551
       4632.2337      0.12732078
       4633.1192      0.21071756
       4634.0047      0.18752157
       4634.8902      0.13944898
       4635.7757      0.14966073
       4636.6612      0.15094508
       4637.5467      0.14534683
       4638.4322     0.025819142
       4639.3177      0.26870973
       4640.2032      0.46609110
       4641.0887      0.50983293
       4641.9742      0.35219149
       4642.8597      0.22887435
       4643.7452      0.28141945
       4644.6307     0.088709018
       4645.5162      0.15619219
       4646.4017      0.19300775
       4647.2872      0.22839714
       4648.1727      0.12715584
       4649.0582     0.060296676
       4649.9437      0.22286368
       4650.8292      0.22613410
       4651.7148      0.10233368
       4652.6003    0.0090686523
       4653.4858    -0.079436238
       4654.3713      0.13485319
       4655.2568      0.21680278
       4656.1423      0.11173034
       4657.0278    -0.088432232
       4657.9133      0.24510256
       4658.7988      0.11141531
       4659.6843      0.29510282
       4660.5698      0.19451266
       4661.4553      0.10208191
       4662.3408     0.079892149
       4663.2263      0.10292310
       4664.1118      0.25460727
       4664.9973      0.17637216
       4665.8828      0.24913182
       4666.7683      0.23870131
       4667.6538      0.33164918
       4668.5393      0.30707209
       4669.4248      0.28361317
       4670.3103      0.14961333
       4671.1958      0.19047626
       4672.0813      0.24243713
       4672.9668      0.18405027
       4673.8523      0.26344574
       4674.7378      0.25505306
       4675.6234      0.28056601
       4676.5089      0.27786304
       4677.3944      0.12128027
       4678.2799      0.23417088
       4679.1654      0.25198132
       4680.0509      0.27723715
       4680.9364      0.20913736
       4681.8219      0.18840804
       4682.7074      0.19315204
       4683.5929      0.20274492
       4684.4784      0.24369810
       4685.3639      0.19328812
       4686.2494      0.16124943
       4687.1349     0.053114249
       4688.0204      0.12999915
       4688.9059      0.22554134
       4689.7914      0.13420674
       4690.6769      0.19243069
       4691.5624      0.18024620
       4692.4479      0.19063049
       4693.3334      0.16116407
       4694.2189      0.10477033
       4695.1044     0.089607205
       4695.9899      0.24014326
       4696.8754      0.16950883
       4697.7609      0.22260301
       4698.6465      0.18092444
       4699.5320      0.20895504
       4700.4175      0.26023305
       4701.3030      0.20840761
       4702.1885      0.31675092
       4703.0740     0.059088562
       4703.9595      0.15989982
       4704.8450      0.21023368
       4705.7305      0.15822439
       4706.6160    0.0012214333
       4707.5015     -0.26507848
       4708.3870     -0.10968848
       4709.2725    -0.019335859
       4710.1580    -0.020445055
       4711.0435      0.14029653
       4711.9290      0.12823903
       4712.8145  -0.00011934987
       4713.7000      0.20772090
       4714.5855      0.12700898
       4715.4710      0.26121041
       4716.3565      0.13450413
       4717.2420      0.15264830
       4718.1275      0.14872869
       4719.0130      0.24557019
       4719.8985      0.14626606
       4720.7840      0.25399163
       4721.6695      0.30638265
       4722.5551      0.38733210
       4723.4406      0.19895322
       4724.3261      0.17420075
       4725.2116      0.22465232
       4726.0971      0.20001110
       4726.9826      0.19408580
       4727.8681      0.25326960
       4728.7536      0.27628657
       4729.6391      0.15030981
       4730.5246      0.13334668
       4731.4101      0.15868192
       4732.2956      0.23895256
       4733.1811      0.37548631
       4734.0666      0.26775944
       4734.9521      0.17547250
       4735.8376      0.12510783
       4736.7231      0.20415421
       4737.6086      0.14577327
       4738.4941      0.21777044
       4739.3796      0.15774255
       4740.2651     0.094011588
       4741.1506      0.23465134
       4742.0361      0.20133069
       4742.9216      0.19663223
       4743.8071      0.17453434
       4744.6926      0.20345318
       4745.5781      0.20094292
       4746.4637      0.20086779
       4747.3492      0.10861747
       4748.2347      0.24134126
       4749.1202      0.19012515
       4750.0057      0.21173677
       4750.8912      0.17570533
       4751.7767      0.16277672
       4752.6622      0.16536766
       4753.5477      0.16264302
       4754.4332      0.11825100
       4755.3187      0.26619341
       4756.2042      0.16550123
       4757.0897      0.16573551
       4757.9752      0.21780276
       4758.8607      0.13126734
       4759.7462      0.17269805
       4760.6317      0.21710045
       4761.5172      0.15740972
       4762.4027      0.20147123
       4763.2882      0.22117976
       4764.1737      0.18978869
       4765.0592      0.23658444
       4765.9447      0.24060570
       4766.8302      0.19854141
       4767.7157      0.17992876
       4768.6012      0.16221758
       4769.4868     0.063941691
       4770.3723      0.25527994
       4771.2578      0.25408120
       4772.1433      0.21541761
       4773.0288      0.23542091
       4773.9143      0.26354942
       4774.7998      0.25101057
       4775.6853      0.25860167
       4776.5708      0.26198179
       4777.4563      0.19710208
       4778.3418      0.17637522
       4779.2273      0.22936395
       4780.1128      0.19601900
       4780.9983      0.23416598
       4781.8838      0.15591679
       4782.7693      0.18234378
       4783.6548      0.18883185
       4784.5403      0.22713780
       4785.4258      0.25722965
       4786.3113      0.20507686
       4787.1968      0.12362508
       4788.0823      0.16881031
       4788.9678      0.23454496
       4789.8533      0.20661379
       4790.7388      0.21468470
       4791.6243      0.24318771
       4792.5098      0.30952463
       4793.3954      0.21843458
       4794.2809      0.20516910
       4795.1664      0.19004728
       4796.0519      0.20506996
       4796.9374      0.18703542
       4797.8229      0.16362650
       4798.7084      0.14813708
       4799.5939      0.18633568
       4800.4794      0.25112939
       4801.3649      0.18848008
       4802.2504      0.18959076
       4803.1359      0.19198282
       4804.0214      0.17286430
       4804.9069      0.24737693
       4805.7924      0.31138721
       4806.6779      0.14088509
       4807.5634      0.17103668
       4808.4489      0.23205639
       4809.3344      0.25606651
       4810.2199      0.17381586
       4811.1054     0.057223956
       4811.9909      0.23181114
       4812.8764      0.20342769
       4813.7619      0.29679970
       4814.6474      0.22363601
       4815.5329      0.19952406
       4816.4184      0.20150671
       4817.3040      0.15560897
       4818.1895      0.26749873
       4819.0750      0.25794264
       4819.9605      0.23882663
       4820.8460      0.30267646
       4821.7315      0.22617943
       4822.6170      0.17330443
       4823.5025      0.16721060
       4824.3880      0.28953452
       4825.2735      0.20177838
       4826.1590      0.13039198
       4827.0445     0.078021131
       4827.9300      0.11919702
       4828.8155     0.031518818
       4829.7010      0.15400530
       4830.5865      0.18183342
       4831.4720      0.11743942
       4832.3575      0.17542089
       4833.2430      0.13453312
       4834.1285      0.13357974
       4835.0140      0.24215398
       4835.8995     0.082258707
       4836.7850      0.17921723
       4837.6705      0.17989418
       4838.5560      0.22960194
       4839.4415      0.25300244
       4840.3271      0.26014875
       4841.2126      0.11964902
       4842.0981      0.15948044
       4842.9836      0.10140027
       4843.8691      0.22788802
       4844.7546      0.21396426
       4845.6401      0.25257545
       4846.5256      0.30980769
       4847.4111      0.22245327
       4848.2966      0.20297917
       4849.1821      0.26513140
       4850.0676      0.13708926
       4850.9531      0.17650081
       4851.8386      0.24711665
       4852.7241     0.088754202
       4853.6096      0.10354332
       4854.4951      0.27314172
       4855.3806     0.062209448
       4856.2661      0.22723767
       4857.1516      0.14402115
       4858.0371     0.080206029
       4858.9226     0.021652441
       4859.8081     0.099850391
       4860.6936      0.17844484
       4861.5791      0.32449444
       4862.4646      0.44009370
       4863.3501      0.32020230
       4864.2357      0.34193292
       4865.1212      0.16459681
       4866.0067      0.10792554
       4866.8922      0.13198471
       4867.7777     0.089771808
       4868.6632      0.20910720
       4869.5487      0.26245247
       4870.4342      0.28785234
       4871.3197      0.20024098
       4872.2052      0.27405356
       4873.0907      0.22542083
       4873.9762      0.19541499
       4874.8617      0.19729174
       4875.7472      0.20852508
       4876.6327      0.17999199
       4877.5182      0.18645099
       4878.4037      0.17311233
       4879.2892      0.27909750
       4880.1747      0.18949154
       4881.0602      0.17860979
       4881.9457      0.22688449
       4882.8312      0.22634820
       4883.7167      0.28437070
       4884.6022      0.25073934
       4885.4877      0.17664020
       4886.3732      0.17146352
       4887.2587      0.18300503
       4888.1443      0.16379345
       4889.0298      0.13331308
       4889.9153      0.22510343
       4890.8008     0.094342945
       4891.6863      0.13120750
       4892.5718      0.10951710
       4893.4573      0.19086033
       4894.3428      0.28239076
       4895.2283      0.19976023
       4896.1138      0.17646286
       4896.9993      0.11181084
       4897.8848      0.23224449
       4898.7703      0.25971633
       4899.6558      0.16486666
       4900.5413      0.21080828
       4901.4268      0.16060534
       4902.3123      0.11718897
       4903.1978      0.16811157
       4904.0833      0.19367549
       4904.9688      0.20672800
       4905.8543      0.26601040
       4906.7398      0.17618574
       4907.6253      0.41370558
       4908.5108      0.18942738
       4909.3963      0.19318824
       4910.2818      0.19403379
       4911.1674      0.16668687
       4912.0529      0.19567855
       4912.9384      0.10970982
       4913.8239      0.20573924
       4914.7094      0.21929617
       4915.5949      0.18332202
       4916.4804      0.19408390
       4917.3659      0.20305117
       4918.2514      0.17921857
       4919.1369      0.13856967
       4920.0224     0.058738799
       4920.9079      0.16021318
       4921.7934      0.10863755
       4922.6789     0.088311584
       4923.5644      0.21169613
       4924.4499      0.16802547
       4925.3354      0.20534192
       4926.2209      0.13349516
       4927.1064      0.14113095
       4927.9919      0.15635157
       4928.8774      0.25350284
       4929.7629      0.16790264
       4930.6484      0.18382506
       4931.5339      0.22430405
       4932.4194      0.21455660
       4933.3049      0.18950729
       4934.1904      0.25820032
       4935.0760      0.32722780
       4935.9615      0.16301433
       4936.8470     0.074303490
       4937.7325      0.22222847
       4938.6180      0.18563361
       4939.5035      0.26645692
       4940.3890      0.21122990
       4941.2745      0.15720215
       4942.1600      0.22558960
       4943.0455      0.15349708
       4943.9310      0.17129152
       4944.8165      0.14770614
       4945.7020      0.23626247
       4946.5875      0.18278915
       4947.4730      0.20727522
       4948.3585      0.15746948
       4949.2440      0.10460983
       4950.1295      0.20347897
       4951.0150      0.18879702
       4951.9005      0.20880448
       4952.7860      0.20583554
       4953.6715      0.10182488
       4954.5570      0.15519428
       4955.4425      0.19095426
       4956.3280      0.20093993
       4957.2135      0.26274025
       4958.0990      0.19792850
       4958.9846      0.20191356
       4959.8701      0.21169853
       4960.7556      0.19508471
       4961.6411      0.24363893
       4962.5266      0.10289190
       4963.4121      0.22412269
       4964.2976      0.24274639
       4965.1831      0.21244790
       4966.0686      0.11623269
       4966.9541      0.24737797
       4967.8396      0.21367087
       4968.7251      0.16075670
       4969.6106      0.14926217
       4970.4961      0.12526466
       4971.3816      0.18444165
       4972.2671     0.093584293
       4973.1526      0.20537594
       4974.0381      0.15100302
       4974.9236      0.13748257
       4975.8091      0.18088212
       4976.6946      0.21288771
       4977.5801      0.20375413
       4978.4656      0.20340583
       4979.3511      0.16216929
       4980.2366      0.18245727
       4981.1221      0.17471236
       4982.0077      0.20131892
       4982.8932      0.15516580
       4983.7787      0.15855740
       4984.6642      0.22378322
       4985.5497      0.13140997
       4986.4352      0.12392752
       4987.3207      0.25523235
       4988.2062      0.16874343
       4989.0917      0.19072095
       4989.9772      0.17799271
       4990.8627      0.13141080
       4991.7482      0.11844576
       4992.6337     0.092293842
       4993.5192      0.26786811
       4994.4047      0.25296635
       4995.2902      0.20451355
       4996.1757      0.12866136
       4997.0612      0.26972003
       4997.9467      0.21658218
       4998.8322      0.22051505
       4999.7177      0.19152919
       5000.6032      0.19854935
       5001.4887      0.18254329
       5002.3742      0.17194765
       5003.2597      0.16979315
       5004.1452      0.13656522
       5005.0307      0.15375739
       5005.9163      0.13080499
       5006.8018     0.093216749
       5007.6873      0.12249403
       5008.5728      0.14898737
       5009.4583      0.22571593
       5010.3438      0.15872484
       5011.2293      0.13037056
       5012.1148      0.16062791
       5013.0003      0.26288872
       5013.8858      0.22375767
       5014.7713      0.23601284
       5015.6568      0.23241211
       5016.5423      0.21522250
       5017.4278      0.22480916
       5018.3133      0.20333181
       5019.1988      0.26935270
       5020.0843      0.19389992
       5020.9698      0.24558851
       5021.8553      0.26704800
       5022.7408      0.22107343
       5023.6263      0.17986372
       5024.5118      0.30003358
       5025.3973      0.25785801
       5026.2828      0.16989394
       5027.1683      0.19746886
       5028.0538      0.22368208
       5028.9393      0.18862345
       5029.8249     0.084236342
       5030.7104      0.26311086
       5031.5959      0.20032302
       5032.4814      0.10162246
       5033.3669      0.18496970
       5034.2524      0.13228466
       5035.1379      0.16155935
       5036.0234      0.23884074
       5036.9089      0.15181852
       5037.7944      0.16060362
       5038.6799      0.20561120
       5039.5654      0.16371954
       5040.4509      0.17370886
       5041.3364      0.15729022
       5042.2219      0.20280430
       5043.1074      0.20984148
       5043.9929      0.19305682
       5044.8784      0.18767179
       5045.7639      0.20411490
       5046.6494      0.15599916
       5047.5349      0.18956449
       5048.4204      0.20886108
       5049.3059      0.15741853
       5050.1914      0.21425325
       5051.0769      0.26210653
       5051.9624      0.25966135
       5052.8480      0.21837370
       5053.7335      0.31183094
       5054.6190      0.33520796
       5055.5045      0.27594631
       5056.3900      0.24816003
       5057.2755      0.17617824
       5058.1610      0.14487753
       5059.0465      0.22342006
       5059.9320      0.12489444
       5060.8175      0.20947913
       5061.7030      0.14979374
       5062.5885      0.13954552
       5063.4740      0.25572308
       5064.3595    -0.017004092
       5065.2450      0.12894415
       5066.1305      0.15394927
       5067.0160     0.075976872
       5067.9015      0.22373729
       5068.7870      0.33753346
       5069.6725      0.27168964
       5070.5580      0.14368073
       5071.4435      0.16488841
       5072.3290     0.099334511
       5073.2145      0.18903010
       5074.1000     0.097113206
       5074.9855      0.22714723
       5075.8710      0.18083358
       5076.7566      0.21358337
       5077.6421      0.18600558
       5078.5276      0.24186200
       5079.4131      0.19293670
       5080.2986      0.22975841
       5081.1841      0.29704533
       5082.0696      0.19306435
       5082.9551      0.15441866
       5083.8406      0.23858711
       5084.7261      0.25386924
       5085.6116      0.18542801
       5086.4971      0.19352419
       5087.3826      0.26051236
       5088.2681      0.37169354
       5089.1536      0.39339835
       5090.0391      0.18189548
       5090.9246      0.20614591
       5091.8101      0.24747382
       5092.6956     0.028283048
       5093.5811      0.18150907
       5094.4666      0.16325853
       5095.3521     0.074244973
       5096.2376      0.20364483
       5097.1231      0.17747294
       5098.0086      0.17186009
       5098.8941      0.17891734
       5099.7797      0.10185311
       5100.6652     0.099503090
       5101.5507     0.072520838
       5102.4362      0.24732728
       5103.3217      0.14281481
       5104.2072      0.13118471
       5105.0927      0.16812528
       5105.9782      0.24358904
       5106.8637      0.28138693
       5107.7492      0.26260614
       5108.6347      0.21142270
       5109.5202      0.17323094
       5110.4057      0.17688853
       5111.2912      0.17868042
       5112.1767      0.18622820
       5113.0622      0.19848315
       5113.9477      0.21276887
       5114.8332      0.21047939
       5115.7187      0.17178318
       5116.6042      0.21231314
       5117.4897      0.15238269
       5118.3752      0.17254789
       5119.2607      0.12685718
       5120.1462      0.20143963
       5121.0317      0.18701553
       5121.9172      0.21006951
       5122.8027      0.16586639
       5123.6883      0.26831755
       5124.5738      0.16239160
       5125.4593      0.20585045
       5126.3448      0.18129933
       5127.2303      0.16094540
       5128.1158      0.12395269
       5129.0013     0.080811535
       5129.8868      0.16483740
       5130.7723      0.21015518
       5131.6578      0.19486546
       5132.5433      0.18330869
       5133.4288      0.20512790
       5134.3143      0.21576479
       5135.1998      0.10413152
       5136.0853      0.11600953
       5136.9708      0.15755246
       5137.8563      0.25046370
       5138.7418      0.29171692
       5139.6273      0.24269600
       5140.5128      0.13577069
       5141.3983      0.18852241
       5142.2838      0.16027503
       5143.1693      0.15804417
       5144.0548      0.14483765
       5144.9403      0.25435508
       5145.8258      0.13083231
       5146.7113      0.12996142
       5147.5969      0.21743090
       5148.4824      0.32413554
       5149.3679      0.26742550
       5150.2534      0.22896186
       5151.1389      0.19692893
       5152.0244      0.23874052
       5152.9099      0.10811084
       5153.7954      0.20921290
       5154.6809      0.31549345
       5155.5664      0.12384618
       5156.4519      0.19739913
       5157.3374      0.18187900
       5158.2229      0.18585368
       5159.1084      0.16588041
       5159.9939      0.22796670
       5160.8794      0.11359061
       5161.7649      0.12158479
       5162.6504      0.18610544
       5163.5359      0.19719507
       5164.4214      0.14140510
       5165.3069      0.12552330
       5166.1924      0.18744856
       5167.0779      0.14346378
       5167.9634      0.24044784
       5168.8489      0.19232630
       5169.7344      0.16827762
       5170.6200     0.090319636
       5171.5055      0.24174424
       5172.3910      0.23406246
       5173.2765      0.20070355
       5174.1620      0.23836287
       5175.0475      0.21145755
       5175.9330      0.21315641
       5176.8185      0.15429458
       5177.7040     0.067893687
       5178.5895     0.059009983
       5179.4750     0.096395869
       5180.3605      0.11009840
       5181.2460      0.22657484
       5182.1315      0.30385183
       5183.0170      0.18893078
       5183.9025      0.20710133
       5184.7880      0.22365447
       5185.6735      0.20993054
       5186.5590      0.14470825
       5187.4445      0.21076766
       5188.3300      0.15486019
       5189.2155      0.13754894
       5190.1010      0.15826035
       5190.9865      0.19512126
       5191.8720      0.20380091
       5192.7575      0.22689444
       5193.6430      0.12371546
       5194.5286      0.15234630
       5195.4141      0.25032184
       5196.2996      0.32495204
       5197.1851      0.23412165
       5198.0706     0.098411842
       5198.9561      0.23977968
       5199.8416      0.34351526
       5200.7271      0.27107341
       5201.6126      0.15991071
       5202.4981      0.18815180
       5203.3836      0.19555536
       5204.2691      0.26289167
       5205.1546      0.24021653
       5206.0401      0.21783421
       5206.9256      0.21145657
       5207.8111      0.22206195
       5208.6966      0.21676221
       5209.5821      0.36089450
       5210.4676      0.30042494
       5211.3531      0.24735450
       5212.2386      0.21499175
       5213.1241      0.38701526
       5214.0096      0.20609798
       5214.8951      0.21971821
       5215.7806      0.29409624
       5216.6661      0.31676767
       5217.5516      0.27332917
       5218.4372      0.13152569
       5219.3227      0.14465321
       5220.2082      0.23139829
       5221.0937      0.24037908
       5221.9792      0.21655681
       5222.8647      0.26166827
       5223.7502      0.26442927
       5224.6357      0.44334670
       5225.5212      0.25240684
       5226.4067      0.17758429
       5227.2922      0.21472339
       5228.1777      0.25622488
       5229.0632      0.19215309
       5229.9487      0.43964476
       5230.8342      0.12188490
       5231.7197      0.23736110
       5232.6052      0.22269173
       5233.4907      0.22626790
       5234.3762      0.37066888
       5235.2617      0.35775972
       5236.1472      0.29018658
       5237.0327      0.21400469
       5237.9182      0.27458797
       5238.8037      0.26889027
       5239.6892      0.23859100
       5240.5747      0.31013617
       5241.4603      0.22162891
       5242.3458      0.23239068
       5243.2313      0.28118464
       5244.1168      0.34031883
       5245.0023      0.20360586
       5245.8878      0.28519132
       5246.7733      0.27195722
       5247.6588      0.29490547
       5248.5443      0.18432793
       5249.4298      0.24753179
       5250.3153      0.26219052
       5251.2008      0.20500048
       5252.0863      0.18105819
       5252.9718      0.10037114
       5253.8573      0.33711785
       5254.7428      0.11670160
       5255.6283      0.33169904
       5256.5138      0.36692461
       5257.3993      0.33324805
       5258.2848      0.37120479
       5259.1703      0.25703833
       5260.0558      0.27264163
       5260.9413      0.24726955
       5261.8268      0.27625413
       5262.7123      0.24154930
       5263.5978      0.21013380
       5264.4833      0.20796628
       5265.3689      0.29952756
       5266.2544      0.19712070
       5267.1399      0.24064269
       5268.0254      0.19227550
       5268.9109      0.25737704
       5269.7964      0.23221374
       5270.6819      0.26206502
       5271.5674      0.26070387
       5272.4529      0.26390206
       5273.3384      0.30058075
       5274.2239      0.18406793
       5275.1094      0.29455539
       5275.9949      0.24287364
       5276.8804      0.38037992
       5277.7659      0.23876784
       5278.6514      0.22860455
       5279.5369      0.24713623
       5280.4224      0.25128930
       5281.3079      0.21904291
       5282.1934      0.20970853
       5283.0789      0.20723010
       5283.9644      0.24453655
       5284.8499      0.22993662
       5285.7354      0.17079644
       5286.6209      0.18563848
       5287.5064      0.21406925
       5288.3919      0.28466171
       5289.2775      0.20553802
       5290.1630      0.23024739
       5291.0485      0.16104959
       5291.9340      0.22730207
       5292.8195      0.29140705
       5293.7050      0.20886958
       5294.5905      0.14483263
       5295.4760      0.21883612
       5296.3615      0.14033220
       5297.2470      0.22619269
       5298.1325      0.24614150
       5299.0180      0.26175369
       5299.9035      0.15947054
       5300.7890      0.26700619
       5301.6745      0.28312512
       5302.5600      0.19603522
       5303.4455      0.17731904
       5304.3310      0.22140438
       5305.2165      0.24004926
       5306.1020      0.25666224
       5306.9875      0.22296716
       5307.8730      0.20453654
       5308.7585      0.21243081
       5309.6440      0.23168599
       5310.5295      0.16674029
       5311.4150      0.17492045
       5312.3006      0.21386421
       5313.1861      0.20779009
       5314.0716      0.16495105
       5314.9571      0.20163518
       5315.8426      0.31603930
       5316.7281      0.27051807
       5317.6136      0.12609503
       5318.4991      0.24387974
       5319.3846      0.25328416
       5320.2701      0.16235461
       5321.1556      0.19698671
       5322.0411      0.22751154
       5322.9266      0.18616859
       5323.8121      0.21462684
       5324.6976      0.19323197
       5325.5831      0.18504641
       5326.4686      0.21748663
       5327.3541      0.41570848
       5328.2396      0.19525181
       5329.1251      0.15722493
       5330.0106      0.29890836
       5330.8961      0.28247184
       5331.7816      0.29097077
       5332.6671      0.19673837
       5333.5526      0.33797631
       5334.4381      0.49861828
       5335.3236      0.33117312
       5336.2092      0.19382065
       5337.0947      0.22060881
       5337.9802      0.24101995
       5338.8657      0.32716774
       5339.7512      0.15128044
       5340.6367      0.25274450
       5341.5222      0.11774059
       5342.4077      0.23394769
       5343.2932      0.26763803
       5344.1787      0.20209368
       5345.0642      0.20141689
       5345.9497      0.14028780
       5346.8352      0.30081911
       5347.7207      0.24445994
       5348.6062      0.17599815
       5349.4917      0.18114195
       5350.3772      0.28483300
       5351.2627      0.11643062
       5352.1482      0.19672846
       5353.0337      0.19397285
       5353.9192      0.24340126
       5354.8047      0.29528584
       5355.6902      0.21049394
       5356.5757      0.21852196
       5357.4612      0.21902401
       5358.3467      0.23929482
       5359.2322      0.24081584
       5360.1178      0.29057944
       5361.0033      0.29172157
       5361.8888      0.27446985
       5362.7743      0.30829106
       5363.6598      0.23140441
       5364.5453      0.26477486
       5365.4308      0.27837799
       5366.3163      0.19733888
       5367.2018      0.22917913
       5368.0873      0.24411916
       5368.9728      0.14942538
       5369.8583      0.21118783
       5370.7438      0.29131705
       5371.6293      0.15695105
       5372.5148      0.15494449
       5373.4003      0.16463998
       5374.2858     0.082826068
       5375.1713     0.057102193
       5376.0568      0.21969356
       5376.9423      0.15316115
       5377.8278      0.27203345
       5378.7133      0.12444470
       5379.5988     0.091077901
       5380.4843      0.34891691
       5381.3698     0.091368595
       5382.2553      0.17681890
       5383.1409      0.30027341
       5384.0264      0.16508104
       5384.9119      0.15826410
       5385.7974      0.34468405
       5386.6829      0.15963876
       5387.5684      0.14491011
       5388.4539      0.25004117
       5389.3394      0.10234895
       5390.2249      0.20370954
       5391.1104      0.24752177
       5391.9959      0.27769869
       5392.8814      0.13458649
       5393.7669      0.23639992
       5394.6524      0.21833193
       5395.5379      0.29908369
       5396.4234      0.15259809
       5397.3089      0.19768127
       5398.1944      0.19195508
       5399.0799      0.11598627
       5399.9654      0.20859065
       5400.8509      0.16867123
       5401.7364      0.13246846
       5402.6219      0.28654892
       5403.5074      0.24515771
       5404.3929     0.098155045
       5405.2784      0.16234865
       5406.1639      0.18445000
       5407.0495      0.11026488
       5407.9350      0.13879042
       5408.8205      0.20756172
       5409.7060      0.16046829
       5410.5915      0.17677047
       5411.4770      0.28160144
       5412.3625      0.15840556
       5413.2480      0.24882310
       5414.1335      0.11504226
       5415.0190      0.14339783
       5415.9045      0.19195390
       5416.7900      0.17213709
       5417.6755      0.22146385
       5418.5610     0.093504486
       5419.4465      0.20376404
       5420.3320      0.24794058
       5421.2175      0.11541972
       5422.1030      0.14479129
       5422.9885      0.25816597
       5423.8740      0.17863406
       5424.7595      0.20851509
       5425.6450      0.23287124
       5426.5305      0.29218331
       5427.4160      0.25779096
       5428.3015      0.14947884
       5429.1870      0.13501224
       5430.0725      0.15819806
       5430.9581      0.20071612
       5431.8436      0.25791019
       5432.7291      0.24297354
       5433.6146      0.24268670
       5434.5001      0.11173174
       5435.3856      0.14499170
       5436.2711      0.13716895
       5437.1566      0.19343076
       5438.0421      0.21912642
       5438.9276      0.20787115
       5439.8131      0.30352511
       5440.6986      0.14901352
       5441.5841      0.17323014
       5442.4696      0.23855275
       5443.3551      0.23953739
       5444.2406      0.36360980
       5445.1261      0.15019175
       5446.0116      0.27981454
       5446.8971      0.15745552
       5447.7826      0.28131739
       5448.6681      0.30487781
       5449.5536      0.29645053
       5450.4391      0.20609271
       5451.3246      0.49084481
       5452.2101      0.17092524
       5453.0956      0.37643484
       5453.9812     0.051721110
       5454.8667      0.19296013
       5455.7522      0.23446471
       5456.6377      0.13475857
       5457.5232      0.31702182
       5458.4087      0.17543553
       5459.2942      0.15978775
       5460.1797      0.22987073
       5461.0652      0.23606549
       5461.9507      0.26796511
       5462.8362      0.23678649
       5463.7217      0.16654327
       5464.6072      0.31758984
       5465.4927      0.21090821
       5466.3782      0.33772307
       5467.2637      0.30136333
       5468.1492      0.27848756
       5469.0347      0.29075506
       5469.9202      0.20554911
       5470.8057      0.18122868
       5471.6912      0.34238918
       5472.5767      0.15009234
       5473.4622      0.16814606
       5474.3477      0.11566510
       5475.2332     0.074059083
       5476.1187      0.20836051
       5477.0042      0.18493091
       5477.8898      0.38263017
       5478.7753      0.15741047
       5479.6608      0.23544789
       5480.5463     0.092041126
       5481.4318      0.17242218
       5482.3173      0.24387116
       5483.2028      0.14371079
       5484.0883     0.081601694
       5484.9738      0.24253548
       5485.8593      0.17109685
       5486.7448      0.25168115
       5487.6303      0.25220938
       5488.5158      0.27214815
       5489.4013      0.26318717
       5490.2868      0.29182776
       5491.1723      0.15131780
       5492.0578      0.20558077
       5492.9433      0.26643143
       5493.8288      0.27796650
       5494.7143      0.24313351
       5495.5998      0.35656845
       5496.4853      0.12898142
       5497.3708      0.16085877
       5498.2563      0.29000322
       5499.1418      0.30001496
       5500.0273      0.14145202
       5500.9128      0.15717108
       5501.7984      0.28387443
       5502.6839    -0.080199597
       5503.5694      0.20763716
       5504.4549      0.15154574
       5505.3404      0.20770265
       5506.2259      0.19804498
       5507.1114      0.23663255
       5507.9969     0.064392495
       5508.8824   -0.0045473088
       5509.7679      0.18296778
       5510.6534      0.26606113
       5511.5389      0.27618510
       5512.4244      0.21927016
       5513.3099      0.18007482
       5514.1954      0.22463539
       5515.0809      0.27073677
       5515.9664      0.18470562
       5516.8519      0.22944756
       5517.7374      0.32754841
       5518.6229      0.22277290
       5519.5084      0.29972896
       5520.3939      0.32057512
       5521.2794      0.17573357
       5522.1649      0.23128950
       5523.0504      0.22926784
       5523.9359      0.45414739
       5524.8215      0.32828862
       5525.7070      0.21798458
       5526.5925      0.24410189
       5527.4780      0.20442306
       5528.3635      0.30951748
       5529.2490      0.15205938
       5530.1345      0.30036709
       5531.0200      0.21173190
       5531.9055      0.26764802
       5532.7910      0.23621223
       5533.6765      0.29698395
       5534.5620      0.26744405
       5535.4475      0.31212557
       5536.3330      0.25594987
       5537.2185      0.18264762
       5538.1040      0.21446746
       5538.9895      0.15972370
       5539.8750      0.24390653
       5540.7605      0.29379322
       5541.6460      0.25090183
       5542.5315      0.35494465
       5543.4170      0.20325270
       5544.3025      0.26665243
       5545.1880      0.21207046
       5546.0735      0.20514692
       5546.9590      0.15990928
       5547.8445      0.27952452
       5548.7301      0.31788732
       5549.6156      0.38366462
       5550.5011      0.27232801
       5551.3866      0.27152760
       5552.2721      0.14847215
       5553.1576      0.28922921
       5554.0431      0.33652670
       5554.9286      0.24848016
       5555.8141      0.27660044
       5556.6996      0.23645618
       5557.5851      0.26932148
       5558.4706      0.30696911
       5559.3561      0.18789379
       5560.2416     0.072487441
       5561.1271      0.25148233
       5562.0126      0.24043298
       5562.8981      0.17946412
       5563.7836      0.29164761
       5564.6691      0.16884244
       5565.5546      0.24401049
       5566.4401      0.14897238
       5567.3256      0.24687507
       5568.2111      0.25957139
       5569.0966      0.23145823
       5569.9821      0.26619144
       5570.8676      0.34711888
       5571.7531      0.22557321
       5572.6387      0.27983668
       5573.5242      0.21793644
       5574.4097      0.19615322
       5575.2952      0.16851680
       5576.1807      0.25034549
       5577.0662      0.29743746
       5577.9517      0.20078501
       5578.8372      0.26532071
       5579.7227      0.18597785
       5580.6082      0.25353509
       5581.4937      0.29322044
       5582.3792      0.33596695
       5583.2647      0.27164349
       5584.1502      0.27265585
       5585.0357      0.32874925
       5585.9212      0.19190723
       5586.8067      0.31495211
       5587.6922     0.072146642
       5588.5777      0.11088399
       5589.4632      0.19741434
       5590.3487    -0.042865696
       5591.2342      0.12797915
       5592.1197     0.094734053
       5593.0052      0.33264858
       5593.8907      0.35748867
       5594.7762      0.16985672
       5595.6618      0.26841470
       5596.5473      0.15045629
       5597.4328      0.22375078
       5598.3183      0.27317317
       5599.2038      0.13656636
       5600.0893      0.18421158
       5600.9748      0.21224209
       5601.8603     0.059373536
       5602.7458      0.16299014
       5603.6313      0.14863715
       5604.5168      0.16985193
       5605.4023      0.30530787
       5606.2878      0.35007677
       5607.1733      0.22063392
       5608.0588      0.15519548
       5608.9443      0.19727283
       5609.8298      0.35612801
       5610.7153      0.25591779
       5611.6008      0.22351773
       5612.4863      0.24797337
       5613.3718      0.22812614
       5614.2573      0.26935662
       5615.1428      0.19558666
       5616.0283      0.17660548
       5616.9138      0.21309309
       5617.7993      0.19473742
       5618.6848      0.33562899
       5619.5704      0.23787112
       5620.4559      0.29982279
       5621.3414      0.27138931
       5622.2269      0.21740819
       5623.1124      0.23124159
       5623.9979      0.18246862
       5624.8834      0.34851275
       5625.7689    -0.036873291
       5626.6544      0.11101549
       5627.5399      0.25486864
       5628.4254      0.11832102
       5629.3109      0.15359921
       5630.1964      0.20331992
       5631.0819      0.15710046
       5631.9674      0.23284157
       5632.8529      0.26577674
       5633.7384      0.31683204
       5634.6239      0.22778083
       5635.5094      0.22270870
       5636.3949      0.31815754
       5637.2804      0.24779620
       5638.1659      0.30966615
       5639.0514      0.34160445
       5639.9369      0.32807702
       5640.8224      0.39331284
       5641.7079      0.41043447
       5642.5934      0.21653896
       5643.4790      0.20722869
       5644.3645    -0.042056435
       5645.2500      0.16031889
       5646.1355     0.048427487
       5647.0210     0.020574597
       5647.9065     0.013250258
       5648.7920     0.055225849
       5649.6775      0.14227248
       5650.5630     0.070466295
       5651.4485             NaN
       5652.3340             NaN
       5653.2195             NaN
       5654.1050             NaN
       5654.9905             NaN
       5655.8760             NaN
       5656.7615             NaN
       5657.6470             NaN
       5658.5325             NaN
       5659.4180             NaN
       5660.3035             NaN
       5661.1890             NaN
       5662.0745             NaN
       5662.9600             NaN
       5663.8455             NaN
       5664.7310             NaN
       5665.6165             NaN
       5666.5021             NaN
       5667.3876             NaN
       5668.2731             NaN
       5669.1586             NaN
       5670.0441             NaN
       5670.9296             NaN
       5671.8151             NaN
       5672.7006             NaN
       5673.5861             NaN
       5674.4716             NaN
       5675.3571             NaN
       5676.2426             NaN
       5677.1281             NaN
       5678.0136             NaN
       5678.8991             NaN
       5679.7846             NaN
       5680.6701             NaN
       5681.5556             NaN
       5682.4411             NaN
       5683.3266             NaN
       5684.2121             NaN
       5685.0976             NaN
       5685.9831             NaN
       5686.8686             NaN
       5687.7541             NaN
       5688.6396             NaN
       5689.5251             NaN
       5690.4107             NaN
       5691.2962             NaN
       5692.1817             NaN
       5693.0672             NaN
       5693.9527             NaN
       5694.8382             NaN
       5695.7237             NaN
       5696.6092             NaN
       5697.4947             NaN
       5698.3802             NaN
       5699.2657             NaN
       5700.1512             NaN
       5701.0367             NaN
       5701.9222             NaN
       5702.8077             NaN
       5703.6932             NaN
       5704.5787             NaN
       5705.4642             NaN
       5706.3497             NaN
       5707.2352             NaN
       5708.1207             NaN
       5709.0062             NaN
       5709.8917             NaN
       5710.7772             NaN
       5711.6627             NaN
       5712.5482             NaN
       5713.4337             NaN
       5714.3193             NaN
       5715.2048             NaN
       5716.0903             NaN
       5716.9758             NaN
       5717.8613             NaN
       5718.7468             NaN
       5719.6323             NaN
       5720.5178             NaN
       5721.4033             NaN
       5722.2888             NaN
       5723.1743             NaN
       5724.0598             NaN
       5724.9453             NaN
       5725.8308             NaN
       5726.7163             NaN
       5727.6018             NaN
       5728.4873             NaN
       5729.3728             NaN
       5730.2583     0.050456610
       5731.1438      0.27571474
       5732.0293      0.22826378
       5732.9148      0.35077927
       5733.8003      0.41370902
       5734.6858      0.39203577
       5735.5713      0.16295465
       5736.4568      0.26710447
       5737.3424      0.26411630
       5738.2279      0.41461025
       5739.1134      0.15772011
       5739.9989      0.22237897
       5740.8844      0.13463549
       5741.7699      0.29050741
       5742.6554     0.059584535
       5743.5409      0.19211529
       5744.4264      0.19142809
       5745.3119      0.24756161
       5746.1974      0.14668817
       5747.0829      0.34472083
       5747.9684      0.31827270
       5748.8539      0.43867416
       5749.7394      0.24998955
       5750.6249      0.32623348
       5751.5104      0.33208891
       5752.3959      0.37251470
       5753.2814      0.25633432
       5754.1669      0.25266837
       5755.0524      0.20231527
       5755.9379      0.22349022
       5756.8234      0.11145847
       5757.7089      0.37475001
       5758.5944     0.097995552
       5759.4799     -0.10585027
       5760.3654    0.0095079803
       5761.2510      0.28498202
       5762.1365      0.16998967
       5763.0220      0.26814896
       5763.9075      0.28419024
       5764.7930      0.21349317
       5765.6785      0.40623279
       5766.5640      0.29362868
       5767.4495      0.30176797
       5768.3350      0.26818059
       5769.2205      0.17575854
       5770.1060      0.33200902
       5770.9915      0.16269159
       5771.8770      0.26989166
       5772.7625      0.33389748
       5773.6480      0.24818806
       5774.5335      0.26203479
       5775.4190      0.21466998
       5776.3045     0.097527903
       5777.1900      0.24294714
       5778.0755      0.25609066
       5778.9610      0.23383443
       5779.8465      0.18325176
       5780.7320      0.21999517
       5781.6175      0.19904042
       5782.5030      0.32518103
       5783.3885      0.28744480
       5784.2740      0.13674160
       5785.1596      0.20901144
       5786.0451      0.28732161
       5786.9306      0.38689081
       5787.8161      0.21781405
       5788.7016      0.23570452
       5789.5871     0.079925559
       5790.4726      0.24492775
       5791.3581     0.070674204
       5792.2436     0.057555957
       5793.1291    -0.077555874
       5794.0146      0.24465223
       5794.9001      0.28783024
       5795.7856      0.49321830
       5796.6711      0.52406572
       5797.5566      0.24294559
       5798.4421      0.39284428
       5799.3276      0.27317493
       5800.2131      0.25341978
       5801.0986      0.22084567
       5801.9841      0.25687916
       5802.8696      0.28391447
       5803.7551      0.28379560
       5804.6406      0.21196472
       5805.5261      0.29698054
       5806.4116      0.19484778
       5807.2971      0.26321415
       5808.1827      0.28923813
       5809.0682      0.24907496
       5809.9537      0.15775357
       5810.8392    -0.024945663
       5811.7247      0.32525163
       5812.6102     0.014018974
       5813.4957      0.21670432
       5814.3812      0.44976289
       5815.2667     0.075931786
       5816.1522     0.087498546
       5817.0377      0.16231461
       5817.9232      0.34852321
       5818.8087      0.30583448
       5819.6942      0.26078036
       5820.5797      0.21841535
       5821.4652      0.18937783
       5822.3507      0.22420287
       5823.2362      0.22293027
       5824.1217      0.26853824
       5825.0072      0.25980258
       5825.8927      0.26713148
       5826.7782      0.23796076
       5827.6637      0.28825056
       5828.5492      0.27904935
       5829.4347      0.23011990
       5830.3202      0.34380649
       5831.2057      0.28148420
       5832.0913      0.34205780
       5832.9768      0.29416979
       5833.8623      0.32276855
       5834.7478      0.23183517
       5835.6333     0.080252533
       5836.5188     -0.14597848
       5837.4043   -0.0065910172
       5838.2898      0.35720370
       5839.1753     0.047619092
       5840.0608      0.24696813
       5840.9463      0.34583511
       5841.8318      0.18101058
       5842.7173      0.27786286
       5843.6028      0.40027318
       5844.4883      0.36471040
       5845.3738      0.11422547
       5846.2593      0.20933394
       5847.1448      0.32546956
       5848.0303      0.18149662
       5848.9158      0.21191072
       5849.8013      0.34364256
       5850.6868      0.16380474
       5851.5723      0.29396636
       5852.4578      0.28579525
       5853.3433      0.15943263
       5854.2288      0.10593545
       5855.1143      0.27709832
       5855.9999      0.21322242
       5856.8854      0.26525273
       5857.7709      0.29303966
       5858.6564      0.22395372
       5859.5419      0.25652595
       5860.4274      0.10632484
       5861.3129      0.35394105
       5862.1984      0.10838143
       5863.0839     -0.10554677
       5863.9694      0.32624105
       5864.8549      0.23153249
       5865.7404      0.39261481
       5866.6259      0.20307928
       5867.5114      0.31381907
       5868.3969      0.29763227
       5869.2824      0.33728749
       5870.1679      0.35097425
       5871.0534      0.29240690
       5871.9389      0.23253806
       5872.8244      0.24308302
       5873.7099      0.19897550
       5874.5954      0.27031822
       5875.4809      0.27266668
       5876.3664      0.17073084
       5877.2519      0.30990319
       5878.1374      0.20804724
       5879.0230      0.25425914
       5879.9085      0.44210284
       5880.7940      0.45629518
       5881.6795      0.43644567
       5882.5650      0.21244723
       5883.4505      0.53798872
       5884.3360      0.17270815
       5885.2215      0.10380192
       5886.1070      0.19057931
       5886.9925      0.42974338
       5887.8780      0.31980719
       5888.7635      0.18845146
       5889.6490      0.40196309
       5890.5345      0.22169590
       5891.4200      0.34994560
       5892.3055      0.28182422
       5893.1910      0.33632652
       5894.0765      0.16719196
       5894.9620      0.13071064
       5895.8475      0.19023820
       5896.7330      0.41670240
       5897.6185      0.31812173
       5898.5040      0.15008441
       5899.3895      0.28790152
       5900.2750      0.20254131
       5901.1605      0.27166007
       5902.0460      0.28041432
       5902.9316      0.23494808
       5903.8171      0.24578472
       5904.7026      0.18547221
       5905.5881      0.30982409
       5906.4736      0.22280925
       5907.3591      0.42634490
       5908.2446      0.22287115
       5909.1301      0.24781001
       5910.0156      0.22201112
       5910.9011      0.25613315
       5911.7866      0.23221496
       5912.6721      0.27021882
       5913.5576      0.26072052
       5914.4431      0.26519700
       5915.3286      0.26081449
       5916.2141      0.20987088
       5917.0996      0.28256307
       5917.9851      0.41262599
       5918.8706      0.24294069
       5919.7561      0.35467489
       5920.6416      0.48143813
       5921.5271      0.45525189
       5922.4126      0.22775525
       5923.2981      0.13961523
       5924.1836      0.30380347
       5925.0691      0.25069078
       5925.9546      0.17520009
       5926.8402      0.12359377
       5927.7257      0.27882873
       5928.6112     0.069149713
       5929.4967      0.33092955
       5930.3822      0.21511639
       5931.2677      0.20167908
       5932.1532      0.38587923
       5933.0387      0.26174704
       5933.9242      0.19130817
       5934.8097      0.17426567
       5935.6952     0.057312823
       5936.5807      0.29095444
       5937.4662      0.32727378
       5938.3517      0.24516886
       5939.2372      0.47862126
       5940.1227      0.15557865
       5941.0082      0.51060251
       5941.8937     0.021760876
       5942.7792      0.29352725
       5943.6647      0.18068740
       5944.5502      0.35294059
       5945.4357     0.035254871
       5946.3212      0.29411956
       5947.2067      0.27668361
       5948.0922      0.24706487
       5948.9777      0.28147947
       5949.8633      0.22825007
       5950.7488      0.21410642
       5951.6343      0.28347689
       5952.5198      0.22264119
       5953.4053      0.24179549
       5954.2908      0.18144012
       5955.1763      0.18732025
       5956.0618      0.20436014
       5956.9473      0.35538602
       5957.8328      0.28790893
       5958.7183      0.15359766
       5959.6038      0.15246826
       5960.4893      0.19651106
       5961.3748      0.24616196
       5962.2603     0.093285878
       5963.1458     0.039319156
       5964.0313      0.19861926
       5964.9168      0.30734779
       5965.8023      0.14428675
       5966.6878      0.36101530
       5967.5733      0.28560222
       5968.4588      0.24996395
       5969.3443      0.43166308
       5970.2298      0.17118788
       5971.1153      0.21301659
       5972.0008      0.16952948
       5972.8863      0.21528496
       5973.7719      0.24288928
       5974.6574      0.30062778
       5975.5429      0.21130423
       5976.4284      0.26967983
       5977.3139      0.20137796
       5978.1994      0.20954775
       5979.0849      0.17661865
       5979.9704      0.24811486
       5980.8559      0.31561688
       5981.7414      0.19038465
       5982.6269      0.19975222
       5983.5124      0.37032465
       5984.3979      0.62202952
       5985.2834      0.40655995
       5986.1689      0.43194774
       5987.0544      0.52396224
       5987.9399      0.41650364
       5988.8254      0.29091388
       5989.7109      0.33924531
       5990.5964     0.054718330
       5991.4819     0.025803238
       5992.3674      0.31507616
       5993.2529      0.36387176
       5994.1384      0.26428433
       5995.0239      0.14413819
       5995.9094      0.31781952
       5996.7949      0.14987082
       5997.6805      0.16495375
       5998.5660      0.23650737
       5999.4515      0.22335671
       6000.3370      0.16622281
       6001.2225     0.047585025
       6002.1080      0.15889921
       6002.9935     0.090205741
       6003.8790      0.18792685
       6004.7645      0.21719407
       6005.6500      0.21490263
       6006.5355      0.29351151
       6007.4210      0.24467592
       6008.3065      0.29808530
       6009.1920      0.19126531
       6010.0775      0.31511158
       6010.9630      0.34877577
       6011.8485      0.24100040
       6012.7340      0.28535830
       6013.6195      0.24185531
       6014.5050      0.29389260
       6015.3905      0.31965604
       6016.2760      0.18972305
       6017.1615      0.33960494
       6018.0470      0.22628810
       6018.9325      0.27604474
       6019.8180      0.26304663
       6020.7036      0.26788485
       6021.5891      0.20794269
       6022.4746      0.18223536
       6023.3601      0.29494959
       6024.2456      0.28954105
       6025.1311      0.36124639
       6026.0166      0.16217281
       6026.9021      0.23247640
       6027.7876      0.20017957
       6028.6731      0.23660289
       6029.5586      0.26007652
       6030.4441      0.17997874
       6031.3296      0.25706059
       6032.2151      0.33849550
       6033.1006      0.22749715
       6033.9861      0.33723228
       6034.8716      0.24584530
       6035.7571      0.26287143
       6036.6426      0.30852600
       6037.5281      0.23576275
       6038.4136      0.34331197
       6039.2991      0.26523320
       6040.1846      0.40510605
       6041.0701      0.28641298
       6041.9556      0.31969982
       6042.8411      0.29331099
       6043.7266      0.25962515
       6044.6122      0.29757586
       6045.4977      0.27110460
       6046.3832      0.16647254
       6047.2687      0.30196202
       6048.1542      0.25107065
       6049.0397      0.22466933
       6049.9252      0.16125532
       6050.8107      0.21414156
       6051.6962      0.26551951
       6052.5817      0.22265470
       6053.4672      0.32753271
       6054.3527      0.18085782
       6055.2382      0.27035626
       6056.1237      0.20339260
       6057.0092      0.13346808
       6057.8947      0.17218163
       6058.7802      0.19740885
       6059.6657      0.22213464
       6060.5512      0.16407180
       6061.4367      0.17187519
       6062.3222      0.17557442
       6063.2077      0.21070074
       6064.0932      0.21086090
       6064.9787      0.32815306
       6065.8642      0.26082987
       6066.7497      0.27251475
       6067.6352      0.29982326
       6068.5208      0.27803601
       6069.4063      0.29503792
       6070.2918      0.24966531
       6071.1773      0.23538831
       6072.0628      0.20204482
       6072.9483      0.21083013
       6073.8338      0.31874577
       6074.7193      0.18983643
       6075.6048      0.26336790
       6076.4903      0.23615834
       6077.3758      0.11849186
       6078.2613     0.069103604
       6079.1468      0.18669169
       6080.0323      0.17280984
       6080.9178      0.20657116
       6081.8033      0.25278176
       6082.6888      0.33616411
       6083.5743      0.30191177
       6084.4598      0.26787219
       6085.3453      0.26463094
       6086.2308      0.36147950
       6087.1163      0.36397540
       6088.0018      0.21217289
       6088.8873      0.20055036
       6089.7728      0.29622024
       6090.6583      0.19038384
       6091.5439      0.23173452
       6092.4294      0.25046330
       6093.3149      0.14604766
       6094.2004      0.18954043
       6095.0859      0.23864264
       6095.9714      0.26488172
       6096.8569      0.27309661
       6097.7424      0.23243843
       6098.6279      0.23523027
       6099.5134      0.26305439
       6100.3989      0.35734519
       6101.2844      0.25065108
       6102.1699      0.31052749
       6103.0554      0.25048906
       6103.9409      0.21418316
       6104.8264      0.26643594
       6105.7119      0.19725272
       6106.5974      0.25040061
       6107.4829      0.24196352
       6108.3684      0.22684602
       6109.2539      0.23481823
       6110.1394      0.27195661
       6111.0249      0.22036240
       6111.9104      0.18511911
       6112.7959      0.26051761
       6113.6814      0.21128215
       6114.5669      0.24156687
       6115.4525      0.23791363
       6116.3380      0.18558829
       6117.2235      0.28858163
       6118.1090      0.23716042
       6118.9945      0.24087135
       6119.8800      0.14752250
       6120.7655      0.26581767
       6121.6510      0.20406683
       6122.5365      0.19999986
       6123.4220      0.22426212
       6124.3075      0.29892942
       6125.1930      0.26751192
       6126.0785      0.24951580
       6126.9640      0.29350097
       6127.8495      0.31554253
       6128.7350      0.23303909
       6129.6205      0.24783137
       6130.5060      0.29260217
       6131.3915      0.19495729
       6132.2770      0.19285256
       6133.1625      0.22484957
       6134.0480      0.18417188
       6134.9335      0.26511041
       6135.8190      0.27674496
       6136.7045      0.39667800
       6137.5900      0.29987591
       6138.4755      0.21343481
       6139.3611      0.26298401
       6140.2466      0.28873335
       6141.1321      0.24485501
       6142.0176      0.28426079
       6142.9031      0.24771912
       6143.7886      0.30926933
       6144.6741      0.22216261
       6145.5596      0.26921133
       6146.4451      0.31552273
       6147.3306      0.38698389
       6148.2161      0.23408831
       6149.1016      0.23157958
       6149.9871      0.24639585
       6150.8726      0.38658463
       6151.7581      0.33361551
       6152.6436      0.44840365
       6153.5291      0.19528187
       6154.4146      0.20748105
       6155.3001      0.20092455
       6156.1856      0.17609331
       6157.0711      0.37261118
       6157.9566      0.38285976
       6158.8421      0.21243034
       6159.7276      0.20258107
       6160.6131      0.18783068
       6161.4986      0.35941513
       6162.3842      0.20899963
       6163.2697      0.35806472
       6164.1552      0.30719009
       6165.0407      0.28505519
       6165.9262     0.079115052
       6166.8117      0.18028558
       6167.6972      0.28959153
       6168.5827      0.37869340
       6169.4682      0.23669670
       6170.3537      0.36647820
       6171.2392      0.25079475
       6172.1247      0.48008920
       6173.0102      0.18444931
       6173.8957      0.30791023
       6174.7812      0.31679151
       6175.6667      0.21799127
       6176.5522      0.15647512
       6177.4377      0.25102075
       6178.3232      0.13146970
       6179.2087      0.27025097
       6180.0942      0.27824062
       6180.9797      0.24308518
       6181.8652      0.18919414
       6182.7507      0.22191695
       6183.6362      0.19827269
       6184.5217      0.30967733
       6185.4072      0.22348536
       6186.2928      0.21862572
       6187.1783      0.34703850
       6188.0638      0.34752683
       6188.9493      0.29144372
       6189.8348      0.26447275
       6190.7203      0.27697946
       6191.6058      0.27530508
       6192.4913      0.30771186
       6193.3768      0.31259596
       6194.2623      0.25081042
       6195.1478      0.26062492
       6196.0333      0.30291129
       6196.9188      0.35439264
       6197.8043      0.22943249
       6198.6898      0.19960155
       6199.5753      0.34051177
       6200.4608      0.64131399
       6201.3463      0.28517188
       6202.2318      0.30399371
       6203.1173      0.60857723
       6204.0028      0.38427236
       6204.8883      0.39648000
       6205.7738     0.035762972
       6206.6593      0.18557192
       6207.5448     0.034966034
       6208.4303      0.27240495
       6209.3158      0.30445164
       6210.2014    0.0069714534
       6211.0869      0.26046717
       6211.9724      0.24773148
       6212.8579      0.35190507
       6213.7434      0.30236921
       6214.6289      0.27015105
       6215.5144      0.20467464
       6216.3999      0.28978857
       6217.2854      0.34071867
       6218.1709      0.19855881
       6219.0564      0.26268073
       6219.9419      0.16686890
       6220.8274      0.16228415
       6221.7129      0.26589266
       6222.5984      0.28678849
       6223.4839      0.26449335
       6224.3694      0.24655275
       6225.2549      0.20180430
       6226.1404      0.29366471
       6227.0259      0.22537950
       6227.9114      0.20335490
       6228.7969      0.32363807
       6229.6824      0.37762397
       6230.5679      0.46436240
       6231.4534      0.45355440
       6232.3389      0.12037895
       6233.2245      0.26773198
       6234.1100      0.23492970
       6234.9955      0.26639884
       6235.8810      0.17905082
       6236.7665      0.15977316
       6237.6520      0.27942486
       6238.5375      0.34183688
       6239.4230      0.28364658
       6240.3085      0.21789281
       6241.1940      0.17849897
       6242.0795      0.17584780
       6242.9650    0.0096166239
       6243.8505      0.14095789
       6244.7360     0.041045542
       6245.6215      0.10329325
       6246.5070      0.28709959
       6247.3925      0.16207810
       6248.2780      0.32875997
       6249.1635      0.22045632
       6250.0490      0.25578730
       6250.9345      0.25830799
       6251.8200      0.23269594
       6252.7055      0.39387184
       6253.5910      0.35128495
       6254.4765      0.36747699
       6255.3620      0.32317368
       6256.2475      0.47722500
       6257.1331     0.013107693
       6258.0186      0.26535930
       6258.9041      0.37339179
       6259.7896      0.19282091
       6260.6751      0.33145604
       6261.5606      0.28461328
       6262.4461      0.13361766
       6263.3316      0.23690889
       6264.2171      0.18397632
       6265.1026      0.28572216
       6265.9881    -0.049188861
       6266.8736     -0.10083214
       6267.7591    -0.021230976
       6268.6446      0.17839645
       6269.5301      0.24971773
       6270.4156      0.37681975
       6271.3011      0.34763979
       6272.1866      0.19443173
       6273.0721      0.26339413
       6273.9576      0.20490644
       6274.8431      0.23972463
       6275.7286      0.30364306
       6276.6141      0.24592319
       6277.4996      0.25545857
       6278.3851      0.18103415
       6279.2706      0.24483003
       6280.1561      0.59223531
       6281.0417      0.33929977
       6281.9272      0.24913596
       6282.8127      0.18182036
       6283.6982      0.28929382
       6284.5837      0.16532451
       6285.4692     0.019946545
       6286.3547      0.28691667
       6287.2402      0.21067561
       6288.1257      0.32522800
       6289.0112      0.20211862
       6289.8967      0.29484660
       6290.7822      0.41720487
       6291.6677      0.21062583
       6292.5532      0.23346581
       6293.4387      0.53210330
       6294.3242      0.18863639
       6295.2097      0.52102771
       6296.0952      0.21327093
       6296.9807      0.21423710
       6297.8662      0.17180056
       6298.7517      0.29235983
       6299.6372      0.28876870
       6300.5227      0.34556518
       6301.4082      0.33069280
       6302.2937      0.31231535
       6303.1792      0.28199356
       6304.0648      0.23215028
       6304.9503      0.33739198
       6305.8358      0.30386548
       6306.7213      0.22613439
       6307.6068      0.35280112
       6308.4923      0.27395567
       6309.3778      0.25809238
       6310.2633      0.20707289
       6311.1488      0.26351304
       6312.0343      0.24507570
       6312.9198      0.27063621
       6313.8053      0.37474784
       6314.6908      0.13057442
       6315.5763      0.26914154
       6316.4618      0.21924794
       6317.3473      0.36485312
       6318.2328      0.36772900
       6319.1183      0.38150740
       6320.0038      0.21201352
       6320.8893      0.18977480
       6321.7748      0.31554130
       6322.6603      0.46945690
       6323.5458      0.26077311
       6324.4313      0.17987331
       6325.3168      0.32373822
       6326.2023      0.31851365
       6327.0878      0.29358354
       6327.9734      0.28046441
       6328.8589      0.30074840
       6329.7444      0.36998548
       6330.6299      0.20129613
       6331.5154      0.32397276
       6332.4009      0.17528277
       6333.2864      0.27369876
       6334.1719      0.27353299
       6335.0574      0.35085285
       6335.9429      0.36916955
       6336.8284      0.29963721
       6337.7139      0.20297766
       6338.5994      0.32136859
       6339.4849      0.28475905
       6340.3704      0.31855172
       6341.2559      0.30128984
       6342.1414      0.25598245
       6343.0269      0.25498755
       6343.9124      0.25692291
       6344.7979      0.28832962
       6345.6834      0.43257560
       6346.5689      0.34052246
       6347.4544      0.20055247
       6348.3399      0.19099808
       6349.2254      0.31399777
       6350.1109      0.32703443
       6350.9964      0.28942371
       6351.8820      0.26511120
       6352.7675      0.36085160
       6353.6530      0.39421348
       6354.5385      0.33806789
       6355.4240      0.46400453
       6356.3095      0.39914960
       6357.1950      0.23186661
       6358.0805      0.41540831
       6358.9660      0.37080852
       6359.8515      0.31574111
       6360.7370      0.33642005
       6361.6225      0.24750313
       6362.5080      0.27557130
       6363.3935      0.35240976
       6364.2790      0.17852766
       6365.1645      0.32314464
       6366.0500      0.25092265
       6366.9355      0.28069280
       6367.8210      0.18822835
       6368.7065      0.27291169
       6369.5920      0.23009817
       6370.4775      0.26909916
       6371.3630      0.28743276
       6372.2485      0.27501747
       6373.1340      0.17010170
       6374.0195      0.20814573
       6374.9051      0.25832019
       6375.7906      0.30129086
       6376.6761      0.31135812
       6377.5616      0.26850609
       6378.4471      0.19888002
       6379.3326      0.22717550
       6380.2181      0.27010789
       6381.1036      0.32069968
       6381.9891      0.23539427
       6382.8746      0.14642453
       6383.7601      0.16599600
       6384.6456      0.11329536
       6385.5311      0.26945567
       6386.4166      0.23305502
       6387.3021      0.19150757
       6388.1876      0.17457187
       6389.0731      0.19316729
       6389.9586      0.27337729
       6390.8441      0.47049650
       6391.7296      0.28137410
       6392.6151      0.37112558
       6393.5006      0.30819835
       6394.3861      0.35364552
       6395.2716      0.25602114
       6396.1571      0.22459154
       6397.0426      0.30884561
       6397.9281      0.30202555
       6398.8137      0.34267608
       6399.6992      0.41800210
       6400.5847      0.22909163
       6401.4702      0.38500357
       6402.3557      0.25976546
       6403.2412      0.30666079
       6404.1267      0.29082618
       6405.0122    -0.022592733
       6405.8977      0.35923852
       6406.7832      0.21213525
       6407.6687      0.50827264
       6408.5542      0.37659071
       6409.4397      0.74582586
       6410.3252       1.0768871
       6411.2107       1.1590450
       6412.0962       1.2039608
       6412.9817       1.3557405
       6413.8672      0.58389807
       6414.7527      0.28357946
       6415.6382     -0.15007203
       6416.5237     -0.51713384
       6417.4092     -0.42777443
       6418.2947     -0.43776010
       6419.1802     -0.18371467
       6420.0657      0.39264168
       6420.9512      0.10070202
       6421.8367      0.42218903
       6422.7223      0.29395990
       6423.6078      0.18594875
       6424.4933      0.33419905
       6425.3788      0.34470836
       6426.2643      0.38843506
       6427.1498      0.47970547
       6428.0353      0.18069414
       6428.9208      0.24914682
       6429.8063      0.33366856
       6430.6918      0.15299323
       6431.5773      0.28467672
       6432.4628      0.36831186
       6433.3483      0.58159014
       6434.2338     0.035217885
       6435.1193      0.13745036
       6436.0048      0.13846040
       6436.8903      0.27081322
       6437.7758      0.51398971
       6438.6613   -0.0019367259
       6439.5468      0.26430842
       6440.4323      0.45893531
       6441.3178     0.055816760
       6442.2033    -0.095262145
       6443.0888      0.35693581
       6443.9743      0.50537594
       6444.8598      0.35913746
       6445.7454      0.27704288
       6446.6309      0.16934542
       6447.5164      0.24342166
       6448.4019      0.53410596
       6449.2874      0.29614011
       6450.1729      0.29263167
       6451.0584      0.28895872
       6451.9439      0.19308988
       6452.8294      0.41741828
       6453.7149      0.29180298
       6454.6004      0.23428290
       6455.4859      0.19028875
       6456.3714      0.31618371
       6457.2569      0.13312197
       6458.1424      0.17799389
       6459.0279      0.27531321
       6459.9134      0.35347418
       6460.7989      0.32212199
       6461.6844      0.26275556
       6462.5699      0.38343993
       6463.4554      0.31032077
       6464.3409      0.32261229
       6465.2264      0.29589113
       6466.1119      0.27772016
       6466.9974      0.24551014
       6467.8829      0.24676901
       6468.7684      0.17761147
       6469.6540      0.18932803
       6470.5395      0.30409368
       6471.4250      0.36756897
       6472.3105      0.18713381
       6473.1960      0.35222289
       6474.0815      0.21308371
       6474.9670      0.26969159
       6475.8525      0.26778744
       6476.7380      0.21013533
       6477.6235      0.21188783
       6478.5090      0.24644370
       6479.3945      0.30370939
       6480.2800      0.40604694
       6481.1655      0.36471681
       6482.0510      0.27410515
       6482.9365      0.25161573
       6483.8220      0.30886363
       6484.7075      0.19409670
       6485.5930      0.23695815
       6486.4785      0.31967479
       6487.3640      0.33312020
       6488.2495      0.32260318
       6489.1350      0.33675032
       6490.0205      0.21983916
       6490.9060      0.33860437
       6491.7915      0.24772153
       6492.6770      0.33150035
       6493.5626      0.33860174
       6494.4481      0.19664382
       6495.3336      0.19225602
       6496.2191      0.20566422
       6497.1046      0.25256348
       6497.9901      0.21222741
       6498.8756      0.30017348
       6499.7611      0.21164008
       6500.6466      0.26035305
       6501.5321      0.20685050
       6502.4176      0.30765360
       6503.3031      0.23269770
       6504.1886      0.22598907
       6505.0741      0.18808318
       6505.9596      0.30797444
       6506.8451      0.23738530
       6507.7306      0.32853256
       6508.6161      0.15580013
       6509.5016      0.20319819
       6510.3871      0.39829102
       6511.2726      0.39113269
       6512.1581      0.50270803
       6513.0436      0.11398206
       6513.9291      0.29991245
       6514.8146      0.50236634
       6515.7001      0.33330002
       6516.5857      0.45414533
       6517.4712      0.53553828
       6518.3567      0.32487038
       6519.2422      0.32790449
       6520.1277      0.38800113
       6521.0132   -0.0075268173
       6521.8987      0.36425011
       6522.7842      0.31784039
       6523.6697      0.31255115
       6524.5552      0.27176592
       6525.4407      0.44603872
       6526.3262      0.31238423
       6527.2117      0.21044105
       6528.0972      0.19105850
       6528.9827      0.22064094
       6529.8682      0.22551019
       6530.7537     0.085151928
       6531.6392      0.28942920
       6532.5247      0.54927270
       6533.4102      0.22024184
       6534.2957     0.083540636
       6535.1812     0.070148624
       6536.0667      0.21979836
       6536.9522      0.31521999
       6537.8377      0.28099066
       6538.7232      0.24755643
       6539.6087      0.37018251
       6540.4943      0.39514195
       6541.3798      0.36809453
       6542.2653      0.34520175
       6543.1508      0.35122161
       6544.0363      0.33083827
       6544.9218      0.40954559
       6545.8073      0.37964207
       6546.6928      0.53397052
       6547.5783      0.43916723
       6548.4638      0.34477779
       6549.3493      0.29566052
       6550.2348      0.31599758
       6551.1203      0.35653860
       6552.0058      0.34085898
       6552.8913      0.28415774
       6553.7768      0.40604393
       6554.6623      0.30716247
       6555.5478      0.38785657
       6556.4333      0.21454766
       6557.3188      0.42105282
       6558.2043      0.20667092
       6559.0898     0.012308771
       6559.9753      0.11669480
       6560.8608      0.83709403
       6561.7463     -0.12612389
       6562.6318      0.39238885
       6563.5173      0.14509433
       6564.4029      0.50034690
       6565.2884      0.94441012
       6566.1739       1.1714142
       6567.0594       1.2568384
       6567.9449      0.88635484
       6568.8304       1.0843698
       6569.7159      0.68322275
       6570.6014      0.43297222
       6571.4869      0.29431755
       6572.3724      0.17822825
       6573.2579      0.19396907
       6574.1434      0.25225636
       6575.0289      0.24553183
       6575.9144      0.26406654
       6576.7999      0.42468843
       6577.6854      0.50297963
       6578.5709      0.43810856
       6579.4564      0.32551808
       6580.3419      0.25567001
       6581.2274      0.36976238
       6582.1129      0.26700353
       6582.9984      0.28590746
       6583.8839      0.36735256
       6584.7694      0.39612410
       6585.6549      0.49275131
       6586.5404      0.46938986
       6587.4260      0.78271390
       6588.3115      0.83378702
       6589.1970      0.65257643
       6590.0825      0.70769158
       6590.9680      0.40267960
       6591.8535      0.52179692
       6592.7390      0.41444177
       6593.6245      0.28009589
       6594.5100      0.24021612
       6595.3955      0.22440878
       6596.2810      0.33028061
       6597.1665      0.32964563
       6598.0520      0.33058179
       6598.9375      0.29894036
       6599.8230      0.23823496
       6600.7085      0.36916606
       6601.5940      0.38687326
       6602.4795      0.38622367
       6603.3650      0.33728819
       6604.2505      0.39423585
       6605.1360     0.050086300
       6606.0215      0.51962992
       6606.9070      0.37682891
       6607.7925      0.26635753
       6608.6780      0.39631224
       6609.5635      0.26874227
       6610.4490      0.21888382
       6611.3346      0.22378654
       6612.2201      0.30260268
       6613.1056      0.49628598
       6613.9911      0.45602206
       6614.8766      0.40703105
       6615.7621      0.36628914
       6616.6476      0.33503905
       6617.5331      0.35955360
       6618.4186      0.45041521
       6619.3041      0.35879643
       6620.1896      0.35352250
       6621.0751      0.19183693
       6621.9606      0.22005983
       6622.8461      0.28485535
       6623.7316      0.35669185
       6624.6171      0.11065605
       6625.5026      0.36767838
       6626.3881      0.13822123
       6627.2736      0.28523637
       6628.1591     -0.10513942
       6629.0446      0.19120200
       6629.9301     -0.46605827
       6630.8156    -0.062329936
       6631.7011      0.18334925
       6632.5866      0.27577410
       6633.4721      0.22136912
       6634.3576      0.24840732
       6635.2432      0.30262874
       6636.1287      0.33878014
       6637.0142      0.28843031
       6637.8997      0.21986304
       6638.7852      0.31715163
       6639.6707      0.24856672
       6640.5562      0.27347560
       6641.4417      0.30422414
       6642.3272      0.27880297
       6643.2127      0.49452305
       6644.0982      0.34192170
       6644.9837      0.58421663
       6645.8692      0.10389452
       6646.7547      0.47837043
       6647.6402      0.50614007
       6648.5257      0.32927911
       6649.4112      0.20018201
       6650.2967      0.27511555
       6651.1822      0.36293562
       6652.0677      0.29020544
       6652.9532      0.31898325
       6653.8387      0.47194041
       6654.7242      0.36513050
       6655.6097      0.53641553
       6656.4952      0.24012872
       6657.3807      0.44871730
       6658.2663     0.041950697
       6659.1518      0.25675379
       6660.0373      0.37393842
       6660.9228      0.33212742
       6661.8083      0.29952823
       6662.6938      0.28100613
       6663.5793      0.23557817
       6664.4648      0.24812774
       6665.3503      0.26205450
       6666.2358      0.33952298
       6667.1213      0.29773920
       6668.0068      0.29434501
       6668.8923      0.36611926
       6669.7778      0.25609932
       6670.6633      0.32198087
       6671.5488      0.22615578
       6672.4343      0.39179074
       6673.3198      0.33707513
       6674.2053      0.37905521
       6675.0908      0.31433727
       6675.9763      0.29918737
       6676.8618      0.23945799
       6677.7473      0.28701101
       6678.6328      0.15402470
       6679.5183      0.14665200
       6680.4038      0.13140195
       6681.2893      0.28076158
       6682.1749      0.26250268
       6683.0604      0.27601503
       6683.9459      0.31048017
       6684.8314      0.28146896
       6685.7169      0.56673174
       6686.6024      0.44071311
       6687.4879      0.50066777
       6688.3734    -0.022370773
       6689.2589      0.44651798
       6690.1444      0.48836041
       6691.0299      0.21975787
       6691.9154      0.12431346
       6692.8009      0.33350418
       6693.6864      0.27251443
       6694.5719      0.35905532
       6695.4574      0.30699718
       6696.3429      0.33883706
       6697.2284      0.41858391
       6698.1139      0.32363828
       6698.9994      0.27950459
       6699.8849      0.20641414
       6700.7704      0.24876175
       6701.6559      0.25432642
       6702.5414      0.24294356
       6703.4269      0.32827918
       6704.3124      0.32832411
       6705.1979      0.29442157
       6706.0835      0.27333371
       6706.9690      0.29672195
       6707.8545      0.33046536
       6708.7400      0.37735277
       6709.6255      0.26254906
       6710.5110      0.27240375
       6711.3965      0.26338547
       6712.2820      0.28914862
       6713.1675      0.28418306
       6714.0530      0.22174271
       6714.9385      0.19774119
       6715.8240      0.20518406
       6716.7095      0.71803783
       6717.5950      0.96250342
       6718.4805      0.65925592
       6719.3660      0.55893529
       6720.2515      0.55810567
       6721.1370      0.33041064
       6722.0225      0.49476448
       6722.9080      0.52515404
       6723.7935      0.41973831
       6724.6790      0.43704365
       6725.5645      0.31911652
       6726.4500      0.22613911
       6727.3355      0.39633567
       6728.2210      0.22575934
       6729.1066      0.29313948
       6729.9921      0.32510013
       6730.8776      0.41682194
       6731.7631      0.40494954
       6732.6486      0.51497247
       6733.5341      0.48847702
       6734.4196      0.50025964
       6735.3051      0.43410541
       6736.1906      0.34674652
       6737.0761      0.41464140
       6737.9616      0.37308093
       6738.8471      0.35550354
       6739.7326      0.38977907
       6740.6181      0.60813809
       6741.5036      0.52937682
       6742.3891      0.50786241
       6743.2746      0.41468728
       6744.1601      0.35458338
       6745.0456      0.35168437
       6745.9311      0.30814029
       6746.8166      0.20026582
       6747.7021      0.27554133
       6748.5876      0.30445347
       6749.4731      0.24604983
       6750.3586      0.27150621
       6751.2441      0.27022168
       6752.1296      0.27732416
       6753.0152      0.36393977
       6753.9007      0.33362303
       6754.7862      0.38116876
       6755.6717      0.31800346
       6756.5572      0.33250286
       6757.4427      0.47757171
       6758.3282      0.32734624
       6759.2137      0.35265140
       6760.0992      0.33104606
       6760.9847      0.25832572
       6761.8702      0.34085841
       6762.7557      0.40732468
       6763.6412      0.34449991
       6764.5267      0.43082303
       6765.4122      0.34290839
       6766.2977      0.23815407
       6767.1832      0.19274398
       6768.0687      0.42183052
       6768.9542      0.33236891
       6769.8397      0.28744438
       6770.7252      0.20291062
       6771.6107      0.26100561
       6772.4962      0.34283134
       6773.3817      0.31574602
       6774.2672      0.31941388
       6775.1527      0.37911430
       6776.0382      0.36335351
       6776.9238      0.34853110
       6777.8093      0.27762492
       6778.6948      0.34734733
       6779.5803      0.39863109
       6780.4658      0.33686077
       6781.3513      0.29326894
       6782.2368      0.32273008
       6783.1223      0.36814515
       6784.0078      0.34984086
       6784.8933      0.34775176
       6785.7788      0.32563294
       6786.6643      0.33345543
       6787.5498      0.33334870
       6788.4353      0.31462842
       6789.3208      0.34160135
       6790.2063      0.38042460
       6791.0918      0.26727172
       6791.9773      0.36510559
       6792.8628      0.35870634
       6793.7483      0.38195794
       6794.6338      0.34180382
       6795.5193      0.36428052
       6796.4048      0.37300614
       6797.2903      0.36391435
       6798.1758      0.37481243
       6799.0613      0.37555163
       6799.9469      0.24195200
       6800.8324      0.20075038
       6801.7179     0.046133475
       6802.6034     0.068826295
       6803.4889      0.31040477
       6804.3744      0.43018060
       6805.2599      0.67409608
       6806.1454      0.71870858
       6807.0309      0.82389053
       6807.9164      0.50980065
       6808.8019      0.23157219
       6809.6874      0.19589211
       6810.5729      0.22602822
       6811.4584      0.29072552
       6812.3439      0.42917632
       6813.2294      0.37302207
       6814.1149      0.27827652
       6815.0004      0.27029911
       6815.8859      0.20261577
       6816.7714      0.31372920
       6817.6569      0.31258633
       6818.5424      0.29295563
       6819.4279      0.32195562
       6820.3134      0.28993716
       6821.1989      0.35694826
       6822.0844      0.37513226
       6822.9699      0.31533612
       6823.8555      0.32191016
       6824.7410      0.32371258
       6825.6265      0.24043981
       6826.5120      0.37512853
       6827.3975      0.40926292
       6828.2830      0.34041443
       6829.1685      0.43925299
       6830.0540      0.32743915
       6830.9395      0.33406067
       6831.8250      0.35662532
       6832.7105      0.25996007
       6833.5960      0.29102153
       6834.4815      0.29717086
       6835.3670      0.42788863
       6836.2525      0.36408003
       6837.1380      0.35078255
       6838.0235      0.45296622
       6838.9090      0.32813347
       6839.7945      0.40125726
       6840.6800      0.36567090
       6841.5655      0.36879580
       6842.4510      0.36770396
       6843.3365      0.32631670
       6844.2220      0.33997230
       6845.1075      0.28151030
       6845.9930      0.29953884
       6846.8785      0.32377271
       6847.7641      0.34741453
       6848.6496      0.30577862
       6849.5351      0.26577562
       6850.4206      0.43680681
       6851.3061      0.43201122
       6852.1916      0.40546418
       6853.0771      0.23952934
       6853.9626      0.30093557
       6854.8481      0.24180981
       6855.7336      0.26780785
       6856.6191      0.41350236
       6857.5046      0.47756946
       6858.3901      0.35093930
       6859.2756      0.34077183
       6860.1611      0.30794785
       6861.0466      0.39266401
       6861.9321      0.29045197
       6862.8176      0.40960045
       6863.7031      0.27104663
       6864.5886      0.35144952
       6865.4741      0.31398361
       6866.3596      0.33161234
       6867.2451      0.35532659
       6868.1306      0.40554112
       6869.0161      0.37211453
       6869.9016      0.31366739
       6870.7872      0.41394088
       6871.6727      0.42528756
       6872.5582      0.40904644
       6873.4437      0.35487473
       6874.3292      0.24674351
       6875.2147      0.35064872
       6876.1002      0.37793661
       6876.9857      0.35593521
       6877.8712      0.37355894
       6878.7567      0.30307736
       6879.6422      0.34164661
       6880.5277      0.38125384
       6881.4132      0.32710177
       6882.2987      0.33929344
       6883.1842      0.34612449
       6884.0697      0.24777744
       6884.9552      0.35382997
       6885.8407      0.34356467
       6886.7262      0.26568441
       6887.6117      0.39374061
       6888.4972      0.30465789
       6889.3827      0.30692930
       6890.2682      0.31749509
       6891.1537      0.42709892
       6892.0392      0.34367316
       6892.9247      0.34040170
       6893.8102      0.35116965
       6894.6958      0.31141522
       6895.5813      0.31099445
       6896.4668      0.35422472
       6897.3523      0.30720638
       6898.2378      0.25246535
       6899.1233      0.26502589
       6900.0088      0.42403380
       6900.8943      0.34201744
       6901.7798      0.38280758
       6902.6653      0.30639344
       6903.5508      0.39055456
       6904.4363      0.44436177
       6905.3218      0.42922993
       6906.2073      0.31765601
       6907.0928      0.31711669
       6907.9783      0.44214532
       6908.8638      0.27812938
       6909.7493      0.34051222
       6910.6348      0.34327815
       6911.5203      0.30659118
       6912.4058      0.21655725
       6913.2913      0.49999893
       6914.1768      0.62181606
       6915.0623      0.62895510
       6915.9478     0.067930770
       6916.8333     -0.23614879
       6917.7188     -0.13308393
       6918.6044      0.17545049
       6919.4899      0.43430671
       6920.3754     -0.13593850
       6921.2609     0.063441290
       6922.1464      0.38412835
       6923.0319      0.40919151
       6923.9174      0.44216872
       6924.8029      0.20777124
       6925.6884      0.77134464
       6926.5739      0.56821334
       6927.4594      0.10188312
       6928.3449   -0.0033387709
       6929.2304      0.38564709
       6930.1159      0.27853788
       6931.0014      0.26472923
       6931.8869      0.31201887
       6932.7724      0.30615973
       6933.6579      0.18488316
       6934.5434      0.21424600
       6935.4289    0.0085566370
       6936.3144      0.23744696
       6937.1999      0.43412454
       6938.0854      0.20973080
       6938.9709      0.13766598
       6939.8564      0.24306798
       6940.7419      0.35977207
       6941.6275      0.12656121
       6942.5130      0.16976816
       6943.3985      0.30925777
       6944.2840      0.37456459
       6945.1695      0.31105055
       6946.0550      0.26712612
       6946.9405      0.18951980
       6947.8260      0.16149798
       6948.7115      0.19262690
       6949.5970      0.19668300
       6950.4825      0.23797445
       6951.3680      0.21576902
       6952.2535      0.19468172
       6953.1390      0.23203914
       6954.0245      0.30779328
       6954.9100      0.29628149
       6955.7955      0.38540475
       6956.6810      0.32382932
       6957.5665      0.28598374
       6958.4520      0.19518944
       6959.3375      0.21861970
       6960.2230      0.18880741
       6961.1085      0.24678842
       6961.9940      0.52304754
       6962.8795      0.50343187
       6963.7650      0.10076780
       6964.6505      0.23205149
       6965.5361     -0.31820148
       6966.4216     -0.36991330
       6967.3071     -0.95507128
       6968.1926     0.026232110
       6969.0781      0.30520246
       6969.9636      0.23016803
       6970.8491      0.21259115
       6971.7346      0.15253430
       6972.6201      0.14511909
       6973.5056      0.33198800
       6974.3911      0.37044737
       6975.2766      0.27711888
       6976.1621      0.24897755
       6977.0476      0.23489281
       6977.9331      0.33473626
       6978.8186      0.34017359
       6979.7041      0.33437027
       6980.5896      0.31362921
       6981.4751      0.25700045
       6982.3606      0.48458333
       6983.2461      0.28776570
       6984.1316     0.011723224
       6985.0171     0.079547647
       6985.9026    0.0092546266
       6986.7881     0.045980737
       6987.6736      0.31902958
       6988.5591      0.32365690
       6989.4447      0.24066548
       6990.3302      0.28279301
       6991.2157      0.30262678
       6992.1012      0.29595827
       6992.9867      0.27779278
       6993.8722      0.27380305
       6994.7577      0.51571950
       6995.6432      0.24412717
       6996.5287      0.28374015
       6997.4142      0.34599738
       6998.2997      0.48159954
       6999.1852     0.021790869
       7000.0707      0.26579941
       7000.9562      0.36165108
       7001.8417      0.27574529
       7002.7272      0.13480769
       7003.6127      0.18859189
       7004.4982      0.22250102
       7005.3837      0.24103143
       7006.2692      0.28399445
       7007.1547      0.33192857
       7008.0402      0.37897059
       7008.9257      0.25559196
       7009.8112      0.57926158
       7010.6967      0.82296288
       7011.5822      0.55204442
       7012.4678      0.51518250
       7013.3533     -0.11383553
       7014.2388     -0.41316113
       7015.1243     0.066019777
       7016.0098      0.32858975
       7016.8953      0.33300928
       7017.7808      0.20771478
       7018.6663      0.20406965
       7019.5518      0.11672475
       7020.4373      0.18446722
       7021.3228      0.32035472
       7022.2083      0.30114637
       7023.0938      0.46595578
       7023.9793      0.26046773
       7024.8648      0.42740046
       7025.7503      0.83997806
       7026.6358      0.61194308
       7027.5213      0.51499389
       7028.4068      0.21574183
       7029.2923      0.21120265
       7030.1778      0.28042042
       7031.0633      0.37044403
       7031.9488      0.37286909
       7032.8343      0.29232616
       7033.7198      0.24631604
       7034.6053      0.19205441
       7035.4908      0.26871110
       7036.3764      0.40043873
       7037.2619      0.39818026
       7038.1474      0.99451794
       7039.0329      0.97938871
       7039.9184      0.62122377
       7040.8039      0.54531519
       7041.6894     0.023739636
       7042.5749     -0.17638776
       7043.4604     0.041700086
       7044.3459      0.19466451
       7045.2314      0.38431541
       7046.1169      0.39339461
       7047.0024      0.28901567
       7047.8879      0.35874784
       7048.7734      0.22740664
       7049.6589      0.22146935
       7050.5444      0.17983134
       7051.4299      0.39233552
       7052.3154      0.29213131
       7053.2009      0.32994626
       7054.0864      0.19074663
       7054.9719      0.36468523
       7055.8574      0.39856401
       7056.7429    -0.012863483
       7057.6284   -0.0075470049
       7058.5139      0.70298990
       7059.3994     0.018219506
       7060.2850    0.0041955425
       7061.1705     0.012486446
       7062.0560      0.13706727
       7062.9415      0.25946860
       7063.8270      0.33330522
       7064.7125      0.22924065
       7065.5980      0.17526254
       7066.4835      0.27251442
       7067.3690      0.29253876
       7068.2545      0.23868807
       7069.1400     -0.10184913
       7070.0255      0.39476255
       7070.9110      0.49025103
       7071.7965    0.0019503385
       7072.6820      0.28629119
       7073.5675    -0.017388600
       7074.4530      0.39771863
       7075.3385      0.30933727
       7076.2240      0.35407484
       7077.1095      0.34544900
       7077.9950      0.30802446
       7078.8805      0.17478047
       7079.7660      0.43043464
       7080.6515      0.25256241
       7081.5370      0.37871242
       7082.4225      0.27143346
       7083.3081      0.41755450
       7084.1936      0.34732068
       7085.0791      0.10639405
       7085.9646      0.22045494
       7086.8501      0.28047403
       7087.7356      0.25890555
       7088.6211      0.20960106
       7089.5066      0.26264700
       7090.3921      0.29306733
       7091.2776      0.26555582
       7092.1631      0.34270448
       7093.0486    -0.024258667
       7093.9341     0.074550440
       7094.8196     0.071690766
       7095.7051      0.12316278
       7096.5906      0.75764593
       7097.4761      0.49058162
       7098.3616      0.27045014
       7099.2471      0.47422457
       7100.1326      0.38132140
       7101.0181      0.18243817
       7101.9036      0.19119655
       7102.7891      0.30531736
       7103.6746      0.56968564
       7104.5601      0.10044708
       7105.4456   -0.0052655967
       7106.3311      0.18887896
       7107.2167      0.47840434
       7108.1022      0.53253338
       7108.9877      0.34328000
       7109.8732      0.28125885
       7110.7587      0.36406164
       7111.6442      0.32515087
       7112.5297      0.27948513
       7113.4152      0.25876959
       7114.3007      0.35957701
       7115.1862      0.34211286
       7116.0717      0.22931649
       7116.9572      0.25417584
       7117.8427      0.24837798
       7118.7282      0.32202657
       7119.6137      0.31344565
       7120.4992      0.37685155
       7121.3847      0.33975395
       7122.2702      0.31185960
       7123.1557      0.30586948
       7124.0412      0.26648353
       7124.9267      0.34322093
       7125.8122      0.36816340
       7126.6977      0.35313378
       7127.5832      0.33383510
       7128.4687      0.38492829
       7129.3542      0.26581550
       7130.2397      0.38506764
       7131.1253      0.39662197
       7132.0108      0.33805216
       7132.8963      0.38840379
       7133.7818      0.42860128
       7134.6673      0.41586728
       7135.5528      0.16599214
       7136.4383      0.25812719
       7137.3238      0.39430492
       7138.2093      0.37747305
       7139.0948      0.31215715
       7139.9803      0.45155794
       7140.8658      0.32428585
       7141.7513      0.31806259
       7142.6368      0.46485054
       7143.5223      0.39454371
       7144.4078    -0.052161075
       7145.2933      0.29327868
       7146.1788      0.13966309
       7147.0643      0.31613087
       7147.9498      0.16241662
       7148.8353      0.21023374
       7149.7208      0.34161748
       7150.6063      0.32416577
       7151.4918      0.30432067
       7152.3773      0.35125094
       7153.2628      0.40184902
       7154.1484      0.30077740
       7155.0339      0.36503245
       7155.9194      0.35190212
       7156.8049      0.31268195
       7157.6904      0.29721746
       7158.5759      0.31909973
       7159.4614      0.32348112
       7160.3469      0.37362795
       7161.2324      0.35232419
       7162.1179      0.32919166
       7163.0034      0.37506599
       7163.8889      0.36589966
       7164.7744      0.32760460
       7165.6599      0.24522414
       7166.5454      0.45750812
       7167.4309      0.38348431
       7168.3164      0.35775390
       7169.2019      0.40104277
       7170.0874      0.29180931
       7170.9729      0.33302580
       7171.8584      0.39982822
       7172.7439      0.42984342
       7173.6294      0.54606976
       7174.5149      0.54347641
       7175.4004      0.42891541
       7176.2859      0.24466962
       7177.1714      0.23380704
       7178.0570      0.28324357
       7178.9425      0.38464517
       7179.8280      0.41964550
       7180.7135      0.19359386
       7181.5990     0.088536196
       7182.4845      0.14194266
       7183.3700     0.087007919
       7184.2555      0.25368745
       7185.1410      0.29605437
       7186.0265      0.31885245
       7186.9120      0.26140852
       7187.7975      0.47504979
       7188.6830      0.34086897
       7189.5685      0.28662682
       7190.4540      0.49436720
       7191.3395      0.54805578
       7192.2250      0.69156533
       7193.1105      0.45602110
       7193.9960      0.29561069
       7194.8815      0.36679634
       7195.7670      0.32878054
       7196.6525      0.39968183
       7197.5380      0.13999790
       7198.4235     0.077023081
       7199.3090      0.31232031
       7200.1945      0.46719627
       7201.0800      0.44331453
       7201.9656    -0.032455761
       7202.8511      0.49338463
       7203.7366      0.15696284
       7204.6221      0.31374714
       7205.5076      0.43162382
       7206.3931     0.064372959
       7207.2786     0.064184943
       7208.1641      0.28466053
       7209.0496      0.38519187
       7209.9351      0.32430853
       7210.8206      0.20554872
       7211.7061      0.21013231
       7212.5916      0.19795023
       7213.4771      0.36880645
       7214.3626      0.58064334
       7215.2481      0.34445516
       7216.1336      0.50149286
       7217.0191      0.51027896
       7217.9046      0.65012765
       7218.7901      0.54457983
       7219.6756      0.14154882
       7220.5611      0.78593777
       7221.4466      0.33869582
       7222.3321      0.14093363
       7223.2176      0.19143515
       7224.1031      0.41661824
       7224.9887      0.32562157
       7225.8742      0.13171397
       7226.7597      0.23516074
       7227.6452      0.29497521
       7228.5307      0.35171099
       7229.4162      0.29026271
       7230.3017      0.22426106
       7231.1872   -0.0066712651
       7232.0727      0.26794721
       7232.9582      0.40889988
       7233.8437      0.43437405
       7234.7292      0.21532080
       7235.6147      0.47398953
       7236.5002      0.24335608
       7237.3857      0.40469748
       7238.2712      0.42159882
       7239.1567      0.44622903
       7240.0422      0.33628160
       7240.9277      0.21049432
       7241.8132      0.34037321
       7242.6987      0.36308605
       7243.5842      0.36430802
       7244.4697      0.43261460
       7245.3552      0.38387764
       7246.2407      0.32482729
       7247.1262      0.34444591
       7248.0117      0.28744759
       7248.8973      0.33843304
       7249.7828      0.29459263
       7250.6683      0.34463603
       7251.5538      0.19484347
       7252.4393      0.33356970
       7253.3248      0.39912363
       7254.2103      0.51830256
       7255.0958      0.46215566
       7255.9813      0.48525093
       7256.8668      0.50057869
       7257.7523      0.27618640
       7258.6378      0.25630903
       7259.5233      0.23958788
       7260.4088      0.24819913
       7261.2943      0.43710608
       7262.1798      0.41986640
       7263.0653      0.14594066
       7263.9508      0.17588858
       7264.8363      0.29633613
       7265.7218      0.28278227
       7266.6073      0.42020853
       7267.4928      0.50734114
       7268.3783      0.36550590
       7269.2638      0.50831793
       7270.1493      0.46862558
       7271.0348      0.48265387
       7271.9203      0.23641142
       7272.8059      0.56501945
       7273.6914      0.43288545
       7274.5769      0.38616064
       7275.4624      0.41877727
       7276.3479      0.14611698
       7277.2334      0.17996668
       7278.1189      0.57043993
       7279.0044      0.46601322
       7279.8899      0.39936948
       7280.7754      0.21332349
       7281.6609      0.56934097
       7282.5464      0.18048865
       7283.4319      0.62028332
       7284.3174      0.72842562
       7285.2029      0.72330684
       7286.0884      0.54969656
       7286.9739     0.068768618
       7287.8594      0.41034431
       7288.7449      0.37317761
       7289.6304      0.19095347
       7290.5159      0.27918141
       7291.4014      0.32906523
       7292.2869      0.38572568
       7293.1724      0.33430518
       7294.0579      0.40589461
       7294.9434      0.43870559
       7295.8290      0.40223325
       7296.7145      0.16533698
       7297.6000      0.15791206
       7298.4855      0.25709927
       7299.3710      0.34481175
       7300.2565      0.27817654
       7301.1420      0.41964934
       7302.0275      0.47257140
       7302.9130      0.31894813
       7303.7985      0.26567071
       7304.6840      0.40501200
       7305.5695      0.41052488
       7306.4550      0.41528372
       7307.3405      0.46655365
       7308.2260      0.42303777
       7309.1115      0.34403734
       7309.9970      0.42022803
       7310.8825      0.46835845
       7311.7680      0.54831503
       7312.6535      0.15274394
       7313.5390      0.27862075
       7314.4245      0.23610278
       7315.3100      0.23182724
       7316.1955      0.29868515
       7317.0810      0.36843990
       7317.9665      0.47951183
       7318.8520      0.31767335
       7319.7376      0.23380860
       7320.6231      0.32630428
       7321.5086      0.36230511
       7322.3941      0.35673673
       7323.2796      0.32834843
       7324.1651      0.39850362
       7325.0506      0.46044006
       7325.9361      0.39376772
       7326.8216      0.12728712
       7327.7071     0.091337729
       7328.5926      0.58717688
       7329.4781       1.3794041
       7330.3636     0.058999899
       7331.2491      0.69244790
       7332.1346      0.38856347
       7333.0201      0.71148963
       7333.9056      0.46778835
       7334.7911      0.54623824
       7335.6766      0.41776266
       7336.5621      0.47400276
       7337.4476      0.34750981
       7338.3331      0.35296223
       7339.2186      0.49465637
       7340.1041      0.50839208
       7340.9896      0.63714266
       7341.8751      0.46343683
       7342.7606      0.42645982
       7343.6462      0.23954253
       7344.5317      0.25844499
       7345.4172      0.23063401
       7346.3027      0.35216136
       7347.1882      0.55003104
       7348.0737      0.74451753
       7348.9592      0.65156386
       7349.8447      0.63965556
       7350.7302      0.12840901
       7351.6157      0.26094927
       7352.5012      0.25801618
       7353.3867      0.22366641
       7354.2722      0.33771677
       7355.1577      0.31288572
       7356.0432      0.23469762
       7356.9287      0.25418653
       7357.8142      0.40521658
       7358.6997      0.46879309
       7359.5852      0.42722117
       7360.4707     -0.19098545
       7361.3562     -0.53190614
       7362.2417      0.58276779
       7363.1272      0.80656086
       7364.0127      0.30039823
       7364.8982      0.20470546
       7365.7837      0.24212938
       7366.6693      0.61332671
       7367.5548      0.44059043
       7368.4403      0.35185413
       7369.3258      0.40764247
       7370.2113      0.32758104
       7371.0968      0.51947384
       7371.9823      0.39697636
       7372.8678      0.30545955
       7373.7533      0.31764324
       7374.6388      0.28401052
       7375.5243      0.34809570
       7376.4098      0.32082204
       7377.2953      0.46841647
       7378.1808      0.50161815
       7379.0663      0.30334533
       7379.9518      0.38589347
       7380.8373      0.46633648
       7381.7228      0.23111043
       7382.6083      0.67617664
       7383.4938      0.13825455
       7384.3793      0.71196947
       7385.2648      0.93414025
       7386.1503      0.54660765
       7387.0358     -0.12823724
       7387.9213     -0.27688103
       7388.8068      0.17303527
       7389.6923      0.37469177
       7390.5779      0.53767719
       7391.4634       1.0963303
       7392.3489       1.0428799
       7393.2344      0.51115348
       7394.1199    -0.020288894
       7395.0054     -0.16841135
       7395.8909     0.073324119
       7396.7764       1.0502614
       7397.6619      0.46925480
       7398.5474      0.30529588
       7399.4329      0.76280352
       7400.3184      0.37559010
       7401.2039      0.45580184
       7402.0894      0.15663175
       7402.9749    -0.035659985
       7403.8604    -0.090831405
       7404.7459      0.39526687
       7405.6314      0.32525119
       7406.5169      0.13777828
       7407.4024      0.12231464
       7408.2879      0.31746691
       7409.1734      0.38743777
       7410.0589      0.21524299
       7410.9444      0.16361201
       7411.8299      0.21961202
       7412.7154      0.35476860
       7413.6009      0.23821418
       7414.4865      0.28790873
       7415.3720      0.30635032
       7416.2575      0.19777827
       7417.1430      0.19199977
       7418.0285      0.34416508
       7418.9140      0.24624439
       7419.7995      0.43716822
       7420.6850      0.47421324
       7421.5705      0.38161872
       7422.4560      0.28328024
       7423.3415      0.17759369
       7424.2270      0.37771501
       7425.1125    -0.065334131
       7425.9980      0.18084531
       7426.8835     0.085197720
       7427.7690   -0.0084507424
       7428.6545      0.23030017
       7429.5400      0.47849249
       7430.4255      0.29174416
       7431.3110      0.32137621
       7432.1965      0.89990297
       7433.0820       1.0556965
       7433.9675     -0.65608683
       7434.8530      0.23914806
       7435.7385       1.5110019
       7436.6240      0.30589146
       7437.5096      0.33708200
       7438.3951      0.20398550
       7439.2806      0.29222961
       7440.1661      0.27713006
       7441.0516      0.51862474
       7441.9371      0.63087192
       7442.8226      0.26424414
       7443.7081    -0.050091851
       7444.5936      0.32191618
       7445.4791     -0.13240330
       7446.3646     0.019967867
       7447.2501      0.27016347
       7448.1356      0.51759335
       7449.0211      0.36242614
       7449.9066      0.29470163
       7450.7921      0.41222448
       7451.6776      0.18125851
       7452.5631      0.14585515
       7453.4486      0.26798327
       7454.3341      0.11772012
       7455.2196     0.046153185
       7456.1051      0.24320929
       7456.9906      0.37669971
       7457.8761      0.18973120
       7458.7616     0.074237509
       7459.6471    -0.033409026
       7460.5326      0.16518632
       7461.4182      0.27179728
       7462.3037      0.26329864
       7463.1892      0.44648416
       7464.0747      0.41760686
       7464.9602      0.39795191
       7465.8457      0.33627660
       7466.7312      0.45219236
       7467.6167      0.10546832
       7468.5022     0.025475854
       7469.3877      0.14815144
       7470.2732      0.38455967
       7471.1587      0.59929110
       7472.0442      0.59235420
       7472.9297      0.11474839
       7473.8152     0.073207408
       7474.7007      0.21388120
       7475.5862      0.27372656
       7476.4717      0.11951282
       7477.3572     0.024840961
       7478.2427      0.56975631
       7479.1282      0.50515088
       7480.0137      0.49519420
       7480.8992      0.38454057
       7481.7847      0.39067089
       7482.6702      0.40168536
       7483.5557       1.1089511
       7484.4413       1.8947710
       7485.3268       2.2036705
       7486.2123       2.8853194
       7487.0978       1.7693320
       7487.9833      0.69514689
       7488.8688      0.20324969
       7489.7543   -0.0016623396
       7490.6398    -0.059873693
       7491.5253     -0.17978495
       7492.4108      0.12431809
       7493.2963      0.27469307
       7494.1818      0.23346217
       7495.0673      0.23914815
       7495.9528      0.35291524
       7496.8383      0.63049519
       7497.7238      0.53610774
       7498.6093      0.33341057
       7499.4948      0.30175709
       7500.3803     -0.25745157
       7501.2658     -0.60894456
       7502.1513     0.087969984
       7503.0368      0.49289990
       7503.9223      0.71591769
       7504.8078      0.27083459
       7505.6933     0.076838743
       7506.5788      0.29858743
       7507.4643      0.31027235
       7508.3499      0.47817850
       7509.2354      0.48842082
       7510.1209      0.45479387
       7511.0064      0.12885409
       7511.8919      0.25710949
       7512.7774      0.28429045
       7513.6629      0.30694335
