# wavelength flux
       2160.7867     0.037649697
       2161.5403    -0.091676664
       2162.2939    -0.056467453
       2163.0475   -0.0083594146
       2163.8012   -0.0012476720
       2164.5548     0.090984944
       2165.3084     0.087780678
       2166.0620    -0.020331649
       2166.8156     0.096955854
       2167.5693    -0.021177753
       2168.3229    -0.074825579
       2169.0765    -0.016993666
       2169.8301     0.015158332
       2170.5837      0.14489803
       2171.3373    -0.022579434
       2172.0910      0.18064491
       2172.8446     0.048860923
       2173.5982    -0.031311580
       2174.3518      0.16202453
       2175.1054    0.0017632386
       2175.8591     0.046389158
       2176.6127    -0.041056073
       2177.3663   -0.0087161310
       2178.1199     -0.11136221
       2178.8735     0.055884850
       2179.6272    -0.028658466
       2180.3808      0.14056178
       2181.1344     0.063060879
       2181.8880     0.063155801
       2182.6416     0.063355674
       2183.3952    -0.010246575
       2184.1489    -0.065357953
       2184.9025    -0.031980707
       2185.6561      0.12062645
       2186.4097    -0.048852520
       2187.1633   -0.0069736930
       2187.9170    -0.076651180
       2188.6706     -0.13959237
       2189.4242    -0.070681733
       2190.1778    -0.063530616
       2190.9314    0.0055856231
       2191.6851     0.083214266
       2192.4387    -0.065117823
       2193.1923    -0.021465754
       2193.9459     0.049849975
       2194.6995     0.054330486
       2195.4531     0.023477773
       2196.2068   -0.0029888849
       2196.9604     0.028407802
       2197.7140    -0.048489104
       2198.4676    -0.027093748
       2199.2212     0.037489754
       2199.9749     0.034580626
       2200.7285    0.0071802448
       2201.4821    -0.017846893
       2202.2357    -0.015004039
       2202.9893    -0.032611689
       2203.7429      0.11294234
       2204.4966   -0.0011517411
       2205.2502    -0.090372200
       2206.0038     0.021741682
       2206.7574     0.018305486
       2207.5110     0.063951564
       2208.2647      0.14262666
       2209.0183    -0.012260752
       2209.7719     0.081570649
       2210.5255     0.047055231
       2211.2791     0.072052732
       2212.0328     0.014043568
       2212.7864    -0.067832026
       2213.5400     0.062817023
       2214.2936   -0.0051318935
       2215.0472    -0.075495068
       2215.8008     0.035065069
       2216.5545     0.019601439
       2217.3081    -0.028982925
       2218.0617    -0.018533651
       2218.8153     0.062010310
       2219.5689     0.076306149
       2220.3226    -0.046482460
       2221.0762    -0.015715922
       2221.8298     0.018564592
       2222.5834     0.064263503
       2223.3370     0.038452438
       2224.0907     0.050152426
       2224.8443    -0.021265392
       2225.5979    -0.045024780
       2226.3515    0.0056319597
       2227.1051     0.099594273
       2227.8587     0.042746767
       2228.6124     0.056117184
       2229.3660     0.049662888
       2230.1196     0.074434891
       2230.8732     0.043790574
       2231.6268     0.069302822
       2232.3805     0.090960595
       2233.1341     0.037503102
       2233.8877     0.080768616
       2234.6413     0.029558037
       2235.3949    -0.078498312
       2236.1486     0.016574405
       2236.9022     0.010648466
       2237.6558   -0.0058075503
       2238.4094     0.067200446
       2239.1630    -0.052649867
       2239.9166     0.020567847
       2240.6703  -0.00024117019
       2241.4239    0.0094970882
       2242.1775    0.0072419504
       2242.9311     0.012888772
       2243.6847     0.055957324
       2244.4384    -0.022459649
       2245.1920    -0.016773054
       2245.9456    0.0082314328
       2246.6992    -0.032450576
       2247.4528     0.016916612
       2248.2064     0.025150643
       2248.9601    -0.015677307
       2249.7137    -0.026684374
       2250.4673     0.037203831
       2251.2209     0.078476693
       2251.9745   -0.0018957738
       2252.7282     0.045604389
       2253.4818     0.027970908
       2254.2354  -0.00012451103
       2254.9890    -0.026233437
       2255.7426    0.0078977826
       2256.4963     0.040892159
       2257.2499    -0.034062692
       2258.0035     0.045880587
       2258.7571      0.10169570
       2259.5107      0.11763166
       2260.2643     0.011923746
       2261.0180   -0.0060752123
       2261.7716    -0.086830060
       2262.5252     0.042920061
       2263.2788     0.039498327
       2264.0324     0.010070189
       2264.7861     0.057220686
       2265.5397    -0.050411869
       2266.2933     0.023354465
       2267.0469     0.060411742
       2267.8005    -0.015819583
       2268.5542    -0.033520972
       2269.3078     0.050941398
       2270.0614    -0.065688982
       2270.8150   -0.0070548333
       2271.5686     0.065327892
       2272.3222   -0.0038526289
       2273.0759    -0.059658283
       2273.8295    0.0073398346
       2274.5831    -0.028799375
       2275.3367     0.073410276
       2276.0903     0.016543194
       2276.8440     0.056931305
       2277.5976    -0.016309141
       2278.3512    -0.010671785
       2279.1048      0.13070015
       2279.8584     0.020300751
       2280.6120     0.029905443
       2281.3657     0.011387515
       2282.1193     0.018011577
       2282.8729     0.010610017
       2283.6265     0.023916841
       2284.3801     0.090074697
       2285.1338   0.00034395913
       2285.8874   -0.0025628743
       2286.6410    -0.020406824
       2287.3946     0.051127007
       2288.1482     0.024790398
       2288.9019     0.048739434
       2289.6555    -0.039399071
       2290.4091    -0.060571824
       2291.1627     0.026192491
       2291.9163     0.027451683
       2292.6699     0.054573630
       2293.4236     0.076032779
       2294.1772     0.037127283
       2294.9308     0.018498723
       2295.6844     0.037651420
       2296.4380     0.033832334
       2297.1917     0.072833146
       2297.9453    -0.074840648
       2298.6989     0.036741650
       2299.4525    -0.062839584
       2300.2061     0.013905252
       2300.9598    -0.068139482
       2301.7134     0.050077464
       2302.4670     0.048577610
       2303.2206    0.0036450676
       2303.9742     0.052056957
       2304.7278    -0.015713791
       2305.4815    -0.090827900
       2306.2351  -0.00094096493
       2306.9887     0.044696478
       2307.7423    -0.069838265
       2308.4959     0.048860439
       2309.2496    -0.060967867
       2310.0032    -0.042818360
       2310.7568     0.024267657
       2311.5104     0.025026954
       2312.2640      0.12216652
       2313.0177    -0.019127767
       2313.7713    0.0064147806
       2314.5249     0.032526828
       2315.2785     0.011833774
       2316.0321     0.033563612
       2316.7857     0.026836916
       2317.5394     0.044099051
       2318.2930     0.016850624
       2319.0466   -0.0075508055
       2319.8002    0.0010324235
       2320.5538    -0.060618347
       2321.3075    0.0059206698
       2322.0611    0.0012704709
       2322.8147     0.047428931
       2323.5683     0.056445186
       2324.3219     0.028630889
       2325.0755   -0.0060111755
       2325.8292     0.022100642
       2326.5828    0.0022031962
       2327.3364     0.065174196
       2328.0900     0.027417971
       2328.8436    -0.018835900
       2329.5973    -0.013696636
       2330.3509    -0.037640625
       2331.1045    0.0066735208
       2331.8581    -0.017074688
       2332.6117     0.014390040
       2333.3654    -0.010077828
       2334.1190     0.014490269
       2334.8726    -0.014237898
       2335.6262     0.017122058
       2336.3798     0.046071964
       2337.1334    -0.013391033
       2337.8871     0.061067540
       2338.6407    -0.024768722
       2339.3943     0.034422646
       2340.1479     0.045367974
       2340.9015     0.078679650
       2341.6552    -0.010937342
       2342.4088     0.049254831
       2343.1624    0.0045744774
       2343.9160    -0.038681475
       2344.6696     0.079242208
       2345.4233     0.019439012
       2346.1769     0.068785553
       2346.9305    -0.023721826
       2347.6841    -0.041296471
       2348.4377     0.017724615
       2349.1913    -0.019795310
       2349.9450    -0.014943186
       2350.6986     0.059443441
       2351.4522    0.0019593537
       2352.2058     0.032035823
       2352.9594     0.019794070
       2353.7131     0.069877565
       2354.4667   -0.0058423343
       2355.2203    0.0025235495
       2355.9739    0.0021284083
       2356.7275     0.013138725
       2357.4811   -0.0094442738
       2358.2348     0.037197355
       2358.9884     0.044754580
       2359.7420   -0.0016005132
       2360.4956    0.0086711728
       2361.2492     0.050845696
       2362.0029     0.023719819
       2362.7565     0.086053406
       2363.5101    0.0031388708
       2364.2637     0.099416581
       2365.0173     0.053529568
       2365.7710   -0.0039916035
       2366.5246     0.062185933
       2367.2782     0.031046900
       2368.0318    -0.018790301
       2368.7854     0.047609980
       2369.5390    0.0012477780
       2370.2927     0.022291790
       2371.0463     0.058521654
       2371.7999    0.0045158213
       2372.5535     0.011176614
       2373.3071     0.029268800
       2374.0608     0.020632542
       2374.8144     0.024476665
       2375.5680    0.0011495136
       2376.3216    0.0099879369
       2377.0752     0.030897736
       2377.8289     0.033303789
       2378.5825     0.019737466
       2379.3361     0.041381413
       2380.0897     0.043047445
       2380.8433     0.081740866
       2381.5969     0.032931554
       2382.3506     0.042841145
       2383.1042     0.028801124
       2383.8578     0.047611037
       2384.6114     0.044951513
       2385.3650     0.040926004
       2386.1187     0.013189387
       2386.8723   -0.0085094230
       2387.6259     0.065652898
       2388.3795     0.034539531
       2389.1331   -0.0042747591
       2389.8868    -0.012263358
       2390.6404     0.012900346
       2391.3940     0.050886494
       2392.1476     0.034529932
       2392.9012     0.070907231
       2393.6548     0.012069643
       2394.4085    -0.033774981
       2395.1621    -0.043774410
       2395.9157   0.00040751632
       2396.6693     0.071327157
       2397.4229     0.033562943
       2398.1766     0.028492107
       2398.9302    0.0070015896
       2399.6838     0.030858649
       2400.4374     0.059662257
       2401.1910     0.012106513
       2401.9446     0.042688299
       2402.6983     0.028164580
       2403.4519     0.022741840
       2404.2055   -0.0013014607
       2404.9591     0.074334515
       2405.7127     0.061166949
       2406.4664     0.049276013
       2407.2200     0.023137068
       2407.9736     0.068616240
       2408.7272     0.032910255
       2409.4808     0.073127019
       2410.2345     0.036240135
       2410.9881    0.0042084361
       2411.7417     0.059262425
       2412.4953     0.059235945
       2413.2489     0.037815562
       2414.0025   -0.0093279683
       2414.7562    0.0020652257
       2415.5098     0.013507761
       2416.2634     0.026794869
       2417.0170     0.019705752
       2417.7706     0.014183493
       2418.5243   -0.0078494817
       2419.2779     0.023790567
       2420.0315     0.020604133
       2420.7851     0.015708970
       2421.5387    0.0019468485
       2422.2924     0.063320544
       2423.0460     0.031583609
       2423.7996     0.034575225
       2424.5532     0.076820547
       2425.3068    0.0045474957
       2426.0604     0.071558971
       2426.8141     0.076315551
       2427.5677     0.026282907
       2428.3213     0.055834292
       2429.0749     0.041038008
       2429.8285    -0.029297982
       2430.5822     0.012909098
       2431.3358    0.0043755104
       2432.0894    0.0060579812
       2432.8430     0.065110379
       2433.5966     0.022841102
       2434.3502   -0.0050706685
       2435.1039     0.027224923
       2435.8575     0.055742161
       2436.6111     0.025986067
       2437.3647     0.023817625
       2438.1183     0.016742792
       2438.8720     0.025461621
       2439.6256     0.027797799
       2440.3792     0.039822979
       2441.1328    0.0068024840
       2441.8864     0.032764185
       2442.6401     0.042793191
       2443.3937     0.044704432
       2444.1473    -0.013510803
       2444.9009     0.029338214
       2445.6545     0.037870191
       2446.4081   -0.0077018710
       2447.1618     0.057285517
       2447.9154     0.019938023
       2448.6690     0.062577056
       2449.4226     0.070955915
       2450.1762   -0.0086005244
       2450.9299     0.013346314
       2451.6835    -0.043593052
       2452.4371     -0.10389784
       2453.1907    -0.011008157
       2453.9443    -0.019950549
       2454.6980    0.0087085787
       2455.4516     0.036753273
       2456.2052     0.025448881
       2456.9588     0.040974201
       2457.7124     0.018180549
       2458.4660     0.019739637
       2459.2197     0.020442519
       2459.9733     0.020243142
       2460.7269     0.010063965
       2461.4805    0.0049904208
       2462.2341     0.035270163
       2462.9878   -0.0099816908
       2463.7414    0.0070737857
       2464.4950     0.018060834
       2465.2486     0.020789964
       2466.0022   -0.0043117843
       2466.7559    -0.029790137
       2467.5095    -0.016696728
       2468.2631   -0.0057772385
       2469.0167     0.065862202
       2469.7703   -0.0015788153
       2470.5239     0.051985018
       2471.2776    -0.040951896
       2472.0312     0.023191432
       2472.7848    0.0043493419
       2473.5384     0.050522568
       2474.2920     0.086783576
       2475.0457    -0.035298558
       2475.7993    -0.036063395
       2476.5529     0.081676412
       2477.3065     0.026691629
       2478.0601     0.074467851
       2478.8137   -0.0069066059
       2479.5674     0.082928082
       2480.3210     0.014454512
       2481.0746     0.046027254
       2481.8282     0.030632886
       2482.5818     0.046600261
       2483.3355    -0.012447764
       2484.0891   0.00077553789
       2484.8427    0.0046107582
       2485.5963     0.048891197
       2486.3499     0.033758383
       2487.1036     0.063503959
       2487.8572     0.040403445
       2488.6108   0.00070868539
       2489.3644    -0.049828860
       2490.1180     0.057059369
       2490.8716     0.024356451
       2491.6253     0.028300935
       2492.3789   -0.0092172821
       2493.1325     0.018443796
       2493.8861     0.028213926
       2494.6397    0.0076936909
       2495.3934     0.035974067
       2496.1470  -0.00045827738
       2496.9006   -0.0090890387
       2497.6542     0.027474548
       2498.4078     0.056764603
       2499.1615    -0.022091538
       2499.9151    0.0072878940
       2500.6687     0.017397326
       2501.4223     0.033152270
       2502.1759     0.014634765
       2502.9295   0.00015681064
       2503.6832    0.0012726153
       2504.4368     0.026699951
       2505.1904     0.030051242
       2505.9440     0.071624299
       2506.6976    -0.014170236
       2507.4513     0.036258553
       2508.2049   -0.0046640092
       2508.9585   -0.0016466644
       2509.7121     0.027015289
       2510.4657   -0.0018453054
       2511.2193     0.019775764
       2511.9730    0.0010358113
       2512.7266     0.015094495
       2513.4802   -0.0062162119
       2514.2338  -0.00091002117
       2514.9874     0.026857995
       2515.7411     0.027294001
       2516.4947    0.0075857304
       2517.2483    0.0043633766
       2518.0019     0.058582050
       2518.7555     0.013387470
       2519.5092    -0.021456230
       2520.2628    0.0073349227
       2521.0164     0.021604168
       2521.7700    0.0053376577
       2522.5236     0.033092673
       2523.2772    -0.012678746
       2524.0309     0.024884980
       2524.7845     0.082325302
       2525.5381     0.061859416
       2526.2917     0.011411626
       2527.0453     0.019254610
       2527.7990     0.040423322
       2528.5526     0.041783725
       2529.3062     0.023016385
       2530.0598     0.038806822
       2530.8134     0.039954204
       2531.5671     0.011324344
       2532.3207    -0.020900319
       2533.0743     0.047914795
       2533.8279  -0.00026390562
       2534.5815    -0.011164998
       2535.3351     0.013623212
       2536.0888   -0.0099029707
       2536.8424     0.041021250
       2537.5960     0.058359474
       2538.3496     0.056103296
       2539.1032     0.016175342
       2539.8569     0.039366996
       2540.6105    0.0027560919
       2541.3641     0.036544098
       2542.1177     0.038628398
       2542.8713    -0.021255494
       2543.6250     0.013461421
       2544.3786     0.016531906
       2545.1322    0.0019422213
       2545.8858     0.055695085
       2546.6394   -0.0018744847
       2547.3930     0.074875522
       2548.1467     0.034716805
       2548.9003   -0.0023610489
       2549.6539    0.0015346959
       2550.4075    -0.012283742
       2551.1611     0.021007519
       2551.9148     0.011187537
       2552.6684     0.042630206
       2553.4220     0.049804673
       2554.1756    -0.046394696
       2554.9292     0.045884162
       2555.6828    0.0060970227
       2556.4365   -0.0031020313
       2557.1901     0.034069858
       2557.9437     0.072508123
       2558.6973     0.047143789
       2559.4509    0.0084821033
       2560.2046    0.0057992659
       2560.9582     0.020873933
       2561.7118     0.016538645
       2562.4654     0.026298867
       2563.2190     0.040102252
       2563.9727     0.014183233
       2564.7263     0.035683962
       2565.4799    0.0044441237
       2566.2335     0.044636682
       2566.9871    0.0036277024
       2567.7407   -0.0050402585
       2568.4944     0.066439077
       2569.2480     0.013137939
       2570.0016  -0.00015597572
       2570.7552   6.7018685e-05
       2571.5088   -0.0038018917
       2572.2625    -0.016747535
       2573.0161    0.0062159376
       2573.7697     0.024634277
       2574.5233    0.0012506697
       2575.2769     0.035850289
       2576.0306    -0.014522838
       2576.7842     0.019958755
       2577.5378     0.048763743
       2578.2914     0.050448606
       2579.0450     0.039312039
       2579.7986     0.017388044
       2580.5523     0.024814660
       2581.3059    0.0065086194
       2582.0595   -0.0041165314
       2582.8131     0.025836919
       2583.5667   -0.0011130703
       2584.3204     0.046922591
       2585.0740     0.026309925
       2585.8276     0.044022853
       2586.5812     0.027832549
       2587.3348     0.064884556
       2588.0884     0.020010802
       2588.8421     0.026313595
       2589.5957     0.046923954
       2590.3493     0.045522410
       2591.1029     0.025948387
       2591.8565     0.022696567
       2592.6102     0.043314042
       2593.3638     0.054954309
       2594.1174     0.024087668
       2594.8710     0.015526396
       2595.6246    0.0079268027
       2596.3783     0.020562781
       2597.1319     0.020288686
       2597.8855     0.029615902
       2598.6391     0.014989635
       2599.3927   -0.0029168210
       2600.1463     0.016268007
       2600.9000     0.039310405
       2601.6536     0.073665792
       2602.4072    0.0056342831
       2603.1608     0.048053273
       2603.9144     0.060176633
       2604.6681   0.00032339062
       2605.4217     0.010660419
       2606.1753     0.024643642
       2606.9289     0.022898941
       2607.6825     0.018032634
       2608.4362     0.060213440
       2609.1898     0.054912497
       2609.9434    0.0085157241
       2610.6970     0.023267157
       2611.4506    0.0066061404
       2612.2042    -0.029381022
       2612.9579     0.056511852
       2613.7115     0.036305455
       2614.4651     0.085819065
       2615.2187     0.063556048
       2615.9723  -0.00029264366
       2616.7260     0.037338538
       2617.4796     0.035829260
       2618.2332     0.080456120
       2618.9868     0.051423146
       2619.7404     0.022497590
       2620.4941     0.046098382
       2621.2477     0.031502615
       2622.0013     0.037931633
       2622.7549     0.047069558
       2623.5085    -0.014761530
       2624.2621    0.0030012712
       2625.0158     0.037743302
       2625.7694     0.016322077
       2626.5230     0.015030075
       2627.2766     0.023393515
       2628.0302     0.053519213
       2628.7839     0.021872563
       2629.5375     0.012050476
       2630.2911     0.018251187
       2631.0447    0.0054349136
       2631.7983     0.022727220
       2632.5519     0.044329915
       2633.3056    0.0096851897
       2634.0592   -0.0010309384
       2634.8128   -0.0034651652
       2635.5664     0.032549236
       2636.3200    0.0068663793
       2637.0737     0.016435682
       2637.8273     0.029166980
       2638.5809     0.030486769
       2639.3345     0.047855299
       2640.0881     0.040067520
       2640.8418     0.039206976
       2641.5954     0.016788953
       2642.3490     0.055651661
       2643.1026    -0.012496010
       2643.8562    0.0078742959
       2644.6098     0.031699785
       2645.3635     0.041104580
       2646.1171     0.045602509
       2646.8707     0.013824985
       2647.6243   -0.0079806882
       2648.3779     0.049634719
       2649.1316     0.023622380
       2649.8852     0.026242321
       2650.6388    0.0071133417
       2651.3924     0.013727860
       2652.1460     0.026700588
       2652.8997     0.049576524
       2653.6533     0.062317800
       2654.4069     0.037160878
       2655.1605     0.012425386
       2655.9141     0.024797542
       2656.6677     0.037874747
       2657.4214     0.019628734
       2658.1750     0.028629277
       2658.9286     0.026308781
       2659.6822     0.033712266
       2660.4358     0.052242937
       2661.1895     0.056645457
       2661.9431    0.0046010925
       2662.6967     0.026458197
       2663.4503   -0.0011752107
       2664.2039     0.032716774
       2664.9576    -0.014398076
       2665.7112     0.016046820
       2666.4648     0.020830935
       2667.2184     0.031300960
       2667.9720     0.030659690
       2668.7256     0.041365537
       2669.4793   -0.0062848923
       2670.2329     0.020959052
       2670.9865     0.062311883
       2671.7401     0.044982306
       2672.4937     0.033179750
       2673.2474     0.018899539
       2674.0010     0.015563080
       2674.7546     0.018766935
       2675.5082     0.038880496
       2676.2618     0.059043662
       2677.0154   -0.0017445830
       2677.7691     0.069419199
       2678.5227     0.048767159
       2679.2763     0.013853435
       2680.0299     0.028895889
       2680.7835     0.051536955
       2681.5372     0.059407467
       2682.2908     0.066604750
       2683.0444     0.065386015
       2683.7980     0.029300416
       2684.5516     0.018860812
       2685.3053     0.029563957
       2686.0589     0.029669643
       2686.8125    0.0089137149
       2687.5661     0.027031212
       2688.3197     0.013901216
       2689.0733     0.033906168
       2689.8270     0.031511557
       2690.5806    0.0096970226
       2691.3342     0.034735228
       2692.0878     0.037252231
       2692.8414     0.027401621
       2693.5951     0.039491716
       2694.3487    0.0098238235
       2695.1023     0.047374620
       2695.8559     0.040948575
       2696.6095    0.0065583156
       2697.3632     0.054147667
       2698.1168    0.0059289048
       2698.8704     0.023162747
       2699.6240     0.021399834
       2700.3776    0.0098509923
       2701.1312     0.040082181
       2701.8849     0.018902989
       2702.6385    -0.011621043
       2703.3921     0.037738240
       2704.1457     0.028292617
       2704.8993    0.0069868651
       2705.6530     0.040568503
       2706.4066     0.037497899
       2707.1602     0.028545478
       2707.9138   -0.0084430138
       2708.6674    0.0035387237
       2709.4210   -0.0016295572
       2710.1747     0.012963196
       2710.9283     0.031181317
       2711.6819     0.022396843
       2712.4355   -0.0083720007
       2713.1891    0.0069661648
       2713.9428     0.019982619
       2714.6964     0.012212228
       2715.4500     0.030218274
       2716.2036    0.0095990558
       2716.9572     0.022602918
       2717.7109    0.0033557482
       2718.4645     0.017247613
       2719.2181     0.012726868
       2719.9717     0.017285658
       2720.7253     0.022217143
       2721.4789     0.014308683
       2722.2326     0.019402967
       2722.9862     0.024406376
       2723.7398     0.027336811
       2724.4934     0.027178126
       2725.2470  -0.00095333993
       2726.0007   -0.0024950909
       2726.7543     0.021224614
       2727.5079     0.021101886
       2728.2615     0.010800531
       2729.0151     0.031905876
       2729.7688     0.036157427
       2730.5224     0.035704548
       2731.2760    0.0068202116
       2732.0296     0.022712558
       2732.7832     0.011417468
       2733.5368    -0.027145114
       2734.2905     0.018755086
       2735.0441     0.017586018
       2735.7977     0.030423052
       2736.5513     0.032692425
       2737.3049     0.015621166
       2738.0586     0.020208895
       2738.8122    -0.010204874
       2739.5658     0.010869911
       2740.3194     0.022804227
       2741.0730     0.050710237
       2741.8267  -0.00021744714
       2742.5803   0.00093647049
       2743.3339     0.026110245
       2744.0875     0.022958581
       2744.8411     0.024122420
       2745.5947     0.044842622
       2746.3484     0.039795640
       2747.1020     0.037522177
       2747.8556     0.028097957
       2748.6092     0.031092122
       2749.3628     0.022695707
       2750.1165     0.011758720
       2750.8701     0.044150073
       2751.6237     0.043877287
       2752.3773    0.0023335224
       2753.1309    0.0047147101
       2753.8845     0.033914587
       2754.6382     0.039517501
       2755.3918     0.044326186
       2756.1454     0.025369037
       2756.8990     0.020402061
       2757.6526   -0.0071385196
       2758.4063     0.030433332
       2759.1599     0.028442845
       2759.9135     0.018512200
       2760.6671     0.014033207
       2761.4207    -0.014262208
       2762.1744    0.0095593369
       2762.9280   -0.0039231298
       2763.6816     0.016652525
       2764.4352    -0.011418400
       2765.1888   -0.0015931149
       2765.9424     0.018604632
       2766.6961     0.025117035
       2767.4497     0.033025276
       2768.2033     0.047029338
       2768.9569     0.023314118
       2769.7105     0.047810113
       2770.4642     0.018829855
       2771.2178     0.017744665
       2771.9714    0.0081583419
       2772.7250     0.045205694
       2773.4786     0.043077354
       2774.2323     0.032031770
       2774.9859     0.016959264
       2775.7395     0.019401912
       2776.4931    0.0094609084
       2777.2467     0.019017098
       2778.0003     0.047989677
       2778.7540     0.035633495
       2779.5076    0.0064135948
       2780.2612     0.010289703
       2781.0148     0.019759995
       2781.7684     0.011503892
       2782.5221   -0.0041706876
       2783.2757   -0.0049101700
       2784.0293  -0.00024624999
       2784.7829     0.012968876
       2785.5365     0.025776257
       2786.2901     0.012390272
       2787.0438     0.013974866
       2787.7974    -0.014848374
       2788.5510    0.0099375708
       2789.3046     0.022763798
       2790.0582     0.036386396
       2790.8119     0.045182698
       2791.5655    0.0073036867
       2792.3191    -0.019885389
       2793.0727     0.014856025
       2793.8263     0.037661210
       2794.5800    0.0071935871
       2795.3336    0.0028191115
       2796.0872     0.025290138
       2796.8408     0.019137223
       2797.5944     0.032402098
       2798.3480     0.030291032
       2799.1017     0.027873165
       2799.8553     0.031566260
       2800.6089     0.030217791
       2801.3625     0.019427315
       2802.1161     0.022937644
       2802.8698     0.029156324
       2803.6234     0.014322112
       2804.3770    0.0046173003
       2805.1306     0.018564166
       2805.8842     0.025987681
       2806.6379     0.047563965
       2807.3915     0.046824099
       2808.1451     0.034219171
       2808.8987     0.046248116
       2809.6523     0.052309952
       2810.4059     0.019190401
       2811.1596     0.035079580
       2811.9132    -0.010210437
       2812.6668    0.0042450034
       2813.4204     0.027104155
       2814.1740   -0.0029000964
       2814.9277   0.00059449602
       2815.6813     0.023938360
       2816.4349     0.032410998
       2817.1885    -0.012706854
       2817.9421   -0.0070222808
       2818.6958     0.026469063
       2819.4494     0.025770684
       2820.2030    -0.013655621
       2820.9566     0.018510063
       2821.7102     0.046826126
       2822.4638     0.056739915
       2823.2175     0.021570172
       2823.9711     0.016964732
       2824.7247     0.038188881
       2825.4783     0.012998118
       2826.2319     0.013901023
       2826.9856     0.063943919
       2827.7392     0.032916380
       2828.4928     0.014417555
       2829.2464     0.018715291
       2830.0000   -0.0033708924
       2830.7536     0.039887789
       2831.5073     0.013689393
       2832.2609    0.0013877040
       2833.0145   -0.0010999468
       2833.7681     0.060755396
       2834.5217     0.056576202
       2835.2754     0.013293230
       2836.0290     0.043360491
       2836.7826     0.055242223
       2837.5362     0.015135656
       2838.2898     0.031030782
       2839.0435   -0.0081026517
       2839.7971     0.022773885
       2840.5507     0.012073802
       2841.3043     0.066079865
       2842.0579     0.051397253
       2842.8115     0.019393497
       2843.5652     0.038312122
       2844.3188     0.046951766
       2845.0724     0.028870371
       2845.8260     0.055021950
       2846.5796     0.016707931
       2847.3333     0.045725458
       2848.0869     0.033372459
       2848.8405     0.013840749
       2849.5941    -0.010730609
       2850.3477   -0.0013109996
       2851.1014    -0.031941622
       2851.8550   -0.0051661323
       2852.6086     0.018825785
       2853.3622     0.038620464
       2854.1158     0.033234861
       2854.8694     0.014807295
       2855.6231     0.041599099
       2856.3767     0.046602348
       2857.1303     0.041961307
       2857.8839     0.060069981
       2858.6375     0.026184957
       2859.3912     0.030672667
       2860.1448     0.015379541
       2860.8984     0.011135118
       2861.6520     0.032274426
       2862.4056    0.0049522640
       2863.1592     0.010566756
       2863.9129     0.012556510
       2864.6665     0.044572045
       2865.4201     0.048418806
       2866.1737     0.059140360
       2866.9273     0.043447649
       2867.6810     0.035238655
       2868.4346     0.017351510
       2869.1882    -0.011615503
       2869.9418    0.0024633204
       2870.6954     0.037700545
       2871.4491     0.049055536
       2872.2027     0.045939702
       2872.9563     0.034869218
       2873.7099     0.046640884
       2874.4635     0.042585781
       2875.2171     0.043620209
       2875.9708     0.032251515
       2876.7244     0.026498838
       2877.4780    0.0083925458
       2878.2316     0.030807153
       2878.9852     0.034649789
       2879.7389    0.0055565599
       2880.4925     0.029176786
       2881.2461     0.024187409
       2881.9997     0.010036989
       2882.7533     0.016303117
       2883.5070     0.036556007
       2884.2606   -0.0070283533
       2885.0142    -0.026166343
       2885.7678    -0.015450988
       2886.5214     0.033445536
       2887.2750     0.029927167
       2888.0287    0.0013251829
       2888.7823    0.0048651909
       2889.5359   -0.0038802418
       2890.2895     0.041474193
       2891.0431     0.011267193
       2891.7968     0.023388715
       2892.5504     0.064852537
       2893.3040     0.038583734
       2894.0576   -0.0087418606
       2894.8112     0.022323806
       2895.5649     0.010858206
       2896.3185     0.037306069
       2897.0721   -0.0035172000
       2897.8257    0.0066607902
       2898.5793     0.038176551
       2899.3329     0.027298040
       2900.0866     0.016658263
       2900.8402   -0.0028599250
       2901.5938    0.0088077620
       2902.3474     0.028821931
       2903.1010     0.038002694
       2903.8547     0.033075246
       2904.6083     0.024997524
       2905.3619   -0.0050239937
       2906.1155     0.049102102
       2906.8691     0.081310422
       2907.6227     0.051262304
       2908.3764     0.056872775
       2909.1300     0.015573676
       2909.8836     0.026912134
       2910.6372     0.084870379
       2911.3908     0.042274874
       2912.1445     0.012353361
       2912.8981     0.021197232
       2913.6517     0.048482080
       2914.4053     0.072411981
       2915.1589     0.066149709
       2915.9126     0.028562134
       2916.6662     0.035307133
       2917.4198     0.035436457
       2918.1734     0.067201011
       2918.9270     0.041832924
       2919.6806     0.054963705
       2920.4343     0.049415939
       2921.1879     0.011056417
       2921.9415     0.031523323
       2922.6951     0.054875682
       2923.4487     0.057629640
       2924.2024     0.056758505
       2924.9560     0.014181262
       2925.7096     0.016717926
       2926.4632     0.031709324
       2927.2168     0.041309345
       2927.9705     0.016929045
       2928.7241     0.013533151
       2929.4777     0.036532313
       2930.2313     0.038946034
       2930.9849     0.048075694
       2931.7385    0.0083978399
       2932.4922   -0.0094768786
       2933.2458     0.038078046
       2933.9994     0.019083474
       2934.7530     0.017390889
       2935.5066    0.0092259234
       2936.2603     0.013144873
       2937.0139     0.040815690
       2937.7675     0.021957590
       2938.5211     0.061644633
       2939.2747     0.032894802
       2940.0283     0.016285657
       2940.7820     0.015487350
       2941.5356     0.045295733
       2942.2892     0.010657587
       2943.0428     0.025417853
       2943.7964     0.056296680
       2944.5501     0.041866811
       2945.3037     0.023016079
       2946.0573     0.046476665
       2946.8109     0.048837846
       2947.5645     0.034733013
       2948.3182     0.025079645
       2949.0718     0.018390457
       2949.8254    0.0062971398
       2950.5790     0.024735329
       2951.3326     0.025705556
       2952.0862     0.053117302
       2952.8399     0.027747362
       2953.5935    0.0098361348
       2954.3471     0.045822418
       2955.1007     0.033779508
       2955.8543     0.028811021
       2956.6080     0.034480373
       2957.3616     0.040850565
       2958.1152     0.030096896
       2958.8688     0.015615442
       2959.6224     0.016654411
       2960.3761     0.044544749
       2961.1297     0.037365935
       2961.8833     0.063099759
       2962.6369     0.042089592
       2963.3905     0.028138368
       2964.1441     0.056817930
       2964.8978     0.051108289
       2965.6514     0.045884539
       2966.4050     0.032381304
       2967.1586     0.027987809
       2967.9122     0.040368928
       2968.6659     0.062009318
       2969.4195     0.069409580
       2970.1731     0.065345051
       2970.9267     0.044288469
       2971.6803     0.046679192
       2972.4340     0.040285019
       2973.1876     0.063564005
       2973.9412     0.058353038
       2974.6948     0.076680270
       2975.4484     0.073468693
       2976.2020     0.067308667
       2976.9557     0.027309845
       2977.7093     0.042640132
       2978.4629     0.056828125
       2979.2165   -0.0051282184
       2979.9701     0.059582020
       2980.7238     0.061467043
       2981.4774   0.00056023341
       2982.2310     0.032588113
       2982.9846     0.042532345
       2983.7382     0.028978042
       2984.4918     0.038553697
       2985.2455     0.016075545
       2985.9991     0.019791284
       2986.7527     0.035649251
       2987.5063     0.038343040
       2988.2599     0.042940814
       2989.0136     0.055975401
       2989.7672     0.032092470
       2990.5208    0.0064981440
       2991.2744     0.018654652
       2992.0280     0.013618821
       2992.7817     0.041480616
       2993.5353     0.054883858
       2994.2889     0.041390557
       2995.0425     0.040842796
       2995.7961     0.027467775
       2996.5497     0.019215590
       2997.3034     0.032537338
       2998.0570     0.023940308
       2998.8106     0.052465543
       2999.5642     0.048884933
       3000.3178     0.050398504
       3001.0715     0.047871269
       3001.8251     0.065781206
       3002.5787     0.055694176
       3003.3323     0.050985532
       3004.0859     0.047180258
       3004.8396     0.037736321
       3005.5932    0.0055133470
       3006.3468     0.011898985
       3007.1004     0.028766709
       3007.8540     0.057571005
       3008.6076     0.066406204
       3009.3613     0.070285619
       3010.1149     0.048161777
       3010.8685     0.037528137
       3011.6221     0.058473693
       3012.3757     0.049214184
       3013.1294     0.036594116
       3013.8830     0.036500185
       3014.6366     0.020277573
       3015.3902     0.041053132
       3016.1438     0.048154571
       3016.8974     0.060966887
       3017.6511     0.036430675
       3018.4047     0.021779322
       3019.1583     0.041223852
       3019.9119     0.014386695
       3020.6655   -0.0026810793
       3021.4192     0.040191308
       3022.1728     0.061920564
       3022.9264     0.026926545
       3023.6800     0.017994509
       3024.4336     0.033841262
       3025.1873     0.050135405
       3025.9409     0.048776962
       3026.6945     0.041402832
       3027.4481     0.048678470
       3028.2017     0.084374324
       3028.9553     0.056608969
       3029.7090     0.048595243
       3030.4626     0.076096525
       3031.2162     0.067376712
       3031.9698     0.080073899
       3032.7234     0.025384243
       3033.4771     0.039375224
       3034.2307     0.041911083
       3034.9843     0.039328877
       3035.7379     0.011803785
       3036.4915     0.038948369
       3037.2452     0.064984024
       3037.9988     0.056977129
       3038.7524     0.016026906
       3039.5060     0.020590187
       3040.2596     0.043139235
       3041.0132     0.046770524
       3041.7669     0.013976958
       3042.5205     0.031946023
       3043.2741     0.091403516
       3044.0277     0.060325570
       3044.7813     0.026570083
       3045.5350     0.031379333
       3046.2886     0.032298473
       3047.0422     0.028545581
       3047.7958     0.029341618
       3048.5494     0.040202334
       3049.3031     0.056394718
       3050.0567     0.066698686
       3050.8103     0.060314898
       3051.5639     0.024235962
       3052.3175     0.033933735
       3053.0711     0.048646141
       3053.8248     0.081491988
       3054.5784     0.079297075
       3055.3320     0.053558632
       3056.0856     0.014114582
       3056.8392     0.019658973
       3057.5929     0.055292670
       3058.3465     0.048481626
       3059.1001    -0.012133445
       3059.8537    0.0077989444
       3060.6073     0.048265034
       3061.3609     0.069898038
       3062.1146     0.066877091
       3062.8682     0.050916750
       3063.6218     0.050897193
       3064.3754     0.045005127
       3065.1290      0.10253573
       3065.8827     0.067638913
       3066.6363     0.037424917
       3067.3899     0.042358037
       3068.1435     0.044696304
       3068.8971     0.040500053
       3069.6508     0.051395660
       3070.4044     0.033446921
       3071.1580     0.052527058
       3071.9116     0.044709153
       3072.6652     0.048813804
       3073.4188     0.066195841
       3074.1725     0.056315520
       3074.9261     0.064037609
       3075.6797     0.030366428
       3076.4333     0.023158298
       3077.1869     0.081501080
       3077.9406     0.068417076
       3078.6942     0.070300881
       3079.4478     0.086915434
       3080.2014     0.072544822
       3080.9550     0.091582186
       3081.7087     0.051342859
       3082.4623     0.021675394
       3083.2159     0.052891301
       3083.9695     0.068508803
       3084.7231     0.074840155
       3085.4767     0.079356864
       3086.2304     0.055937064
       3086.9840     0.059282102
       3087.7376     0.089262140
       3088.4912      0.12095024
       3089.2448      0.16214458
       3089.9985      0.12369016
       3090.7521      0.12991665
       3091.5057     0.090614054
       3092.2593     0.054310757
       3093.0129     0.086156765
       3093.7665     0.077354005
       3094.5202     0.020896282
       3095.2738   -0.0047257546
       3096.0274     0.040003721
       3096.7810     0.017262482
       3097.5346    0.0038107289
       3098.2883   -0.0034763361
       3099.0419     0.036087385
       3099.7955     0.048932754
       3100.5491     0.053672435
       3101.3027     0.050128490
       3102.0564     0.032270438
       3102.8100     0.074748483
       3103.5636     0.054601435
       3104.3172     0.039356848
       3105.0708      0.10006117
       3105.8244     0.065469219
       3106.5781     0.058839157
       3107.3317     0.059994936
       3108.0853     0.072085506
       3108.8389     0.056204047
       3109.5925     0.060221932
       3110.3462     0.050386123
       3111.0998     0.060449300
       3111.8534     0.047632203
       3112.6070     0.052510115
       3113.3606     0.052429602
       3114.1143     0.035425524
       3114.8679     0.030046451
       3115.6215     0.053630287
       3116.3751     0.035525836
       3117.1287     0.032343591
       3117.8823     0.050029398
       3118.6360     0.042518230
       3119.3896     0.036057719
       3120.1432     0.065147286
       3120.8968     0.030845069
       3121.6504     0.016173317
       3122.4041     0.052596566
       3123.1577     0.055042828
       3123.9113     0.053303359
       3124.6649     0.034702181
       3125.4185     0.070586976
       3126.1722     0.064916338
       3126.9258     0.051310318
       3127.6794     0.051330623
       3128.4330     0.050085148
       3129.1866     0.010340600
       3129.9402     0.061869593
       3130.6939     0.081873195
       3131.4475     0.047871424
       3132.2011     0.011373454
       3132.9547     0.039341274
       3133.7083     0.024509547
       3134.4620     0.053863676
       3135.2156     0.079743279
       3135.9692     0.027031045
       3136.7228     0.020155133
       3137.4764     0.025172458
       3138.2300     0.047999255
       3138.9837     0.059023759
       3139.7373     0.027612338
       3140.4909     0.069159100
       3141.2445     0.071726515
       3141.9981     0.060262596
       3142.7518     0.048460237
       3143.5054     0.062565136
       3144.2590     0.067295579
       3145.0126     0.087442871
       3145.7662     0.046969972
       3146.5199     0.039268847
       3147.2735     0.071555628
       3148.0271     0.057532036
       3148.7807     0.015274002
       3149.5343     0.050342799
       3150.2879     0.074181907
       3151.0416     0.050430367
       3151.7952     0.075804379
       3152.5488     0.044504899
       3153.3024     0.072811042
       3154.0560     0.072935612
       3154.8097     0.071052027
       3155.5633     0.088722429
       3156.3169     0.058089481
       3157.0705     0.022434461
       3157.8241  -0.00052209310
       3158.5778     0.019619358
       3159.3314    0.0073003422
       3160.0850     0.044983558
       3160.8386     0.059160534
       3161.5922     0.089920630
       3162.3458     0.039910175
       3163.0995     0.020973309
       3163.8531     0.047531238
       3164.6067     0.038220957
       3165.3603     0.036457927
       3166.1139     0.050875426
       3166.8676     0.070745564
       3167.6212     0.067181323
       3168.3748     0.019288222
       3169.1284     0.023800084
       3169.8820     0.040964323
       3170.6356     0.050164477
       3171.3893     0.021375358
       3172.1429     0.027625702
       3172.8965     0.051314574
       3173.6501     0.045007278
       3174.4037     0.075002818
       3175.1574     0.054649145
       3175.9110     0.015171815
       3176.6646     0.011331030
       3177.4182     0.021298005
       3178.1718     0.041071908
       3178.9255     0.035536394
       3179.6791     0.053849448
       3180.4327     0.086838158
       3181.1863     0.061654364
       3181.9399     0.052807011
       3182.6935     0.063330656
       3183.4472     0.034423274
       3184.2008     0.034406807
       3184.9544     0.053973477
       3185.7080     0.074348189
       3186.4616     0.079872941
       3187.2153     0.064424610
       3187.9689     0.080085952
       3188.7225     0.046831438
       3189.4761     0.021679293
       3190.2297     0.043356234
       3190.9834     0.075170078
       3191.7370     0.089688780
       3192.4906     0.062219575
       3193.2442     0.045044140
       3193.9978     0.050113527
       3194.7514     0.046293587
       3195.5051    0.0088421558
       3196.2587    -0.018658203
       3197.0123    -0.022657054
       3197.7659    0.0022202483
       3198.5195     0.071693254
       3199.2732     0.071125282
       3200.0268     0.053447169
       3200.7804     0.027212211
       3201.5340     0.041008772
       3202.2876     0.060212846
       3203.0413     0.074787225
       3203.7949     0.054285213
       3204.5485     0.047989717
       3205.3021     0.079375204
       3206.0557     0.031214394
       3206.8093     0.020428335
       3207.5630     0.046236932
       3208.3166     0.049451730
       3209.0702     0.075313586
       3209.8238     0.055691653
       3210.5774     0.073229956
       3211.3311     0.074891792
       3212.0847     0.070469535
       3212.8383     0.083026102
       3213.5919     0.089126878
       3214.3455     0.074679570
       3215.0991     0.064640737
       3215.8528     0.051595276
       3216.6064     0.047843228
       3217.3600     0.047984034
       3218.1136     0.027298745
       3218.8672     0.017417901
       3219.6209     0.045111662
       3220.3745     0.035568123
       3221.1281     0.053831887
       3221.8817     0.054621409
       3222.6353     0.033893635
       3223.3890     0.042727130
       3224.1426     0.030546685
       3224.8962     0.049124053
       3225.6498     0.061717003
       3226.4034     0.075614004
       3227.1570     0.075390798
       3227.9107     0.071495346
       3228.6643     0.027702928
       3229.4179     0.045954605
       3230.1715     0.051405026
       3230.9251     0.055174373
       3231.6788     0.028614940
       3232.4324     0.047621234
       3233.1860     0.072403819
       3233.9396     0.074340574
       3234.6932     0.076177034
       3235.4469     0.048169841
       3236.2005     0.051090548
       3236.9541     0.032645776
       3237.7077     0.056989710
       3238.4613     0.052050134
       3239.2149     0.036057609
       3239.9686     0.046990641
       3240.7222     0.043540225
       3241.4758     0.041910524
       3242.2294     0.065086320
       3242.9830     0.048236023
       3243.7367     0.043184649
       3244.4903     0.047755671
       3245.2439     0.084158027
       3245.9975     0.045962237
       3246.7511     0.023653885
       3247.5047     0.038107265
       3248.2584     0.043851555
       3249.0120     0.039303553
       3249.7656     0.066366823
       3250.5192     0.049981145
       3251.2728     0.028426834
       3252.0265     0.035966488
       3252.7801     0.033540059
       3253.5337    0.0038014899
       3254.2873     0.021942893
       3255.0409     0.064845255
       3255.7946     0.064548114
       3256.5482     0.059956913
       3257.3018     0.051380395
       3258.0554     0.061984093
       3258.8090     0.073887406
       3259.5626     0.058776948
       3260.3163     0.013838813
       3261.0699     0.016610521
       3261.8235     0.031865445
       3262.5771     0.018309149
       3263.3307   -0.0023216712
       3264.0844   -0.0080756148
       3264.8380     0.015028020
       3265.5916     0.067360643
       3266.3452     0.068303423
       3267.0988     0.032578401
       3267.8525     0.039667823
       3268.6061     0.057972250
       3269.3597     0.065329776
       3270.1133     0.050357925
       3270.8669     0.043399908
       3271.6205     0.069177694
       3272.3742      0.11305629
       3273.1278     0.073199626
       3273.8814     0.035417193
       3274.6350     0.064559148
       3275.3886     0.080940866
       3276.1423     0.074317608
       3276.8959     0.066142632
       3277.6495     0.088805761
       3278.4031      0.11380536
       3279.1567     0.065517636
       3279.9104     0.040414425
       3280.6640     0.034850518
       3281.4176     0.038158108
       3282.1712     0.072929971
       3282.9248     0.057488849
       3283.6784     0.073769890
       3284.4321     0.065883965
       3285.1857     0.098092212
       3285.9393     0.070066675
       3286.6929     0.052611801
       3287.4465     0.062459059
       3288.2002     0.051209560
       3288.9538     0.052021882
       3289.7074     0.081400658
       3290.4610     0.043055290
       3291.2146     0.086347023
       3291.9682     0.094400329
       3292.7219     0.058086917
       3293.4755     0.045136009
       3294.2291     0.059038412
       3294.9827     0.050995397
       3295.7363     0.057353676
       3296.4900     0.083838854
       3297.2436     0.045227478
       3297.9972     0.023218466
       3298.7508     0.047729705
       3299.5044     0.042966723
       3300.2581     0.060855976
       3301.0117     0.059402272
       3301.7653      0.10343658
       3302.5189     0.049887511
       3303.2725     0.024285576
       3304.0261     0.066724204
       3304.7798     0.084446879
       3305.5334     0.095503889
       3306.2870     0.063658229
       3307.0406     0.040564690
       3307.7942     0.077681045
       3308.5479      0.10785126
       3309.3015     0.084826924
       3310.0551     0.062286217
       3310.8087     0.075414960
       3311.5623     0.050614415
       3312.3160     0.040434043
       3313.0696     0.070309784
       3313.8232     0.094577969
       3314.5768     0.070628740
       3315.3304     0.069546928
       3316.0840     0.060652201
       3316.8377     0.031484589
       3317.5913     0.047344221
       3318.3449     0.078849934
       3319.0985     0.093613236
       3319.8521     0.079743123
       3320.6058     0.090160059
       3321.3594     0.093117755
       3322.1130     0.049863045
       3322.8666     0.053375775
       3323.6202     0.081819045
       3324.3738     0.098398257
       3325.1275     0.098664816
       3325.8811     0.071024952
       3326.6347      0.10228188
       3327.3883     0.067964527
       3328.1419     0.054567532
       3328.8956     0.064213646
       3329.6492     0.078826613
       3330.4028     0.092469524
       3331.1564     0.067560539
       3331.9100     0.046001839
       3332.6637     0.076201580
       3333.4173     0.083151890
       3334.1709     0.040165563
       3334.9245     0.061771243
       3335.6781     0.075915116
       3336.4317     0.071979999
       3337.1854     0.065401356
       3337.9390     0.066440493
       3338.6926     0.079671285
       3339.4462     0.076627136
       3340.1998     0.072384016
       3340.9535      0.10393784
       3341.7071     0.061981916
       3342.4607     0.074198400
       3343.2143     0.065925518
       3343.9679     0.034473718
       3344.7216     0.020470124
       3345.4752     0.030509304
       3346.2288     0.040310471
       3346.9824     0.056003295
       3347.7360     0.087912284
       3348.4896     0.086682532
       3349.2433     0.096058444
       3349.9969     0.037181229
       3350.7505     0.035513113
       3351.5041     0.052996127
       3352.2577     0.050859130
       3353.0114     0.034840625
       3353.7650     0.035348416
       3354.5186     0.053077752
       3355.2722     0.048478972
       3356.0258     0.086163910
       3356.7795     0.090470366
       3357.5331     0.047923886
       3358.2867     0.080733878
       3359.0403     0.066288880
       3359.7939     0.058845196
       3360.5475     0.029215969
       3361.3012     0.019969196
       3362.0548     0.025903257
       3362.8084     0.055821429
       3363.5620     0.054145394
       3364.3156     0.016456804
       3365.0693     0.051580879
       3365.8229      0.12067278
       3366.5765      0.12664900
       3367.3301     0.075947270
       3368.0837     0.028975911
       3368.8373     0.021216802
       3369.5910     0.059053241
       3370.3446     0.012673104
       3371.0982     0.016641400
       3371.8518     0.071309332
       3372.6054     0.088224863
       3373.3591     0.085188832
       3374.1127     0.067666699
       3374.8663     0.074379849
       3375.6199     0.065068282
       3376.3735     0.040041254
       3377.1272     0.036155448
       3377.8808     0.035337072
       3378.6344     0.067691692
       3379.3880     0.042533467
       3380.1416     0.044614139
       3380.8952     0.059083456
       3381.6489     0.072124624
       3382.4025     0.053921542
       3383.1561     0.043041600
       3383.9097     0.025968441
       3384.6633     0.060342196
       3385.4170     0.095151950
       3386.1706     0.080019788
       3386.9242     0.045522864
       3387.6778     0.036951290
       3388.4314     0.088463262
       3389.1851     0.080617352
       3389.9387     0.076461184
       3390.6923     0.079077876
       3391.4459      0.10074099
       3392.1995     0.080044003
       3392.9531     0.083603998
       3393.7068     0.096839666
       3394.4604     0.058759073
       3395.2140     0.030428574
       3395.9676     0.083989091
       3396.7212     0.057441477
       3397.4749     0.047093854
       3398.2285     0.063730670
       3398.9821     0.053962662
       3399.7357     0.041355175
       3400.4893     0.048768452
       3401.2429     0.017386418
       3401.9966     0.037051647
       3402.7502    0.0053596595
       3403.5038    0.0037171593
       3404.2574     0.051995214
       3405.0110     0.088020128
       3405.7647     0.077825992
       3406.5183     0.039105110
       3407.2719     0.054202797
       3408.0255     0.033554219
       3408.7791     0.054202403
       3409.5328     0.061934719
       3410.2864     0.071653984
       3411.0400      0.10964191
       3411.7936     0.089779292
       3412.5472     0.045101927
       3413.3008     0.077350474
       3414.0545      0.11473460
       3414.8081     0.074978338
       3415.5617     0.014546716
       3416.3153     0.055369425
       3417.0689     0.087074336
       3417.8226     0.056794214
       3418.5762     0.064491309
       3419.3298     0.051727838
       3420.0834     0.016440382
       3420.8370     0.045595631
       3421.5907     0.087087744
       3422.3443     0.077239311
       3423.0979     0.074741844
       3423.8515     0.071031970
       3424.6051     0.021598651
       3425.3587     0.040084435
       3426.1124     0.093369212
       3426.8660     0.099043696
       3427.6196     0.083733962
       3428.3732     0.070094479
       3429.1268     0.069974492
       3429.8805     0.044159998
       3430.6341     0.035728043
       3431.3877     0.054652181
       3432.1413     0.054765203
       3432.8949     0.060676188
       3433.6486     0.062213621
       3434.4022     0.062501105
       3435.1558     0.096926222
       3435.9094     0.073524888
       3436.6630     0.044060429
       3437.4166     0.040315350
       3438.1703     0.060827040
       3438.9239     0.072741046
       3439.6775     0.080613063
       3440.4311      0.11450221
       3441.1847     0.089163667
       3441.9384     0.050057653
       3442.6920     0.020860780
       3443.4456     0.065789128
       3444.1992     0.092034201
       3444.9528     0.078683508
       3445.7064     0.085955141
       3446.4601     0.060868862
       3447.2137     0.081318286
       3447.9673     0.058719522
       3448.7209     0.044345657
       3449.4745     0.036506366
       3450.2282     0.034655903
       3450.9818     0.043642556
       3451.7354     0.061880500
       3452.4890     0.058719399
       3453.2426     0.054989290
       3453.9963     0.055263988
       3454.7499     0.045522248
       3455.5035     0.086170620
       3456.2571     0.050178758
       3457.0107     0.071821797
       3457.7643      0.13913302
       3458.5180     0.074490181
       3459.2716     0.043544931
       3460.0252     0.067022406
       3460.7788     0.045880794
       3461.5324     0.071552309
       3462.2861     0.076565308
       3463.0397     0.082673168
       3463.7933     0.084669402
       3464.5469     0.055283220
       3465.3005     0.051232060
       3466.0542     0.098897342
       3466.8078     0.097570082
       3467.5614     0.096860963
       3468.3150      0.10702389
       3469.0686     0.081513720
       3469.8222     0.054990948
       3470.5759      0.11681346
       3471.3295      0.12312161
       3472.0831     0.098313054
       3472.8367     0.068319540
       3473.5903     0.019389911
       3474.3440     0.045919254
       3475.0976     0.094481786
       3475.8512     0.072318993
       3476.6048     0.063812286
       3477.3584     0.026784572
       3478.1120     0.045926814
       3478.8657     0.056604568
       3479.6193     0.084009130
       3480.3729     0.079663742
       3481.1265      0.12031131
       3481.8801     0.082398330
       3482.6338     0.084575264
       3483.3874     0.086427719
       3484.1410     0.054580496
       3484.8946     0.062450525
       3485.6482     0.048608773
       3486.4019     0.038898788
       3487.1555     0.058158265
       3487.9091      0.11825670
       3488.6627      0.10867420
       3489.4163     0.055622534
       3490.1699     0.032038415
       3490.9236     0.065829427
       3491.6772     0.041690977
       3492.4308     0.068020590
       3493.1844     0.045815209
       3493.9380     0.032421491
       3494.6917      0.10563878
       3495.4453     0.080195411
       3496.1989     0.027368517
       3496.9525     0.039012856
       3497.7061     0.070375523
       3498.4598     0.079763329
       3499.2134     0.082471711
       3499.9670     0.080254273
       3500.7206     0.089360258
       3501.4742     0.035281508
       3502.2278     0.045337323
       3502.9815     0.052910017
       3503.7351     0.049639372
       3504.4887    0.0056233747
       3505.2423     0.025774951
       3505.9959     0.062103197
       3506.7496     0.070887331
       3507.5032     0.072923962
       3508.2568     0.031966787
       3509.0104     0.058495266
       3509.7640     0.083000419
       3510.5177      0.11433286
       3511.2713     0.089949312
       3512.0249     0.071546632
       3512.7785     0.080416325
       3513.5321     0.087077597
       3514.2857      0.10285136
       3515.0394     0.072048163
       3515.7930     0.069106174
       3516.5466     0.055656211
       3517.3002     0.029869132
       3518.0538    0.0096911218
       3518.8075     0.054476134
       3519.5611     0.064971518
       3520.3147     0.048638954
       3521.0683      0.10187426
       3521.8219      0.13185876
       3522.5755      0.11958337
       3523.3292     0.096130430
       3524.0828     0.073661887
       3524.8364     0.040267289
       3525.5900     0.055608062
       3526.3436     0.082311394
       3527.0973     0.071544195
       3527.8509     0.063857967
       3528.6045     0.063463006
       3529.3581     0.074119596
       3530.1117     0.040943959
       3530.8654     0.046384546
       3531.6190     0.092422495
       3532.3726      0.10746545
       3533.1262     0.045422368
       3533.8798     0.046651879
       3534.6334     0.072012204
       3535.3871     0.072903492
       3536.1407     0.060443329
       3536.8943     0.094164833
       3537.6479     0.058902808
       3538.4015     0.043254227
       3539.1552     0.052053763
       3539.9088     0.090298618
       3540.6624     0.089764468
       3541.4160     0.064110492
       3542.1696     0.090579207
       3542.9233     0.090501431
       3543.6769     0.095938123
       3544.4305     0.087378569
       3545.1841     0.091671442
       3545.9377     0.083942505
       3546.6913     0.056690829
       3547.4450     0.056377251
       3548.1986     0.059894316
       3548.9522     0.086562295
       3549.7058     0.068336729
       3550.4594     0.045930362
       3551.2131     0.055589012
       3551.9667     0.097421607
       3552.7203      0.10633387
       3553.4739      0.10728798
       3554.2275     0.057614701
       3554.9811     0.060663898
       3555.7348     0.068447487
       3556.4884     0.061046509
       3557.2420     0.066152951
       3557.9956     0.054443182
       3558.7492     0.089192448
       3559.5029     0.084926613
       3560.2565     0.075167894
       3561.0101     0.067378393
       3561.7637     0.067676861
       3562.5173     0.081442235
       3563.2710      0.10849668
       3564.0246     0.076964836
       3564.7782      0.11778781
       3565.5318      0.10479506
       3566.2854     0.046640738
       3567.0390     0.054115872
       3567.7927     0.064672657
       3568.5463     0.084513462
       3569.2999      0.11275339
       3570.0535     0.067861137
       3570.8071     0.053357012
       3571.5608     0.060113762
       3572.3144     0.066194609
       3573.0680     0.084461233
       3573.8216     0.078954109
       3574.5752     0.094088681
       3575.3289     0.040938292
       3576.0825     0.078904337
       3576.8361     0.068409143
       3577.5897     0.041095920
       3578.3433     0.040930892
       3579.0969     0.045455156
       3579.8506     0.046002555
       3580.6042     0.052686844
       3581.3578     0.078026256
       3582.1114     0.093578705
       3582.8650     0.061362225
       3583.6187     0.066706730
       3584.3723     0.058729164
       3585.1259      0.10594608
       3585.8795     0.073567016
       3586.6331     0.075471127
       3587.3868     0.092288737
       3588.1404     0.083247511
       3588.8940     0.089135560
       3589.6476     0.062539744
       3590.4012     0.070386526
       3591.1548     0.057552567
       3591.9085     0.030884481
       3592.6621     0.071361204
       3593.4157     0.094916855
       3594.1693      0.11741597
       3594.9229      0.10493757
       3595.6766     0.079848297
       3596.4302     0.079530191
       3597.1838     0.090529695
       3597.9374      0.10940653
       3598.6910      0.11382237
       3599.4446      0.11597396
       3600.1983     0.094575166
       3600.9519      0.10833992
       3601.7055      0.14352797
       3602.4591      0.13807922
       3603.2127      0.15122388
       3603.9664      0.17445069
       3604.7200      0.10559946
       3605.4736     0.064489852
       3606.2272     0.068354658
       3606.9808     0.067086213
       3607.7345     0.088057381
       3608.4881     0.046907354
       3609.2417     0.033787050
       3609.9953     0.075201765
       3610.7489      0.12649969
       3611.5025      0.13940802
       3612.2562      0.10503685
       3613.0098     0.090365419
       3613.7634     0.090038004
       3614.5170     0.087842521
       3615.2706     0.044867251
       3616.0243     0.061296839
       3616.7779     0.070278313
       3617.5315     0.052628729
       3618.2851     0.043327640
       3619.0387     0.035593758
       3619.7924      0.10961673
       3620.5460      0.10197858
       3621.2996     0.080363598
       3622.0532     0.090180733
       3622.8068     0.092710364
       3623.5604      0.10415489
       3624.3141      0.10984786
       3625.0677     0.057692149
       3625.8213     0.013522799
       3626.5749     0.065708146
       3627.3285     0.098457419
       3628.0822     0.058215520
       3628.8358     0.095838969
       3629.5894     0.065986684
       3630.3430      0.11807054
       3631.0966     0.093481984
       3631.8502     0.095892181
       3632.6039     0.081270318
       3633.3575     0.056081614
       3634.1111     0.086201088
       3634.8647     0.093544939
       3635.6183     0.063315166
       3636.3720      0.10094669
       3637.1256     0.073823945
       3637.8792     0.047999167
       3638.6328     0.060302701
       3639.3864     0.084268383
       3640.1401     0.045262981
       3640.8937     0.046929222
       3641.6473     0.030794620
       3642.4009     0.053868921
       3643.1545     0.040996224
       3643.9081     0.080503637
       3644.6618      0.13707208
       3645.4154      0.14473898
       3646.1690     0.078071814
       3646.9226     0.075625909
       3647.6762     0.060864147
       3648.4299      0.10648648
       3649.1835      0.13060972
       3649.9371     0.094568574
       3650.6907     0.075405350
       3651.4443     0.079683867
       3652.1980     0.075908221
       3652.9516     0.070092059
       3653.7052     0.053553851
       3654.4588      0.10160299
       3655.2124     0.091548441
       3655.9660     0.089076870
       3656.7197     0.083075425
       3657.4733     0.089537379
       3658.2269     0.070342945
       3658.9805     0.083779278
       3659.7341      0.12410988
       3660.4878     0.071768787
       3661.2414     0.058605585
       3661.9950     0.056082763
       3662.7486     0.037418564
       3663.5022     0.073408503
       3664.2559     0.059206721
       3665.0095     0.079753901
       3665.7631     0.084654901
       3666.5167     0.071195002
       3667.2703     0.081471427
       3668.0239      0.12567020
       3668.7776      0.11761929
       3669.5312     0.061456380
       3670.2848     0.055062440
       3671.0384     0.099771841
       3671.7920      0.10883796
       3672.5457      0.11361271
       3673.2993     0.099034340
       3674.0529     0.071084857
       3674.8065     0.076070539
       3675.5601     0.068464881
       3676.3137     0.083211169
       3677.0674      0.12300456
       3677.8210     0.071078627
       3678.5746     0.059946218
       3679.3282     0.089555014
       3680.0818     0.079160372
       3680.8355     0.080571386
       3681.5891      0.10852152
       3682.3427     0.073559357
       3683.0963     0.057885782
       3683.8499      0.11459217
       3684.6036     0.085606495
       3685.3572     0.054115534
       3686.1108     0.048729299
       3686.8644     0.077004346
       3687.6180     0.081756574
       3688.3716     0.070369290
       3689.1253     0.086755372
       3689.8789      0.11156311
       3690.6325      0.10668054
       3691.3861     0.091004384
       3692.1397     0.074995393
       3692.8934     0.081871265
       3693.6470      0.10189444
       3694.4006     0.073644293
       3695.1542      0.10604824
       3695.9078      0.10090614
       3696.6615     0.066563512
       3697.4151     0.089424507
       3698.1687     0.077295963
       3698.9223     0.055099537
       3699.6759     0.092186921
       3700.4295     0.074023622
       3701.1832     0.076992048
       3701.9368     0.054994370
       3702.6904     0.094961661
       3703.4440      0.11272266
       3704.1976     0.036007585
       3704.9513     0.033086010
       3705.7049      0.11638028
       3706.4585      0.11967967
       3707.2121     0.086391385
       3707.9657     0.097272186
       3708.7193     0.049304713
       3709.4730     0.085987467
       3710.2266     0.091362580
       3710.9802     0.070297879
       3711.7338      0.11766496
       3712.4874      0.15382519
       3713.2411     0.092571142
       3713.9947     0.089185486
       3714.7483      0.16192602
       3715.5019      0.14498699
       3716.2555      0.11547016
       3717.0092     0.065780882
       3717.7628     0.097130461
       3718.5164      0.12388594
       3719.2700      0.12047077
       3720.0236     0.083529349
       3720.7772     0.055923242
       3721.5309     0.075558164
       3722.2845     0.063617162
       3723.0381     0.096616306
       3723.7917      0.11033060
       3724.5453      0.13042019
       3725.2990      0.15685945
       3726.0526      0.19522187
       3726.8062      0.19383857
       3727.5598      0.15272614
       3728.3134      0.20504652
       3729.0671      0.22293420
       3729.8207      0.14315082
       3730.5743      0.10679697
       3731.3279     0.092650216
       3732.0815     0.028794535
       3732.8351     0.047291988
       3733.5888     0.046434069
       3734.3424     0.076294003
       3735.0960     0.086227244
       3735.8496     0.072634754
       3736.6032     0.077959145
       3737.3569      0.12907184
       3738.1105     0.071811875
       3738.8641     0.066124941
       3739.6177     0.047870200
       3740.3713     0.089772132
       3741.1250      0.12819226
       3741.8786      0.11917524
       3742.6322     0.085778040
       3743.3858      0.10212437
       3744.1394     0.056796019
       3744.8930     0.035465321
       3745.6467     0.051379095
       3746.4003     0.084898740
       3747.1539     0.086282509
       3747.9075     0.082812765
       3748.6611     0.060324890
       3749.4148     0.044298340
       3750.1684     0.046201335
       3750.9220     0.064662190
       3751.6756     0.095309264
       3752.4292      0.11459218
       3753.1828     0.086827120
       3753.9365      0.13807001
       3754.6901      0.15147203
       3755.4437      0.12964285
       3756.1973      0.10471420
       3756.9509     0.079497033
       3757.7046     0.024221388
       3758.4582     0.031069320
       3759.2118     0.093052664
       3759.9654     0.077405157
       3760.7190      0.10404447
       3761.4727      0.13679668
       3762.2263      0.14105180
       3762.9799     0.083269654
       3763.7335     0.073762445
       3764.4871      0.11422994
       3765.2407      0.10452052
       3765.9944      0.11106388
       3766.7480      0.10030417
       3767.5016     0.092446189
       3768.2552     0.049868460
       3769.0088     0.022196044
       3769.7625     0.075100400
       3770.5161     0.075729347
       3771.2697     0.083366214
       3772.0233     0.098381017
       3772.7769      0.11829756
       3773.5306      0.11723254
       3774.2842      0.14630576
       3775.0378     0.090386138
       3775.7914     0.075925727
       3776.5450      0.10614519
       3777.2986      0.11413423
       3778.0523      0.20349797
       3778.8059      0.16748455
       3779.5595      0.12422308
       3780.3131      0.14554310
       3781.0667      0.13754539
       3781.8204      0.14054931
       3782.5740     0.066459579
       3783.3276     0.068214549
       3784.0812     0.080443723
       3784.8348      0.13708260
       3785.5884      0.14733200
       3786.3421      0.11376448
       3787.0957      0.11202062
       3787.8493      0.11156006
       3788.6029      0.15671261
       3789.3565      0.15935471
       3790.1102      0.11112052
       3790.8638      0.11202573
       3791.6174      0.12396325
       3792.3710     0.081808711
       3793.1246     0.072826891
       3793.8783     0.084912995
       3794.6319     0.066714697
       3795.3855     0.079308818
       3796.1391      0.11815998
       3796.8927     0.090437659
       3797.6463     0.071470430
       3798.4000     0.099367358
       3799.1536      0.15145745
       3799.9072     0.097190883
       3800.6608     0.089353484
       3801.4144      0.11493027
       3802.1681      0.13858479
       3802.9217     0.089579439
       3803.6753      0.10221165
       3804.4289      0.10358515
       3805.1825      0.14621751
       3805.9362     0.050879712
       3806.6898     0.096058172
       3807.4434      0.11207396
       3808.1970     0.086245275
       3808.9506      0.10151884
       3809.7042     0.082092601
       3810.4579      0.13878160
       3811.2115     0.099235992
       3811.9651      0.10046991
       3812.7187     0.084009280
       3813.4723     0.090459664
       3814.2260      0.12120869
       3814.9796     0.095995049
       3815.7332     0.073900027
       3816.4868     0.083070120
       3817.2404     0.061465434
       3817.9941     0.038206571
       3818.7477     0.029939284
       3819.5013     0.055608713
       3820.2549     0.069828735
       3821.0085      0.14990004
       3821.7621      0.12058916
       3822.5158     0.056697879
       3823.2694     0.090259279
       3824.0230      0.10032584
       3824.7766      0.10012651
       3825.5302     0.089955335
       3826.2839      0.11684467
       3827.0375      0.10155184
       3827.7911     0.034818071
       3828.5447     0.058300030
       3829.2983     0.031172718
       3830.0519   0.00040526984
       3830.8056     0.046949489
       3831.5592      0.13637522
       3832.3128     0.092100963
       3833.0664     0.044671498
       3833.8200      0.12660084
       3834.5737     0.070841819
       3835.3273     0.020471347
       3836.0809     0.063365142
       3836.8345     0.066245037
       3837.5881     0.093344076
       3838.3418     0.091021026
       3839.0954     0.089762262
       3839.8490      0.14660864
       3840.6026     0.070797579
       3841.3562      0.12013163
       3842.1098     0.084833325
       3842.8635      0.10616272
       3843.6171      0.11730840
       3844.3707      0.14070112
       3845.1243      0.11708477
       3845.8779     0.093180289
       3846.6316      0.11722172
       3847.3852      0.11737490
       3848.1388     0.088685746
       3848.8924     0.094500213
       3849.6460     0.071583853
       3850.3997      0.15020798
       3851.1533      0.12260372
       3851.9069      0.11788032
       3852.6605      0.17932690
       3853.4141      0.14822154
       3854.1677      0.15974439
       3854.9214     0.086587757
       3855.6750      0.11207187
       3856.4286      0.13551595
       3857.1822      0.15951051
       3857.9358      0.10643261
       3858.6895     0.027150743
       3859.4431      0.12099155
       3860.1967     0.097762695
       3860.9503      0.14973149
       3861.7039     0.054601213
       3862.4575     0.075569475
       3863.2112      0.12022590
       3863.9648      0.10027890
       3864.7184     0.097900064
       3865.4720      0.10619213
       3866.2256     -0.19269071
       3866.9793     -0.71218971
       3867.7329      0.21310625
       3868.4865      0.30837051
       3869.2401      0.24755240
       3869.9937      0.21038927
       3870.7474      0.37867787
       3871.5010     0.028710967
       3872.2546     0.014803436
       3873.0082     -0.14554048
       3873.7618    -0.092201216
       3874.5154      0.12679539
       3875.2691     0.061289279
       3876.0227     0.094488971
       3876.7763     0.090634158
       3877.5299     0.097180157
       3878.2835      0.14497213
       3879.0372     0.094019375
       3879.7908      0.12030386
       3880.5444     0.079355584
       3881.2980     0.020688678
       3882.0516     0.025582322
       3882.8053     0.063648804
       3883.5589     0.081106309
       3884.3125     0.097431380
       3885.0661      0.10014579
       3885.8197     0.052770374
       3886.5733     0.071401115
       3887.3270      0.10265996
       3888.0806     0.088969590
       3888.8342     0.067160631
       3889.5878     0.030290766
       3890.3414     0.053846120
       3891.0951     0.080431416
       3891.8487      0.11472285
       3892.6023     0.099599327
       3893.3559     0.030016630
       3894.1095     0.075847827
       3894.8632     0.090876652
       3895.6168     0.088186146
       3896.3704     0.060483885
       3897.1240     0.056988433
       3897.8776     0.043028179
       3898.6312     0.055502064
       3899.3849      0.12322277
       3900.1385     0.083447807
       3900.8921     0.079860940
       3901.6457      0.13623463
       3902.3993     0.097985096
       3903.1530     0.074097379
       3903.9066      0.13309689
       3904.6602      0.15816380
       3905.4138      0.11584322
       3906.1674     0.075291769
       3906.9210     0.080239912
       3907.6747     0.088069967
       3908.4283     0.089532982
       3909.1819      0.10135176
       3909.9355     0.089914052
       3910.6891      0.10977317
       3911.4428      0.12508283
       3912.1964     0.099753638
       3912.9500      0.10570430
       3913.7036      0.14767785
       3914.4572     0.088342179
       3915.2109     0.086439810
       3915.9645     0.046791688
       3916.7181     0.070281387
       3917.4717      0.10543658
       3918.2253      0.11374585
       3918.9789     0.037729831
       3919.7326     0.088720401
       3920.4862     0.086490880
       3921.2398     0.089498631
       3921.9934     0.057681398
       3922.7470     0.084828469
       3923.5007     0.059218642
       3924.2543    0.0048995449
       3925.0079     0.023333411
       3925.7615     0.028862888
       3926.5151     0.032374487
       3927.2688     0.048578856
       3928.0224    0.0085073889
       3928.7760     0.026434482
       3929.5296     0.028818125
       3930.2832    0.0016324611
       3931.0368     0.058852099
       3931.7905     0.062242597
       3932.5441     0.033313626
       3933.2977     0.015975486
       3934.0513     0.039566951
       3934.8049     0.036765514
       3935.5586     0.094464180
       3936.3122     0.016320463
       3937.0658     0.054382505
       3937.8194    -0.016579487
       3938.5730     0.034737010
       3939.3267    0.0019182502
       3940.0803     0.028980570
       3940.8339     0.027864868
       3941.5875      0.11421502
       3942.3411     0.065212661
       3943.0947     0.020445647
       3943.8484     0.058581107
       3944.6020     0.046148967
       3945.3556     0.048973004
       3946.1092     0.091893877
       3946.8628     0.051135634
       3947.6165     0.042726453
       3948.3701     0.020353793
       3949.1237     0.029786903
       3949.8773     0.090648328
       3950.6309     0.071577565
       3951.3845     0.044898528
       3952.1382     0.037337604
       3952.8918     0.038561270
       3953.6454   -0.0051708069
       3954.3990     0.032194453
       3955.1526     0.022329055
       4233.1533      0.31551265
       4233.9817      0.23312263
       4234.8101      0.19873359
       4235.6385      0.15195301
       4236.4670      0.36450615
       4237.2954      0.30750562
       4238.1238      0.42035444
       4238.9522      0.44370324
       4239.7806      0.38268123
       4240.6091      0.39652666
       4241.4375      0.38935448
       4242.2659      0.29742675
       4243.0943      0.22792480
       4243.9227      0.41388493
       4244.7512      0.35598308
       4245.5796      0.34505118
       4246.4080      0.30798912
       4247.2364      0.50707889
       4248.0648      0.27620010
       4248.8933      0.51714497
       4249.7217      0.61631009
       4250.5501      0.51751281
       4251.3785      0.34490346
       4252.2069      0.31538084
       4253.0354      0.23460292
       4253.8638      0.22337073
       4254.6922      0.20307640
       4255.5206      0.37762759
       4256.3490      0.27206157
       4257.1775      0.29202124
       4258.0059      0.35290948
       4258.8343      0.40274864
       4259.6627      0.44377583
       4260.4911      0.56210349
       4261.3196      0.32694091
       4262.1480      0.32550949
       4262.9764      0.62315491
       4263.8048      0.45797295
       4264.6332      0.47816788
       4265.4617      0.45244733
       4266.2901      0.32751680
       4267.1185      0.43794792
       4267.9469      0.38066449
       4268.7753      0.36763445
       4269.6038      0.41397059
       4270.4322      0.38851294
       4271.2606      0.35995611
       4272.0890      0.37607790
       4272.9174      0.37239666
       4273.7459      0.32430714
       4274.5743      0.29814644
       4275.4027      0.36197843
       4276.2311      0.49713424
       4277.0595      0.43026778
       4277.8880      0.41559248
       4278.7164      0.42963825
       4279.5448      0.42532666
       4280.3732      0.44443079
       4281.2016      0.40883289
       4282.0301      0.38583140
       4282.8585      0.41015136
       4283.6869      0.38073713
       4284.5153      0.38873492
       4285.3437      0.36686633
       4286.1722      0.45127540
       4287.0006      0.26601904
       4287.8290      0.35884057
       4288.6574      0.34918277
       4289.4858      0.34429322
       4290.3143      0.36242408
       4291.1427      0.28580383
       4291.9711      0.31747068
       4292.7995      0.33007262
       4293.6279      0.22728749
       4294.4564      0.30042361
       4295.2848      0.18374003
       4296.1132      0.30605018
       4296.9416      0.51642069
       4297.7700      0.50951578
       4298.5985      0.31070470
       4299.4269      0.30997655
       4300.2553      0.35068796
       4301.0837      0.42203341
       4301.9121      0.47143253
       4302.7406      0.38653827
       4303.5690      0.41052849
       4304.3974      0.54398157
       4305.2258      0.50608468
       4306.0542      0.55366303
       4306.8827      0.51346348
       4307.7111      0.23578331
       4308.5395      0.48882448
       4309.3679      0.57898015
       4310.1963      0.44029385
       4311.0248      0.43725430
       4311.8532      0.46483292
       4312.6816      0.52370752
       4313.5100      0.33694951
       4314.3384      0.39043312
       4315.1669      0.46283845
       4315.9953      0.44311460
       4316.8237      0.48242788
       4317.6521      0.31626067
       4318.4805      0.42932940
       4319.3090      0.65157139
       4320.1374      0.28501287
       4320.9658      0.36332831
       4321.7942      0.46928823
       4322.6226      0.50193360
       4323.4511      0.44982087
       4324.2795      0.31175406
       4325.1079      0.48013162
       4325.9363      0.40057365
       4326.7647      0.42528783
       4327.5932      0.57634862
       4328.4216      0.29302256
       4329.2500      0.34757283
       4330.0784      0.36816243
       4330.9068      0.30613158
       4331.7353      0.46500609
       4332.5637      0.45530466
       4333.3921      0.27709348
       4334.2205      0.23878440
       4335.0489      0.31464085
       4335.8774      0.26891838
       4336.7058      0.44202307
       4337.5342      0.27964773
       4338.3626      0.45027463
       4339.1910      0.36431665
       4340.0195      0.31678291
       4340.8479      0.53636496
       4341.6763      0.51093002
       4342.5047      0.31446519
       4343.3331      0.24092260
       4344.1616      0.49428433
       4344.9900      0.59532102
       4345.8184      0.49466502
       4346.6468      0.49333888
       4347.4753      0.43743997
       4348.3037      0.34966806
       4349.1321      0.28563944
       4349.9605      0.36405544
       4350.7889      0.41301398
       4351.6174      0.35733314
       4352.4458      0.39802004
       4353.2742      0.44526868
       4354.1026      0.43180950
       4354.9310      0.38435291
       4355.7595      0.39800540
       4356.5879      0.26708658
       4357.4163      0.41766323
       4358.2447      0.55690507
       4359.0731      0.56100717
       4359.9016      0.53485216
       4360.7300      0.52562359
       4361.5584      0.44726671
       4362.3868      0.17198865
       4363.2152      0.15381847
       4364.0437      0.20994162
       4364.8721      0.67528186
       4365.7005      0.92293959
       4366.5289      0.45226978
       4367.3573    0.0074548908
       4368.1858      0.28092402
       4369.0142      0.29803287
       4369.8426      0.29413991
       4370.6710      0.28363818
       4371.4994      0.57084950
       4372.3279      0.56391601
       4373.1563      0.44590765
       4373.9847      0.38153034
       4374.8131      0.39327591
       4375.6415      0.46553647
       4376.4700      0.37399255
       4377.2984      0.42321724
       4378.1268      0.45570337
       4378.9552      0.50107134
       4379.7836      0.42656919
       4380.6121      0.56058373
       4381.4405      0.56607795
       4382.2689      0.34325721
       4383.0973      0.40004230
       4383.9257      0.49713271
       4384.7542      0.47235721
       4385.5826      0.44308129
       4386.4110      0.42568820
       4387.2394      0.54035298
       4388.0678      0.43423596
       4388.8963      0.54741305
       4389.7247      0.37548025
       4390.5531      0.51986241
       4391.3815      0.46735368
       4392.2099      0.44909366
       4393.0384      0.48323416
       4393.8668      0.48830489
       4394.6952      0.53110122
       4395.5236      0.50734631
       4396.3520      0.57664530
       4397.1805      0.40402012
       4398.0089      0.40808209
       4398.8373      0.52310780
       4399.6657      0.34009069
       4400.4941      0.40660651
       4401.3226      0.48475913
       4402.1510      0.40039849
       4402.9794      0.61289750
       4403.8078      0.35800193
       4404.6362      0.39826791
       4405.4647      0.62179663
       4406.2931      0.40272824
       4407.1215      0.51016873
       4407.9499      0.47438568
       4408.7783      0.25002357
       4409.6068      0.36740295
       4410.4352      0.51485641
       4411.2636      0.30489111
       4412.0920      0.67452846
       4412.9204      0.62336052
       4413.7489      0.49392287
       4414.5773      0.63320583
       4415.4057      0.53326142
       4416.2341      0.49469144
       4417.0625      0.50594535
       4417.8910      0.33545348
       4418.7194      0.39845674
       4419.5478      0.35960976
       4420.3762      0.50233250
       4421.2046      0.53653210
       4422.0331      0.52626054
       4422.8615      0.48876608
       4423.6899      0.49238518
       4424.5183      0.48674055
       4425.3467      0.38881890
       4426.1752      0.50626857
       4427.0036      0.45238081
       4427.8320      0.46024065
       4428.6604      0.54401804
       4429.4888      0.43921741
       4430.3173      0.44490268
       4431.1457      0.59943509
       4431.9741      0.44138966
       4432.8025      0.37769918
       4433.6309      0.36722690
       4434.4594      0.55801026
       4435.2878      0.48791855
       4436.1162      0.48084279
       4436.9446      0.49671695
       4437.7730      0.58062872
       4438.6015      0.60650629
       4439.4299      0.64955877
       4440.2583      0.59034379
       4441.0867      0.47663412
       4441.9151      0.49264774
       4442.7436      0.55053205
       4443.5720      0.43754262
       4444.4004      0.42485047
       4445.2288      0.45437774
       4446.0572      0.45795184
       4446.8857      0.46453206
       4447.7141      0.51641521
       4448.5425      0.51507096
       4449.3709      0.47640740
       4450.1993      0.52861432
       4451.0278      0.58999026
       4451.8562      0.45838209
       4452.6846      0.48439174
       4453.5130      0.63695423
       4454.3414      0.39136949
       4455.1699      0.53313627
       4455.9983      0.53918260
       4456.8267      0.46390372
       4457.6551      0.36036992
       4458.4835      0.48839002
       4459.3120      0.44739001
       4460.1404      0.58282645
       4460.9688      0.52311494
       4461.7972      0.60468760
       4462.6256      0.39816265
       4463.4541      0.44956901
       4464.2825      0.61512236
       4465.1109      0.50385612
       4465.9393      0.57429311
       4466.7677      0.58476999
       4467.5962      0.56145657
       4468.4246      0.57900543
       4469.2530      0.56592423
       4470.0814      0.56708682
       4470.9098      0.39969596
       4471.7383      0.53557872
       4472.5667      0.46271837
       4473.3951      0.46432004
       4474.2235      0.69404537
       4475.0519      0.51810967
       4475.8804      0.56709147
       4476.7088      0.49868913
       4477.5372      0.46900693
       4478.3656      0.60561321
       4479.1940      0.47465145
       4480.0225      0.60241495
       4480.8509      0.46505865
       4481.6793      0.42086831
       4482.5077      0.42094110
       4483.3361      0.39391005
       4484.1646      0.42283540
       4484.9930      0.51141316
       4485.8214      0.37733257
       4486.6498      0.43973143
       4487.4782      0.47793848
       4488.3067      0.71754647
       4489.1351      0.70311930
       4489.9635      0.46262435
       4490.7919      0.48980923
       4491.6203      0.56889010
       4492.4488      0.56825444
       4493.2772      0.70393464
       4494.1056      0.54839093
       4494.9340      0.59635358
       4495.7624      0.71216306
       4496.5909      0.32131576
       4497.4193      0.24438331
       4498.2477      0.56761796
       4499.0761      0.53401884
       4499.9045      0.44999251
       4500.7330      0.66358271
       4501.5614      0.57548694
       4502.3898      0.57493205
       4503.2182      0.69747731
       4504.0466      0.45360583
       4504.8751      0.30661253
       4505.7035      0.30035988
       4506.5319      0.37606451
       4507.3603      0.39720656
       4508.1887      0.41684205
       4509.0172      0.59702739
       4509.8456      0.81805774
       4510.6740      0.52659676
       4511.5024      0.54277786
       4512.3308      0.50625116
       4513.1593      0.75676337
       4513.9877      0.37239071
       4514.8161      0.58874981
       4515.6445      0.58193366
       4516.4729      0.63271649
       4517.3014      0.59848735
       4518.1298      0.57946794
       4518.9582      0.58281334
       4519.7866      0.55953566
       4520.6150      0.58406884
       4521.4435      0.43377097
       4522.2719      0.40914353
       4523.1003      0.34145414
       4523.9287      0.45554485
       4524.7571      0.41922079
       4525.5856      0.32131576
       4526.4140      0.42872151
       4527.2424      0.63090419
       4528.0708      0.61980924
       4528.8992      0.45882566
       4529.7277      0.85312701
       4530.5561      0.68070890
       4531.3845      0.78047089
       4532.2129      0.74611058
       4533.0413      0.76649439
       4533.8698      0.63894321
       4534.6982      0.70516194
       4535.5266      0.92120610
       4536.3550      0.72299555
       4537.1834      0.48020004
       4538.0119      0.70486995
       4538.8403      0.56333172
       4539.6687      0.55355400
       4540.4971      0.52355085
       4541.3255      0.59360895
       4542.1540      0.58087893
       4542.9824      0.55554507
       4543.8108      0.54914420
       4544.6392      0.53262052
       4545.4676      0.49933143
       4546.2961      0.53964985
       4547.1245      0.49260863
       4547.9529      0.39189679
       4548.7813      0.39302270
       4549.6097      0.45172173
       4550.4382      0.66989777
       4551.2666      0.60433661
       4552.0950      0.54824196
       4552.9234      0.47709012
       4553.7518      0.37159246
       4554.5803      0.35032461
       4555.4087      0.40738613
       4556.2371      0.56692073
       4557.0655      0.57630802
       4557.8939      0.47052879
       4558.7224      0.28245613
       4559.5508      0.36254057
       4560.3792      0.56309699
       4561.2076      0.65358698
       4562.0360      0.50270602
       4562.8645      0.51766188
       4563.6929      0.45711577
       4564.5213      0.45211943
       4565.3497      0.62452071
       4566.1781      0.64105576
       4567.0066      0.59342023
       4567.8350      0.53380889
       4568.6634      0.49314377
       4569.4918      0.49618994
       4570.3202      0.56672148
       4571.1487      0.65248271
       4571.9771      0.62307015
       4572.8055      0.37151169
       4573.6339      0.55722086
       4574.4624      0.56023783
       4575.2908      0.56213254
       4576.1192      0.72454995
       4576.9476      0.44324183
       4577.7760      0.42451529
       4578.6045      0.37103268
       4579.4329      0.52618757
       4580.2613      0.44904898
       4581.0897      0.38813119
       4581.9181      0.49318230
       4582.7466      0.65256178
       4583.5750      0.45881806
       4584.4034      0.60800890
       4585.2318      0.61556807
       4586.0602      0.58008423
       4586.8887      0.64939454
       4587.7171      0.52829785
       4588.5455      0.59985214
       4589.3739      0.53582993
       4590.2023      0.54136122
       4591.0308      0.50130376
       4591.8592      0.51852733
       4592.6876      0.47436122
       4593.5160      0.66446233
       4594.3444      0.49906371
       4595.1729      0.49308447
       4596.0013      0.60135534
       4596.8297      0.59232451
       4597.6581      0.64562369
       4598.4865      0.49896983
       4599.3150      0.33361507
       4600.1434      0.49428180
       4600.9718      0.54374263
       4601.8002      0.41727711
       4602.6286      0.46071308
       4603.4571      0.51417778
       4604.2855      0.54163609
       4605.1139      0.56780700
       4605.9423      0.57337598
       4606.7707      0.52757557
       4607.5992      0.58476286
       4608.4276      0.53060052
       4609.2560      0.40570809
       4610.0844      0.51434833
       4610.9128      0.57245008
       4611.7413      0.61743572
       4612.5697      0.56512244
       4613.3981      0.52077656
       4614.2265      0.49483255
       4615.0549      0.62204321
       4615.8834      0.47997766
       4616.7118      0.48005828
       4617.5402      0.67296996
       4618.3686      0.61854617
       4619.1970      0.57082952
       4620.0255      0.56652690
       4620.8539      0.50038777
       4621.6823      0.68697746
       4622.5107      0.59913631
       4623.3391      0.46708919
       4624.1676      0.36064772
       4624.9960      0.37206190
       4625.8244      0.49067018
       4626.6528      0.47038607
       4627.4812      0.42650522
       4628.3097      0.54227166
       4629.1381      0.54044098
       4629.9665      0.42040762
       4630.7949      0.40733808
       4631.6233      0.61034966
       4632.4518      0.59464775
       4633.2802      0.56003668
       4634.1086      0.57817104
       4634.9370      0.50663443
       4635.7654      0.54328362
       4636.5939      0.43557085
       4637.4223      0.60012006
       4638.2507      0.65485064
       4639.0791      0.55776754
       4639.9075      0.55519344
       4640.7360      0.56181479
       4641.5644      0.51437227
       4642.3928      0.52060605
       4643.2212      0.46971022
       4644.0496      0.36780776
       4644.8781      0.49492670
       4645.7065      0.57050510
       4646.5349      0.54267030
       4647.3633      0.56755564
       4648.1917      0.51334101
       4649.0202      0.56546822
       4649.8486      0.58171557
       4650.6770      0.46097244
       4651.5054      0.58646863
       4652.3338      0.50830699
       4653.1623      0.41798389
       4653.9907      0.45778748
       4654.8191      0.70049008
       4655.6475      0.57779128
       4656.4759      0.45913099
       4657.3044      0.42406207
       4658.1328      0.71287271
       4658.9612      0.48551949
       4659.7896      0.56956398
       4660.6180      0.58085561
       4661.4465      0.46155910
       4662.2749      0.57343869
       4663.1033      0.44527400
       4663.9317      0.40011427
       4664.7601      0.48978257
       4665.5886      0.53347875
       4666.4170      0.47194077
       4667.2454      0.46608013
       4668.0738      0.49354931
       4668.9022      0.58893520
       4669.7307      0.46405603
       4670.5591      0.45570033
       4671.3875      0.60514348
       4672.2159      0.58407095
       4673.0443      0.56315365
       4673.8728      0.53978667
       4674.7012      0.49508162
       4675.5296      0.60862954
       4676.3580      0.59213132
       4677.1864      0.55536604
       4678.0149      0.52514205
       4678.8433      0.63166777
       4679.6717      0.61093759
       4680.5001      0.60627524
       4681.3285      0.49135237
       4682.1570      0.46648654
       4682.9854      0.55030171
       4683.8138      0.54348687
       4684.6422      0.52955091
       4685.4706      0.65179356
       4686.2991      0.59443399
       4687.1275      0.56287972
       4687.9559      0.49814409
       4688.7843      0.60724748
       4689.6127      0.61706409
       4690.4412      0.58806425
       4691.2696      0.52130961
       4692.0980      0.47764524
       4692.9264      0.45757938
       4693.7548      0.53251857
       4694.5833      0.52053127
       4695.4117      0.57601448
       4696.2401      0.53404244
       4697.0685      0.59175831
       4697.8969      0.55547789
       4698.7254      0.47613194
       4699.5538      0.58101096
       4700.3822      0.61319409
       4701.2106      0.56204782
       4702.0390      0.33464977
       4702.8675      0.35016844
       4703.6959      0.22524666
       4704.5243      0.60992543
       4705.3527      0.74531795
       4706.1811       1.5384750
       4707.0096       1.6457940
       4707.8380       1.7170827
       4708.6664      0.77678827
       4709.4948      0.68656815
       4710.3232      0.69737852
       4711.1517      0.73458293
       4711.9801      0.64237447
       4712.8085      0.50222847
       4713.6369      0.54427203
       4714.4653      0.40085424
       4715.2938      0.46091571
       4716.1222      0.54895741
       4716.9506      0.55378429
       4717.7790      0.60822636
       4718.6074      0.45879100
       4719.4359      0.58023629
       4720.2643      0.55606445
       4721.0927      0.46971731
       4721.9211      0.54253654
       4722.7495      0.53274769
       4723.5780      0.53601589
       4724.4064      0.53115390
       4725.2348      0.60861679
       4726.0632      0.53249747
       4726.8916      0.69993121
       4727.7201      0.67512635
       4728.5485      0.48796833
       4729.3769      0.53548240
       4730.2053      0.63389115
       4731.0337      0.55089758
       4731.8622      0.48088099
       4732.6906      0.51904529
       4733.5190      0.57389850
       4734.3474      0.61459128
       4735.1758      0.67938552
       4736.0043      0.69885838
       4736.8327      0.46806340
       4737.6611      0.55750875
       4738.4895      0.52331411
       4739.3179      0.51086091
       4740.1464      0.59686375
       4740.9748      0.57815409
       4741.8032      0.52498338
       4742.6316      0.57296937
       4743.4600      0.51474482
       4744.2885      0.59571914
       4745.1169      0.53351616
       4745.9453      0.60168825
       4746.7737      0.51208924
       4747.6021      0.28912148
       4748.4306      0.73336849
       4749.2590      0.50441383
       4750.0874      0.88620316
       4750.9158      0.53714594
       4751.7442      0.51514257
       4752.5727      0.53631492
       4753.4011      0.64458882
       4754.2295      0.40620164
       4755.0579      0.57886902
       4755.8863      0.58068321
       4756.7148      0.52967009
       4757.5432      0.55993429
       4758.3716      0.49623023
       4759.2000      0.54580973
       4760.0284      0.62390055
       4760.8569      0.61616449
       4761.6853      0.57066929
       4762.5137      0.59338223
       4763.3421      0.60348565
       4764.1705      0.55424374
       4764.9990      0.56200256
       4765.8274      0.47598204
       4766.6558      0.54600010
       4767.4842      0.49020704
       4768.3126      0.43834891
       4769.1411      0.38001517
       4769.9695      0.56520254
       4770.7979      0.47947614
       4771.6263      0.54526078
       4772.4547      0.78878147
       4773.2832      0.58477175
       4774.1116      0.29054021
       4774.9400      0.29322458
       4775.7684      0.26146073
       4776.5968      0.40185748
       4777.4253      0.35579695
       4778.2537      0.38863086
       4779.0821      0.45251855
       4779.9105      0.45283343
       4780.7389      0.50556362
       4781.5674      0.42714234
       4782.3958      0.55916759
       4783.2242      0.55348686
       4784.0526      0.50254196
       4784.8810      0.62967283
       4785.7095      0.50867413
       4786.5379      0.46454377
       4787.3663      0.44323237
       4788.1947      0.55340905
       4789.0231      0.38390443
       4789.8516      0.57103207
       4790.6800      0.41209803
       4791.5084      0.61964020
       4792.3368      0.45265012
       4793.1652      0.43600445
       4793.9937      0.44686927
       4794.8221      0.54957246
       4795.6505      0.67544401
       4796.4789      0.48976547
       4797.3073      0.47851397
       4798.1358      0.49961627
       4798.9642      0.52116318
       4799.7926      0.57963500
       4800.6210      0.50738322
       4801.4495      0.53937654
       4802.2779      0.39109744
       4803.1063      0.44216032
       4803.9347      0.28626187
       4804.7631      0.65453008
       4805.5916      0.39087050
       4806.4200      0.65713526
       4807.2484      0.62819337
       4808.0768      0.56066243
       4808.9052      0.36355781
       4809.7337      0.39894282
       4810.5621      0.70553056
       4811.3905      0.62174889
       4812.2189      0.49584393
       4813.0473      0.55463100
       4813.8758      0.53659144
       4814.7042      0.60432116
       4815.5326      0.64741557
       4816.3610      0.60065824
       4817.1894      0.55291742
       4818.0179      0.49843088
       4818.8463      0.49955814
       4819.6747      0.51596286
       4820.5031      0.58365173
       4821.3315      0.62502553
       4822.1600      0.42821616
       4822.9884      0.47939288
       4823.8168      0.61275148
       4824.6452      0.67371156
       4825.4736      0.70367098
       4826.3021      0.68472613
       4827.1305      0.57241680
       4827.9589      0.59797402
       4828.7873      0.48444243
       4829.6157      0.42904540
       4830.4442      0.72398248
       4831.2726      0.74090341
       4832.1010      0.49476485
       4832.9294      0.45267052
       4833.7578      0.57187342
       4834.5863      0.76259189
       4835.4147      0.44256573
       4836.2431      0.47977935
       4837.0715      0.51877161
       4837.8999      0.49588859
       4838.7284      0.56537074
       4839.5568      0.56455285
       4840.3852      0.75749033
       4841.2136      0.57134919
       4842.0420      0.53958236
       4842.8705      0.39444795
       4843.6989      0.48739510
       4844.5273      0.64264267
       4845.3557      0.50623597
       4846.1841      0.59693364
       4847.0126      0.45692000
       4847.8410      0.42836716
       4848.6694      0.55314901
       4849.4978      0.48428992
       4850.3262      0.56935902
       4851.1547      0.50176088
       4851.9831      0.57835015
       4852.8115      0.50493116
       4853.6399      0.62962366
       4854.4683      0.75022459
       4855.2968      0.63081133
       4856.1252      0.48522803
       4856.9536      0.58566476
       4857.7820      0.43954761
       4858.6104      0.45062098
       4859.4389      0.43430632
       4860.2673      0.50541055
       4861.0957      0.53603168
       4861.9241      0.59022292
       4862.7525      0.62589415
       4863.5810      0.65267015
       4864.4094      0.69955782
       4865.2378      0.66745292
       4866.0662      0.83110635
       4866.8946      0.85088342
       4867.7231      0.72762743
       4868.5515      0.66479144
       4869.3799      0.53251146
       4870.2083      0.59468507
       4871.0367      0.51949801
       4871.8652      0.53553906
       4872.6936      0.60780231
       4873.5220      0.60227742
       4874.3504      0.59874597
       4875.1788      0.60341888
       4876.0073      0.57313996
       4876.8357      0.46943043
       4877.6641      0.44541507
       4878.4925      0.62361358
       4879.3209      0.50854790
       4880.1494      0.54525270
       4880.9778      0.45869469
       4881.8062      0.62658096
       4882.6346      0.47315108
       4883.4630      0.44507059
       4884.2915      0.47732546
       4885.1199      0.65871294
       4885.9483      0.54474194
       4886.7767      0.62019906
       4887.6051      0.56709854
       4888.4336      0.59382419
       4889.2620      0.47077702
       4890.0904      0.50724715
       4890.9188      0.48693492
       4891.7472      0.57372822
       4892.5757      0.71382449
       4893.4041      0.63182727
       4894.2325      0.41367612
       4895.0609      0.63636319
       4895.8893      0.60159380
       4896.7178      0.57993726
       4897.5462      0.45455252
       4898.3746      0.54633826
       4899.2030      0.61435823
       4900.0314      0.61009318
       4900.8599      0.54870433
       4901.6883      0.55643358
       4902.5167      0.55046959
       4903.3451      0.56331437
       4904.1735      0.78278990
       4905.0020      0.57543408
       4905.8304      0.58575069
       4906.6588      0.52127124
       4907.4872      0.57740670
       4908.3156      0.57251455
       4909.1441      0.63264985
       4909.9725      0.58388117
       4910.8009      0.60958779
       4911.6293      0.51580820
       4912.4577      0.50863945
       4913.2862      0.66507210
       4914.1146      0.70169839
       4914.9430      0.66949584
       4915.7714      0.48382554
       4916.5998      0.59314207
       4917.4283      0.50013416
       4918.2567      0.69698845
       4919.0851      0.66886416
       4919.9135      0.69235471
       4920.7419      0.69889482
       4921.5704      0.74025249
       4922.3988      0.73038937
       4923.2272      0.59446417
       4924.0556      0.55130444
       4924.8840      0.44532565
       4925.7125      0.55451029
       4926.5409      0.58177236
       4927.3693      0.43591884
       4928.1977      0.45272562
       4929.0261      0.48376050
       4929.8546      0.51295810
       4930.6830      0.44410422
       4931.5114      0.54225434
       4932.3398      0.64447165
       4933.1682      0.48259652
       4933.9967      0.62304469
       4934.8251      0.54646881
       4935.6535      0.55933874
       4936.4819      0.62590517
       4937.3103      0.66641932
       4938.1388      0.60252326
       4938.9672      0.78253058
       4939.7956      0.54442893
       4940.6240      0.68399323
       4941.4524      0.67430190
       4942.2809      0.58289056
       4943.1093      0.64064385
       4943.9377      0.63612631
       4944.7661      0.58828465
       4945.5945      0.54801120
       4946.4230      0.52497304
       4947.2514      0.63911095
       4948.0798      0.56740266
       4948.9082      0.64961377
       4949.7366      0.75202459
       4950.5651      0.62561628
       4951.3935      0.54803576
       4952.2219      0.62300430
       4953.0503      0.62768784
       4953.8787      0.72605940
       4954.7072      0.58400076
       4955.5356      0.60996220
       4956.3640      0.63690528
       4957.1924      0.72507627
       4958.0208      0.59306657
       4958.8493      0.50257323
       4959.6777      0.45740414
       4960.5061      0.57188514
       4961.3345      0.71441363
       4962.1629      0.56215588
       4962.9914      0.63506052
       4963.8198      0.63716142
       4964.6482      0.58029748
       4965.4766      0.59660509
       4966.3050      0.52068244
       4967.1335      0.57886147
       4967.9619      0.56054518
       4968.7903      0.58694052
       4969.6187      0.82545950
       4970.4471      0.64598533
       4971.2756      0.53922788
       4972.1040      0.61309146
       4972.9324      0.56744471
       4973.7608      0.60284406
       4974.5892      0.54745291
       4975.4177      0.54972205
       4976.2461      0.50656073
       4977.0745      0.59803618
       4977.9029      0.64007121
       4978.7313      0.74211784
       4979.5598      0.65979668
       4980.3882      0.55696584
       4981.2166      0.67956626
       4982.0450      0.71991413
       4982.8734      0.62664209
       4983.7019      0.67438641
       4984.5303      0.69389763
       4985.3587      0.50943605
       4986.1871      0.59971521
       4987.0155      0.51239015
       4987.8440      0.60194115
       4988.6724      0.59083184
       4989.5008      0.68404744
       4990.3292      0.55490037
       4991.1576      0.52789482
       4991.9861      0.57572048
       4992.8145      0.52048815
       4993.6429      0.62251789
       4994.4713      0.57808803
       4995.2997      0.63218536
       4996.1282      0.48405963
       4996.9566      0.54989188
       4997.7850      0.51553745
       4998.6134      0.68771846
       4999.4418      0.54097525
       5000.2703      0.57962291
       5001.0987      0.60338625
       5001.9271      0.57693442
       5002.7555      0.61851751
       5003.5839      0.48662894
       5004.4124      0.52647254
       5005.2408      0.58047402
       5006.0692      0.47692349
       5006.8976      0.55597948
       5007.7260      0.55228605
       5008.5545      0.64637596
       5009.3829      0.49994506
       5010.2113      0.65160339
       5011.0397      0.72143739
       5011.8681      0.66464715
       5012.6966      0.57936052
       5013.5250      0.58815165
       5014.3534      0.68746660
       5015.1818      0.68324575
       5016.0102      0.57202442
       5016.8387      0.47793338
       5017.6671      0.56736068
       5018.4955      0.70214070
       5019.3239      0.71097966
       5020.1523      0.53516613
       5020.9808      0.55678356
       5021.8092      0.55706997
       5022.6376      0.54967301
       5023.4660      0.60831939
       5024.2944      0.67962187
       5025.1229      0.55522577
       5025.9513      0.54749345
       5026.7797      0.49611211
       5027.6081      0.47881937
       5028.4366      0.52888952
       5029.2650      0.61391314
       5030.0934      0.47702810
       5030.9218      0.52686145
       5031.7502      0.54066783
       5032.5787      0.55983092
       5033.4071      0.53819421
       5034.2355      0.50325355
       5035.0639      0.48362354
       5035.8923      0.64550047
       5036.7208      0.49129933
       5037.5492      0.47749849
       5038.3776      0.67273191
       5039.2060      0.48726008
       5040.0344      0.63630573
       5040.8629      0.51001162
       5041.6913      0.48891815
       5042.5197      0.63827539
       5043.3481      0.79040945
       5044.1765      0.53543410
       5045.0050      0.56905811
       5045.8334      0.49635238
       5046.6618      0.57155037
       5047.4902      0.42073265
       5048.3186      0.59611195
       5049.1471      0.62028829
       5049.9755      0.48482274
       5050.8039      0.65164740
       5051.6323      0.52922321
       5052.4607      0.53501864
       5053.2892      0.56148149
       5054.1176      0.65674238
       5054.9460      0.58537185
       5055.7744      0.58335702
       5056.6028      0.63948154
       5057.4313      0.65099630
       5058.2597      0.62128078
       5059.0881      0.51687038
       5059.9165      0.62857296
       5060.7449      0.62087786
       5061.5734      0.68476337
       5062.4018      0.56599145
       5063.2302      0.64822680
       5064.0586      0.80054231
       5064.8870      0.31721051
       5065.7155      0.79632168
       5066.5439      0.75888725
       5067.3723      0.76345605
       5068.2007      0.68024902
       5069.0291      0.54604954
       5069.8576      0.49757138
       5070.6860      0.55766488
       5071.5144      0.45668294
       5072.3428      0.62843586
       5073.1712      0.61191289
       5073.9997      0.58822739
       5074.8281      0.61340629
       5075.6565      0.74044288
       5076.4849      0.57060301
       5077.3133      0.67865317
       5078.1418      0.64863136
       5078.9702      0.59088202
       5079.7986      0.43106209
       5080.6270      0.54534083
       5081.4554      0.57571705
       5082.2839      0.57052154
       5083.1123      0.65361255
       5083.9407      0.65302680
       5084.7691      0.62601216
       5085.5975      0.65299502
       5086.4260      0.67774560
       5087.2544      0.70632759
       5088.0828      0.63833599
       5088.9112      0.30143548
       5089.7396      0.34504475
       5090.5681      0.50571807
       5091.3965      0.63329413
       5092.2249      0.51297916
       5093.0533      0.54324141
       5093.8817      0.80166381
       5094.7102      0.80816157
       5095.5386      0.75732672
       5096.3670      0.51461840
       5097.1954      0.71247364
       5098.0238      0.63145543
       5098.8523      0.65537412
       5099.6807      0.55839564
       5100.5091      0.41729611
       5101.3375      0.61088563
       5102.1659      0.61609784
       5102.9944      0.68699590
       5103.8228      0.56834926
       5104.6512      0.61588564
       5105.4796      0.64348579
       5106.3080      0.42409517
       5107.1365      0.54377093
       5107.9649      0.58939654
       5108.7933      0.37497688
       5109.6217      0.24771439
       5110.4501      0.55094263
       5111.2786      0.72678337
       5112.1070      0.77253302
       5112.9354      0.65171256
       5113.7638      0.55361374
       5114.5922      0.67943469
       5115.4207      0.65467237
       5116.2491      0.56032967
       5117.0775      0.52390770
       5117.9059      0.62261917
       5118.7343      0.73565046
       5119.5628      0.80914379
       5120.3912      0.65142790
       5121.2196      0.88361776
       5122.0480      0.73906405
       5122.8764      0.81413418
       5123.7049      0.47723919
       5124.5333      0.44045044
       5125.3617      0.45160745
       5126.1901      0.67185238
       5127.0185      0.52582758
       5127.8470      0.68270498
       5128.6754      0.52822630
       5129.5038      0.65420423
       5130.3322      0.81247022
       5131.1606      0.62408863
       5131.9891      0.65625281
       5132.8175      0.76028854
       5133.6459      0.65600971
       5134.4743      0.58577856
       5135.3027      0.78122570
       5136.1312      0.75192486
       5136.9596      0.59234151
       5137.7880      0.54939612
       5138.6164      0.54058310
       5139.4448      0.64440375
       5140.2733      0.51879484
       5141.1017      0.54827821
       5141.9301      0.58156606
       5142.7585      0.42529978
       5143.5869      0.46134129
       5144.4154      0.56157216
       5145.2438      0.51836413
       5146.0722      0.59781903
       5146.9006      0.74576898
       5147.7290      0.75390831
       5148.5575      0.71275760
       5149.3859      0.77755683
       5150.2143      0.82209310
       5151.0427      0.47848078
       5151.8711      0.54112983
       5152.6996      0.60374758
       5153.5280      0.74168532
       5154.3564      0.75704285
       5155.1848      0.53565323
       5156.0132      0.64297382
       5156.8417      0.65479043
       5157.6701      0.80108265
       5158.4985      0.53712874
       5159.3269      0.59201709
       5160.1553      0.53400485
       5160.9838      0.73286432
       5161.8122      0.69960901
       5162.6406      0.59551950
       5163.4690      0.63292127
       5164.2974      0.62548088
       5165.1259      0.69634281
       5165.9543      0.66172984
       5166.7827      0.64207506
       5167.6111      0.70506017
       5168.4395      0.72947665
       5169.2680      0.73071073
       5170.0964      0.41526468
       5170.9248      0.25779841
       5171.7532      0.28100991
       5172.5816      0.54047849
       5173.4101      0.74189010
       5174.2385       1.0481636
       5175.0669       1.1960509
       5175.8953       1.0118861
       5176.7237      0.80347136
       5177.5522      0.82551833
       5178.3806      0.58327766
       5179.2090      0.27015870
       5180.0374     0.018300099
       5180.8658      0.42444794
       5181.6943      0.42455652
       5182.5227      0.46924495
       5183.3511      0.58484531
       5184.1795      0.79279642
       5185.0079      0.76928395
       5185.8364      0.78439435
       5186.6648      0.81572849
       5187.4932      0.72714445
       5188.3216      0.55898810
       5189.1500      0.51851735
       5189.9785      0.29732288
       5190.8069      0.20406136
       5191.6353      0.50827041
       5192.4637      0.47271163
       5193.2921      0.50631801
       5194.1206      0.46575561
       5194.9490      0.55092711
       5195.7774      0.61510060
       5196.6058      0.49572565
       5197.4342      0.41721826
       5198.2627      0.51163634
       5199.0911      0.50838104
       5199.9195      0.64397413
       5200.7479      0.60882488
       5201.5763      0.58996836
       5202.4048      0.60243492
       5203.2332      0.72559577
       5204.0616      0.58742044
       5204.8900      0.68994592
       5205.7184      0.89183439
       5206.5469      0.83509956
       5207.3753      0.84538279
       5208.2037       1.1921060
       5209.0321       1.1926941
       5209.8605      0.99096796
       5210.6890      0.75771496
       5211.5174      0.87938863
       5212.3458      0.72586204
       5213.1742      0.80739124
       5214.0026      0.70452976
       5214.8311      0.60540716
       5215.6595      0.70284993
       5216.4879      0.59706855
       5217.3163      0.63385659
       5218.1447      0.66342193
       5218.9732      0.60409520
       5219.8016      0.57618762
       5220.6300      0.77566608
       5221.4584      0.67893070
       5222.2868      0.62417984
       5223.1153      0.65272228
       5223.9437      0.64412994
       5224.7721      0.66416074
       5225.6005      0.68797498
       5226.4289      0.67348729
       5227.2574      0.67047335
       5228.0858      0.72853611
       5228.9142      0.71793980
       5229.7426      0.63006932
       5230.5710      0.59310193
       5231.3995      0.76561566
       5232.2279      0.75369478
       5233.0563      0.69111787
       5233.8847      0.66966067
       5234.7131      0.65777139
       5235.5416      0.53833013
       5236.3700      0.46865125
       5237.1984      0.49080007
       5238.0268      0.66505088
       5238.8552      0.62953242
       5239.6837      0.54856728
       5240.5121      0.69855845
       5241.3405      0.68700600
       5242.1689      0.54233702
       5242.9973      0.57566498
       5243.8258      0.72324989
       5244.6542      0.58594004
       5245.4826      0.61369475
       5246.3110      0.59531260
       5247.1394      0.60701030
       5247.9679      0.56316322
       5248.7963      0.63220966
       5249.6247      0.69860399
       5250.4531      0.80929436
       5251.2815      0.73057248
       5252.1100      0.75810480
       5252.9384      0.76144691
       5253.7668      0.75138095
       5254.5952      0.72937192
       5255.4237      0.77898630
       5256.2521      0.75137686
       5257.0805      0.73793899
       5257.9089      0.73377165
       5258.7373      0.76009093
       5259.5658      0.62152582
       5260.3942      0.64163915
       5261.2226      0.75335071
       5262.0510      0.82599673
       5262.8794      0.72046159
       5263.7079      0.65431996
       5264.5363      0.71686345
       5265.3647      0.71906727
       5266.1931      0.63672793
       5267.0215      0.68064715
       5267.8500      0.55155231
       5268.6784      0.66557716
       5269.5068      0.64737497
       5270.3352      0.65160205
       5271.1636      0.79089024
       5271.9921      0.58685955
       5272.8205      0.53511535
       5273.6489      0.74424756
       5274.4773      0.70230798
       5275.3057      0.59344232
       5276.1342      0.56630783
       5276.9626      0.61810442
       5277.7910      0.63986272
       5278.6194      0.63984675
       5279.4478      0.56607515
       5280.2763      0.55787377
       5281.1047      0.55024571
       5281.9331      0.52792554
       5282.7615      0.60987708
       5283.5899      0.58053161
       5284.4184      0.64570706
       5285.2468      0.59819373
       5286.0752      0.55103663
       5286.9036      0.52368348
       5287.7320      0.48085317
       5288.5605      0.49910582
       5289.3889      0.30546141
       5290.2173      0.28866982
       5291.0457      0.36372413
       5291.8741      0.20156482
       5292.7026      0.29447116
       5293.5310      0.36568113
       5294.3594      0.24206064
       5295.1878      0.21869078
       5296.0162      0.23737680
       5296.8447      0.29942021
       5297.6731      0.25324980
       5298.5015      0.22541428
       5299.3299      0.27638436
       5300.1583             NaN
       5300.9868             NaN
       5301.8152             NaN
       5302.6436             NaN
       5303.4720             NaN
       5304.3004             NaN
       5305.1289             NaN
       5305.9573             NaN
       5306.7857             NaN
       5307.6141             NaN
       5308.4425             NaN
       5309.2710             NaN
       5310.0994             NaN
       5310.9278             NaN
       5311.7562             NaN
       5312.5846             NaN
       5313.4131             NaN
       5314.2415             NaN
       5315.0699             NaN
       5315.8983             NaN
       5316.7267             NaN
       5317.5552             NaN
       5318.3836             NaN
       5319.2120             NaN
       5320.0404             NaN
       5320.8688             NaN
       5321.6973             NaN
       5322.5257             NaN
       5323.3541             NaN
       5324.1825             NaN
       5325.0109             NaN
       5325.8394             NaN
       5326.6678             NaN
       5327.4962             NaN
       5328.3246             NaN
       5329.1530             NaN
       5329.9815             NaN
       5330.8099             NaN
       5331.6383             NaN
       5332.4667             NaN
       5333.2951             NaN
       5334.1236             NaN
       5334.9520             NaN
       5335.7804             NaN
       5336.6088             NaN
       5337.4372             NaN
       5338.2657             NaN
       5339.0941             NaN
       5339.9225             NaN
       5340.7509             NaN
       5341.5793             NaN
       5342.4078             NaN
       5343.2362             NaN
       5344.0646             NaN
       5344.8930             NaN
       5345.7214             NaN
       5346.5499             NaN
       5347.3783             NaN
       5348.2067             NaN
       5349.0351             NaN
       5349.8635             NaN
       5350.6920             NaN
       5351.5204             NaN
       5352.3488             NaN
       5353.1772             NaN
       5354.0056             NaN
       5354.8341             NaN
       5355.6625             NaN
       5356.4909             NaN
       5357.3193             NaN
       5358.1477             NaN
       5358.9762             NaN
       5359.8046             NaN
       5360.6330             NaN
       5361.4614             NaN
       5362.2898             NaN
       5363.1183             NaN
       5363.9467             NaN
       5364.7751             NaN
       5365.6035             NaN
       5366.4319             NaN
       5367.2604             NaN
       5368.0888             NaN
       5368.9172             NaN
       5369.7456             NaN
       5370.5740             NaN
       5371.4025             NaN
       5372.2309             NaN
       5373.0593             NaN
       5373.8877      0.45998377
       5374.7161       1.1640382
       5375.5446      0.83007066
       5376.3730      0.81553361
       5377.2014      0.55611969
       5378.0298      0.58573333
       5378.8582      0.73764788
       5379.6867      0.63949270
       5380.5151      0.61714644
       5381.3435      0.73824451
       5382.1719      0.63256436
       5383.0003      0.64281901
       5383.8288      0.66149503
       5384.6572      0.62819661
       5385.4856      0.74527326
       5386.3140      0.75618269
       5387.1424      0.78834038
       5387.9709      0.90160887
       5388.7993      0.74680131
       5389.6277      0.66003771
       5390.4561      0.80034376
       5391.2845      0.91526005
       5392.1130      0.85759566
       5392.9414      0.73747562
       5393.7698      0.68209051
       5394.5982      0.61587325
       5395.4266      0.81900515
       5396.2551       1.1787504
       5397.0835       1.2141421
       5397.9119      0.90082680
       5398.7403      0.94812751
       5399.5687      0.74466095
       5400.3972      0.86399237
       5401.2256      0.72064014
       5402.0540      0.90127824
       5402.8824      0.76023969
       5403.7108      0.57037383
       5404.5393      0.40387035
       5405.3677      0.33664208
       5406.1961      0.67328333
       5407.0245      0.66307070
       5407.8529      0.60616628
       5408.6814      0.67670028
       5409.5098      0.78105851
       5410.3382      0.76626930
       5411.1666      0.78621057
       5411.9950      0.78826747
       5412.8235      0.70847751
       5413.6519      0.69682590
       5414.4803      0.81677261
       5415.3087      0.91329376
       5416.1371      0.74265343
       5416.9656      0.58966187
       5417.7940      0.67173589
       5418.6224      0.86579414
       5419.4508      0.81397073
       5420.2792      0.83553873
       5421.1077      0.89679859
       5421.9361      0.71416049
       5422.7645      0.65637423
       5423.5929      0.60040456
       5424.4213      0.71602774
       5425.2498      0.62307142
       5426.0782      0.45822754
       5426.9066      0.57994441
       5427.7350      0.78763449
       5428.5634      0.76968530
       5429.3919      0.81036196
       5430.2203      0.85076958
       5431.0487      0.74952683
       5431.8771      0.72362930
       5432.7055      0.71814345
       5433.5340      0.60679164
       5434.3624      0.52305917
       5435.1908      0.42115216
       5436.0192      0.10384335
       5436.8476      0.27300274
       5437.6761      0.47691635
       5438.5045      0.71717009
       5439.3329       1.0522731
       5440.1613       1.0040859
       5440.9897      0.78294286
       5441.8182      0.87991460
       5442.6466      0.78718977
       5443.4750      0.62435812
       5444.3034      0.56312567
       5445.1318      0.58746466
       5445.9603      0.66380644
       5446.7887      0.82091432
       5447.6171      0.76345282
       5448.4455      0.66426405
       5449.2739      0.73265157
       5450.1024      0.97502082
       5450.9308      0.83327823
       5451.7592      0.75378645
       5452.5876      0.79622486
       5453.4160      0.72577728
       5454.2445      0.68023155
       5455.0729      0.83862048
       5455.9013      0.89083895
       5456.7297      0.78153724
       5457.5581      0.67298178
       5458.3866      0.72759082
       5459.2150      0.76945074
       5460.0434      0.84870122
       5460.8718      0.81925185
       5461.7002      0.66257619
       5462.5287      0.71456090
       5463.3571      0.81482191
       5464.1855      0.83642868
       5465.0139      0.72660791
       5465.8423      0.63860235
       5466.6708      0.48615138
       5467.4992      0.52790367
       5468.3276      0.94770696
       5469.1560      0.54079425
       5469.9844      0.64713857
       5470.8129       1.1018790
       5471.6413       1.0251341
       5472.4697      0.69897957
       5473.2981      0.92083824
       5474.1265       1.0451735
       5474.9550      0.83376089
       5475.7834      0.76618645
       5476.6118      0.74243201
       5477.4402      0.77944890
       5478.2687      0.76951012
       5479.0971      0.62215727
       5479.9255      0.65115132
       5480.7539      0.71656647
       5481.5823      0.83229509
       5482.4108      0.86213586
       5483.2392      0.61800265
       5484.0676      0.71063210
       5484.8960      0.62564425
       5485.7244      0.87824177
       5486.5529      0.84582837
       5487.3813      0.60163155
       5488.2097      0.68211557
       5489.0381      0.79752050
       5489.8665      0.91744377
       5490.6950      0.91217221
       5491.5234      0.95201975
       5492.3518      0.78894948
       5493.1802      0.71777756
       5494.0086      0.48516325
       5494.8371      0.63043388
       5495.6655      0.72339375
       5496.4939      0.79223291
       5497.3223      0.62571727
       5498.1507      0.82330749
       5498.9792      0.80254290
       5499.8076      0.80720548
       5500.6360      0.83875713
       5501.4644      0.88230821
       5502.2928      0.81604371
       5503.1213      0.72432745
       5503.9497      0.71102739
       5504.7781      0.76381002
       5505.6065      0.68843392
       5506.4349      0.72441810
       5507.2634      0.80074770
       5508.0918      0.57692123
       5508.9202      0.41390168
       5509.7486      0.57764858
       5510.5770      0.58785480
       5511.4055      0.70877717
       5512.2339      0.60299683
       5513.0623      0.51392474
       5513.8907      0.63414449
       5514.7191      0.75780520
       5515.5476      0.81807113
       5516.3760      0.83081236
       5517.2044      0.70727403
       5518.0328      0.79292754
       5518.8612      0.76597633
       5519.6897      0.59026322
       5520.5181      0.60486077
       5521.3465      0.73750178
       5522.1749      0.72054691
       5523.0033      0.54917768
       5523.8318      0.51592510
       5524.6602      0.47142876
       5525.4886      0.56495629
       5526.3170      0.90954387
       5527.1454      0.94027037
       5527.9739      0.90020710
       5528.8023      0.82157425
       5529.6307      0.81120245
       5530.4591      0.87216626
       5531.2875      0.87002198
       5532.1160      0.77599858
       5532.9444      0.74803583
       5533.7728      0.85311412
       5534.6012      0.68364097
       5535.4296      0.64499876
       5536.2581      0.88513987
       5537.0865       1.0074000
       5537.9149      0.92225919
       5538.7433      0.69090434
       5539.5717      0.63082852
       5540.4002      0.71545738
       5541.2286      0.68504353
       5542.0570      0.62493698
       5542.8854      0.79184694
       5543.7138      0.71276439
       5544.5423      0.50171580
       5545.3707      0.35957208
       5546.1991      0.49625332
       5547.0275      0.73973217
       5547.8559      0.75525521
       5548.6844      0.64526149
       5549.5128      0.97573205
       5550.3412       1.0614979
       5551.1696      0.92979700
       5551.9980      0.71443577
       5552.8265      0.80759309
       5553.6549      0.90509942
       5554.4833      0.79036162
       5555.3117      0.64269240
       5556.1401      0.82689948
       5556.9686      0.82445839
       5557.7970      0.79469083
       5558.6254      0.65528189
       5559.4538      0.83590079
       5560.2822      0.73108769
       5561.1107      0.66953954
       5561.9391      0.75825947
       5562.7675      0.78640355
       5563.5959      0.54777672
       5564.4243      0.56785706
       5565.2528      0.75571161
       5566.0812      0.83643915
       5566.9096      0.68707696
       5567.7380      0.46697963
       5568.5664      0.44359687
       5569.3949      0.84152627
       5570.2233      0.95985941
       5571.0517      0.71019113
       5571.8801      0.59844522
       5572.7085      0.60636968
       5573.5370      0.64355080
       5574.3654      0.70480295
       5575.1938      0.77364208
       5576.0222      0.76336507
       5576.8506      0.78509702
       5577.6791      0.69765643
       5578.5075      0.78519753
       5579.3359      0.78607228
       5580.1643      0.76300271
       5580.9927      0.83792288
       5581.8212      0.84304892
       5582.6496      0.93802568
       5583.4780      0.75652321
       5584.3064      0.81569982
       5585.1348      0.83522945
       5585.9633      0.69522832
       5586.7917      0.56444689
       5587.6201      0.54177033
       5588.4485      0.54629993
       5589.2769      0.54307189
       5590.1054      0.57629383
       5590.9338      0.82807576
       5591.7622      0.93359723
       5592.5906      0.92517233
       5593.4190      0.84638649
       5594.2475      0.93449600
       5595.0759      0.85743669
       5595.9043      0.77438962
       5596.7327      0.77442186
       5597.5611      0.72916406
       5598.3896      0.65736582
       5599.2180      0.72393231
       5600.0464      0.84614115
       5600.8748      0.77733702
       5601.7032      0.78309086
       5602.5317      0.84027875
       5603.3601      0.87297619
       5604.1885      0.83435775
       5605.0169      0.80101506
       5605.8453      0.80012830
       5606.6738      0.92339144
       5607.5022      0.87250533
       5608.3306      0.81360515
       5609.1590      0.93621279
       5609.9874      0.88158339
       5610.8159      0.69939263
       5611.6443      0.77591126
       5612.4727      0.67466787
       5613.3011      0.73578325
       5614.1295      0.74212267
       5614.9580      0.85079564
       5615.7864      0.72066300
       5616.6148      0.70297680
       5617.4432      0.82487395
       5618.2716      0.79156093
       5619.1001      0.88491333
       5619.9285      0.88795630
       5620.7569      0.88416919
       5621.5853      0.86495859
       5622.4137      0.77502936
       5623.2422      0.78462628
       5624.0706      0.80909163
       5624.8990      0.82854825
       5625.7274      0.79061496
       5626.5558      0.74057808
       5627.3843      0.79622411
       5628.2127      0.81737569
       5629.0411      0.71267246
       5629.8695      0.70190555
       5630.6979      0.88043225
       5631.5264       1.0220930
       5632.3548       1.0063350
       5633.1832      0.90763120
       5634.0116      0.69823478
       5634.8400      0.78592874
       5635.6685      0.81909540
       5636.4969      0.80119846
       5637.3253      0.77899085
       5638.1537      0.95404220
       5638.9821      0.76976021
       5639.8106      0.78164271
       5640.6390      0.74650272
       5641.4674      0.81344507
       5642.2958      0.78911452
       5643.1242      0.86556810
       5643.9527      0.80018395
       5644.7811      0.71368200
       5645.6095      0.75203865
       5646.4379      0.76534383
       5647.2663      0.78684436
       5648.0948      0.85783267
       5648.9232      0.77065367
       5649.7516      0.77222165
       5650.5800      0.68095852
       5651.4084      0.62131564
       5652.2369      0.76004680
       5653.0653      0.73201661
       5653.8937      0.73094839
       5654.7221      0.74007734
       5655.5505      0.64676732
       5656.3790      0.74887613
       5657.2074      0.86681888
       5658.0358      0.74353109
       5658.8642      0.72142926
       5659.6926      0.75425602
       5660.5211      0.85478978
       5661.3495      0.88356593
       5662.1779      0.77070769
       5663.0063      0.72155637
       5663.8347      0.71057152
       5664.6632      0.77398686
       5665.4916      0.74270060
       5666.3200      0.67507564
       5667.1484      0.53363614
       5667.9768      0.66334707
       5668.8053      0.73419720
       5669.6337      0.74354281
       5670.4621      0.76144588
       5671.2905      0.84677067
       5672.1189      0.67615967
       5672.9474      0.67477154
       5673.7758      0.62144241
       5674.6042      0.72552160
       5675.4326      0.75754656
       5676.2610      0.73866560
       5677.0895      0.79960479
       5677.9179      0.71433220
       5678.7463      0.61240956
       5679.5747      0.62043119
       5680.4031      0.74268526
       5681.2316      0.75122161
       5682.0600      0.81502823
       5682.8884      0.64755834
       5683.7168      0.69286813
       5684.5452      0.70745029
       5685.3737      0.74501582
       5686.2021      0.73733904
       5687.0305      0.74766207
       5687.8589      0.81273308
       5688.6873      0.74946849
       5689.5158      0.81058809
       5690.3442      0.77656106
       5691.1726      0.70858165
       5692.0010      0.79583296
       5692.8294      0.76906366
       5693.6579      0.74619476
       5694.4863      0.80590640
       5695.3147      0.75066904
       5696.1431      0.67519347
       5696.9715      0.76077225
       5697.8000      0.78445353
       5698.6284      0.78629220
       5699.4568      0.78026979
       5700.2852      0.67172950
       5701.1136      0.70467800
       5701.9421      0.82255720
       5702.7705      0.89444815
       5703.5989      0.85441800
       5704.4273      0.84953298
       5705.2558      0.76245425
       5706.0842      0.77510227
       5706.9126      0.72838386
       5707.7410      0.78289628
       5708.5694      0.71810568
       5709.3979      0.68653632
       5710.2263      0.82166923
       5711.0547      0.80738284
       5711.8831      0.84772968
       5712.7115      0.80763827
       5713.5400      0.80002076
       5714.3684      0.79556142
       5715.1968      0.78188543
       5716.0252      0.76689980
       5716.8536      0.80797724
       5717.6821      0.84069056
       5718.5105      0.88476490
       5719.3389      0.74957546
       5720.1673      0.64734908
       5720.9957      0.70859688
       5721.8242      0.69323437
       5722.6526      0.74656224
       5723.4810      0.78925981
       5724.3094      0.85720931
       5725.1378      0.83676654
       5725.9663      0.76048713
       5726.7947      0.81837822
       5727.6231      0.78411465
       5728.4515      0.85625709
       5729.2799      0.71883112
       5730.1084      0.75106755
       5730.9368      0.77762617
       5731.7652      0.71204617
       5732.5936      0.70161429
       5733.4220      0.73810071
       5734.2505      0.64610150
       5735.0789      0.77517318
       5735.9073      0.84930741
       5736.7357      0.84462204
       5737.5641      0.77083945
       5738.3926      0.81187291
       5739.2210      0.90049104
       5740.0494      0.92693338
       5740.8778      0.90005688
       5741.7062      0.85227093
       5742.5347      0.85218273
       5743.3631      0.77316153
       5744.1915      0.72966356
       5745.0199      0.77728430
       5745.8483      0.74107792
       5746.6768      0.80161872
       5747.5052      0.77496818
       5748.3336      0.69845082
       5749.1620      0.78494704
       5749.9904      0.85900916
       5750.8189      0.78808766
       5751.6473      0.76763896
       5752.4757      0.75430912
       5753.3041      0.76205585
       5754.1325      0.78552761
       5754.9610      0.82033975
       5755.7894      0.86724577
       5756.6178      0.79227821
       5757.4462      0.76796989
       5758.2746      0.83511539
       5759.1031      0.75821551
       5759.9315      0.80997676
       5760.7599      0.80982812
       5761.5883      0.74393276
       5762.4167      0.74845477
       5763.2452      0.73953363
       5764.0736      0.87271737
       5764.9020      0.74387062
       5765.7304      0.67814981
       5766.5588     0.082308229
       5767.3873      0.88712972
       5768.2157      0.82918534
       5769.0441      0.41144517
       5769.8725      0.34009961
       5770.7009      0.60092760
       5771.5294      0.93340276
       5772.3578      0.97121238
       5773.1862      0.77473767
       5774.0146      0.54299021
       5774.8430      0.75256222
       5775.6715      0.56901904
       5776.4999      0.59319612
       5777.3283      0.48609653
       5778.1567      0.63685476
       5778.9851      0.30409415
       5779.8136      0.79237814
       5780.6420      0.85495918
       5781.4704      0.60255811
       5782.2988      0.67342083
       5783.1272      0.53843053
       5783.9557      0.67776469
       5784.7841      0.75700864
       5785.6125      0.81871872
       5786.4409      0.69905837
       5787.2693      0.85138815
       5788.0978      0.85863725
       5788.9262      0.79594349
       5789.7546      0.94945890
       5790.5830      0.82515052
       5791.4114      0.88075344
       5792.2399      0.94068475
       5793.0683      0.78566534
       5793.8967      0.69231626
       5794.7251      0.71348341
       5795.5535      0.61482131
       5796.3820      0.79804839
       5797.2104      0.73677863
       5798.0388      0.73528099
       5798.8672      0.78938763
       5799.6956      0.82609557
       5800.5241      0.72139288
       5801.3525      0.84252975
       5802.1809      0.86944825
       5803.0093      0.86017837
       5803.8377      0.83973292
       5804.6662      0.65891390
       5805.4946      0.77256823
       5806.3230      0.73137735
       5807.1514      0.70929179
       5807.9798      0.45817589
       5808.8083      0.55173459
       5809.6367      0.46384793
       5810.4651      0.66328390
       5811.2935      0.51919706
       5812.1219      0.74878500
       5812.9504      0.37076607
       5813.7788      0.43549499
       5814.6072      0.54626070
       5815.4356      0.81618087
       5816.2640      0.65127506
       5817.0925      0.51331560
       5817.9209      0.46432779
       5818.7493      0.78891142
       5819.5777      0.80957777
       5820.4061      0.83548049
       5821.2346      0.63403322
       5822.0630      0.90855804
       5822.8914      0.79729442
       5823.7198      0.50421508
       5824.5482      0.62312138
       5825.3767      0.69036308
       5826.2051      0.76027785
       5827.0335       1.1014876
       5827.8619       1.0103676
       5828.6903      0.96625647
       5829.5188      0.90464079
       5830.3472      0.87558378
       5831.1756      0.75571999
       5832.0040      0.89590044
       5832.8324      0.92541538
       5833.6609      0.89841952
       5834.4893      0.98703816
       5835.3177       1.0492819
       5836.1461      0.76661538
       5836.9745      0.99263936
       5837.8030       1.2189855
       5838.6314       1.1163018
       5839.4598      0.92406613
       5840.2882      0.98081531
       5841.1166       1.2177617
       5841.9451      0.91824189
       5842.7735      0.73204147
       5843.6019      0.98435834
       5844.4303      0.95561549
       5845.2587      0.85220329
       5846.0872      0.86129442
       5846.9156      0.76306054
       5847.7440       1.0888805
       5848.5724       1.2100378
       5849.4008      0.54174411
       5850.2293      0.27258024
       5851.0577      0.63864066
       5851.8861      0.73333596
       5852.7145      0.95174302
       5853.5429      0.96302243
       5854.3714      0.78473510
       5855.1998      0.89685482
       5856.0282      0.79255983
       5856.8566      0.71086318
       5857.6850      0.79444548
       5858.5135      0.79098775
       5859.3419      0.75650440
       5860.1703      0.85308153
       5860.9987       1.0695149
       5861.8271      0.90157273
       5862.6556      0.92506522
       5863.4840      0.66200677
       5864.3124      0.87039332
       5865.1408      0.90768391
       5865.9692      0.84552484
       5866.7977      0.75261422
       5867.6261      0.92970970
       5868.4545      0.21223330
       5869.2829      0.18342352
       5870.1113      0.42193198
       5870.9398      0.23260824
       5871.7682       1.1071250
       5872.5966       1.3083738
       5873.4250      0.92143393
       5874.2534      0.77681565
       5875.0819      0.51394199
       5875.9103      0.51553040
       5876.7387      0.75295515
       5877.5671      0.79527361
       5878.3955      0.64816365
       5879.2240      0.65562181
       5880.0524      0.80235580
       5880.8808      0.81176170
       5881.7092      0.62459094
       5882.5376      0.78648085
       5883.3661      0.85607734
       5884.1945       1.0219626
       5885.0229       1.0808697
       5885.8513       1.1996583
       5886.6797       1.0598117
       5887.5082       1.1681015
       5888.3366       1.1734877
       5889.1650      0.83213854
       5889.9934       1.1086382
       5890.8218       1.1402817
       5891.6503       1.0132283
       5892.4787      0.93818697
       5893.3071       1.4655251
       5894.1355       1.6355176
       5894.9639       1.5828668
       5895.7924       1.4123921
       5896.6208      0.86001407
       5897.4492      0.78685805
       5898.2776      0.94204387
       5899.1060       1.1097589
       5899.9345      0.90722836
       5900.7629      0.79056775
       5901.5913      0.87517256
       5902.4197      0.82533002
       5903.2481      0.73443151
       5904.0766      0.74365185
       5904.9050      0.68528536
       5905.7334      0.52547330
       5906.5618      0.54697461
       5907.3902      0.60526471
       5908.2187      0.62512159
       5909.0471      0.53794915
       5909.8755      0.60433743
       5910.7039      0.54660702
       5911.5323      0.58592303
       5912.3608      0.58669250
       5913.1892      0.60286101
       5914.0176      0.57371591
       5914.8460      0.68371130
       5915.6744      0.87923026
       5916.5029      0.61286489
       5917.3313      0.59789608
       5918.1597      0.69013100
       5918.9881      0.49017821
       5919.8165      0.56889112
       5920.6450      0.61175040
       5921.4734      0.52962619
       5922.3018      0.57025938
       5923.1302      0.38170887
       5923.9586      0.47539751
       5924.7871      0.80604855
       5925.6155       1.0148713
       5926.4439      0.71199514
       5927.2723      0.83110190
       5928.1007      0.93605523
       5928.9292      0.85898030
       5929.7576      0.93452680
       5930.5860      0.90743770
       5931.4144      0.99323872
       5932.2429      0.97694502
       5933.0713       1.0199950
       5933.8997      0.91428894
       5934.7281       1.0249865
       5935.5565      0.94847103
       5936.3850      0.93236352
       5937.2134      0.90821768
       5938.0418      0.87541224
       5938.8702      0.80631408
       5939.6986      0.88495711
       5940.5271      0.93084208
       5941.3555      0.88676945
       5942.1839      0.81528270
       5943.0123      0.86503672
       5943.8407      0.78255007
       5944.6692      0.80198506
       5945.4976      0.85549511
       5946.3260      0.82654553
       5947.1544      0.94548843
       5947.9828      0.93416845
       5948.8113      0.82666489
       5949.6397      0.91598060
       5950.4681      0.90933191
       5951.2965      0.82817482
       5952.1249      0.85246962
       5952.9534      0.89598681
       5953.7818      0.81880296
       5954.6102      0.98897921
       5955.4386      0.78336082
       5956.2670      0.61111145
       5957.0955      0.37530309
       5957.9239      0.22063132
       5958.7523      0.75314389
       5959.5807      0.91970874
       5960.4091      0.75145355
       5961.2376      0.79792058
       5962.0660      0.87416005
       5962.8944      0.80688901
       5963.7228      0.83723827
       5964.5512      0.88421816
       5965.3797      0.91529648
       5966.2081      0.89595811
       5967.0365      0.81606014
       5967.8649      0.92928322
       5968.6933      0.90005617
       5969.5218      0.92897652
       5970.3502      0.85264991
       5971.1786      0.92378142
       5972.0070      0.74848651
       5972.8354      0.82881310
       5973.6639      0.94818524
       5974.4923      0.87586924
       5975.3207      0.93565921
       5976.1491      0.94257759
       5976.9775      0.90750938
       5977.8060      0.85798261
       5978.6344      0.95055318
       5979.4628      0.80487360
       5980.2912      0.96737867
       5981.1196      0.85468739
       5981.9481      0.79570213
       5982.7765       1.0693706
       5983.6049      0.94431936
       5984.4333      0.83452170
       5985.2617      0.89333124
       5986.0902      0.88639444
       5986.9186      0.89758496
       5987.7470      0.96644083
       5988.5754       1.0100867
       5989.4038      0.86072635
       5990.2323      0.84575966
       5991.0607      0.80391714
       5991.8891      0.78764352
       5992.7175      0.81949540
       5993.5459      0.85771561
       5994.3744      0.94595171
       5995.2028      0.81904990
       5996.0312      0.90692416
       5996.8596      0.65607953
       5997.6880      0.91404038
       5998.5165      0.78622059
       5999.3449      0.73279859
       6000.1733      0.99336487
       6001.0017       1.0354324
       6001.8301      0.93318531
       6002.6586      0.90869487
       6003.4870      0.67855482
       6004.3154      0.64207689
       6005.1438       1.1897038
       6005.9722       1.1902077
       6006.8007      0.78062096
       6007.6291      0.85157151
       6008.4575      0.56543558
       6009.2859      0.36500038
       6010.1143      0.80405842
       6010.9428      0.93720009
       6011.7712      0.77582291
       6012.5996      0.67706625
       6013.4280       1.0184137
       6014.2564      0.85988561
       6015.0849      0.92420552
       6015.9133      0.69711251
       6016.7417      0.55626368
       6017.5701      0.84391293
       6018.3985      0.71092890
       6019.2270      0.62568496
       6020.0554      0.82734534
       6020.8838      0.86820435
       6021.7122      0.77818225
       6022.5406       1.0823347
       6023.3691       1.0110077
       6024.1975      0.74938128
       6025.0259      0.95511710
       6025.8543      0.72938567
       6026.6827      0.43138829
       6027.5112       1.2377363
       6028.3396       1.1688753
       6029.1680       1.2375561
       6029.9964       1.0467814
       6030.8248      0.63070111
       6031.6533      0.72860765
       6032.4817      0.68107511
       6033.3101      0.84265102
       6034.1385      0.56799658
       6034.9669      0.57390355
       6035.7954      0.81963810
       6036.6238       1.0889047
       6037.4522      0.59822777
       6038.2806      0.18012644
       6039.1090    -0.087710860
       6039.9375    -0.019252716
       6040.7659      0.76418064
       6041.5943       1.2276884
       6042.4227       1.0475622
       6043.2511       1.2733294
       6044.0796       1.3884270
       6044.9080       1.3913648
       6045.7364       1.0825220
       6046.5648      0.71218356
       6047.3932      0.74368153
       6048.2217      0.88515576
       6049.0501      0.86425352
       6049.8785      0.78242968
       6050.7069       1.0636439
       6051.5353      0.84731009
       6052.3638      0.69543701
       6053.1922      0.84670940
       6054.0206      0.69047988
       6054.8490      0.94143213
       6055.6774      0.77740430
       6056.5059       1.0100322
       6057.3343       1.0366118
       6058.1627      0.81460774
       6058.9911      0.91042984
       6059.8195      0.65935320
       6060.6480      0.76622144
       6061.4764      0.79830056
       6062.3048      0.95897589
       6063.1332      0.90587580
       6063.9616      0.88242780
       6064.7901      0.76340022
       6065.6185      0.88924091
       6066.4469      0.91959365
       6067.2753      0.86625221
       6068.1037      0.91666222
       6068.9322      0.98460698
       6069.7606      0.82995269
       6070.5890      0.92065842
       6071.4174      0.89925549
       6072.2458      0.88626957
       6073.0743      0.82244444
       6073.9027      0.90732871
       6074.7311      0.76036476
       6075.5595      0.99912163
       6076.3879      0.87717514
       6077.2164      0.97300204
       6078.0448      0.92884249
       6078.8732      0.83118841
       6079.7016      0.93589006
       6080.5300      0.94267961
       6081.3585      0.80913968
       6082.1869      0.83019975
       6083.0153      0.90983736
       6083.8437      0.95652169
       6084.6721      0.79717809
       6085.5006      0.82725867
       6086.3290      0.90620310
       6087.1574      0.91175007
       6087.9858      0.97594508
       6088.8142       1.0294577
       6089.6427       1.0188778
       6090.4711      0.97460400
       6091.2995      0.82264510
       6092.1279      0.99934409
       6092.9563      0.90513413
       6093.7848      0.86853016
       6094.6132      0.86952102
       6095.4416      0.81565649
       6096.2700      0.81114571
       6097.0984      0.45902852
       6097.9269      0.92113506
       6098.7553      0.78065281
       6099.5837      0.53614462
       6100.4121       1.0028196
       6101.2405      0.58809627
       6102.0690       1.1543682
       6102.8974      0.37514408
       6103.7258      0.35740860
       6104.5542      0.73134474
       6105.3826      0.66094236
       6106.2111      0.86876239
       6107.0395      0.60505449
       6107.8679       1.0881262
       6108.6963      0.86561813
       6109.5247      0.31556026
       6110.3532      0.46373067
       6111.1816      0.87150393
       6112.0100    -0.066530385
       6112.8384      0.65624520
       6113.6668       1.2076693
       6114.4953      0.79182537
       6115.3237      0.83681343
       6116.1521      0.74981532
       6116.9805      0.83836688
       6117.8089      0.78340763
       6118.6374      0.71942426
       6119.4658      0.72449068
       6120.2942      0.87953332
       6121.1226      0.80828066
       6121.9510       1.1627652
       6122.7795      0.90449744
       6123.6079      0.99712653
       6124.4363       1.0310332
       6125.2647      0.83981505
       6126.0931      0.93748863
       6126.9216       1.0351379
       6127.7500      0.96298914
       6128.5784       1.0266050
       6129.4068      0.89494921
       6130.2352      0.87024315
       6131.0637      0.97574323
       6131.8921      0.79697969
       6132.7205      0.83468940
       6133.5489      0.96368252
       6134.3773      0.80064946
       6135.2058      0.79019362
       6136.0342      0.84630076
       6136.8626      0.79056950
       6137.6910      0.93974199
       6138.5194      0.94043759
       6139.3479      0.88929116
       6140.1763      0.96957540
       6141.0047      0.98278748
       6141.8331      0.91906149
       6142.6615      0.33335714
       6143.4900      0.70065931
       6144.3184      0.90682531
       6145.1468      0.70734854
       6145.9752      0.73784134
       6146.8036      0.95865678
       6147.6321       1.4565078
       6148.4605      0.83041966
       6149.2889      0.69387421
       6150.1173      0.80900338
       6150.9457      0.33118822
       6151.7742      0.87077014
       6152.6026      0.64288134
       6153.4310      0.58547724
       6154.2594      0.81679555
       6155.0878      0.87340527
       6155.9163       1.1590707
       6156.7447      0.80386523
       6157.5731      0.91601081
       6158.4015      0.90234447
       6159.2300      0.98213221
       6160.0584       1.0021489
       6160.8868      0.86369797
       6161.7152      0.75782305
       6162.5436       1.0058489
       6163.3721       1.0765221
       6164.2005      0.93931683
       6165.0289       1.0337133
       6165.8573      0.96053476
       6166.6857      0.88398188
       6167.5142      0.77687729
       6168.3426       1.0022459
       6169.1710      0.91594188
       6169.9994      0.95832401
       6170.8278      0.77717233
       6171.6563      0.34466790
       6172.4847       1.1342148
       6173.3131       1.0564207
       6174.1415       1.0926403
       6174.9699      0.93992865
       6175.7984      0.76586773
       6176.6268      0.98084764
       6177.4552      0.77964992
       6178.2836      0.70137756
       6179.1120      0.87600831
       6179.9405      0.80845818
       6180.7689      0.96749654
       6181.5973      0.87792545
       6182.4257      0.74036250
       6183.2541      0.62279401
       6184.0826      0.65417259
       6184.9110       1.1021095
       6185.7394      0.60324901
       6186.5678    -0.062765460
       6187.3962      0.96351410
       6188.2247       1.2312599
       6189.0531       1.5273899
       6189.8815      0.87575128
       6190.7099       1.0428989
       6191.5383      0.81428195
       6192.3668      0.89300211
       6193.1952      0.84120583
       6194.0236       1.0194624
       6194.8520       1.0398173
       6195.6804      0.86718076
       6196.5089      0.52126409
       6197.3373      0.37651216
       6198.1657      0.76761563
       6198.9941      0.74231052
       6199.8225      0.79363662
       6200.6510      0.71778440
       6201.4794      0.93738906
       6202.3078      0.52234941
       6203.1362      0.72280906
       6203.9646      0.99862787
       6204.7931      0.85416028
       6205.6215      0.74475407
       6206.4499      0.45686083
       6207.2783     -0.38241347
       6208.1067    -0.032211419
       6208.9352      0.38024085
       6209.7636      0.57576056
       6210.5920       1.3024355
       6211.4204      0.85950533
       6212.2488       1.5792175
       6213.0773      0.70089209
       6213.9057      0.72210396
       6214.7341       1.1776006
       6215.5625       1.1447087
       6216.3909      0.94028516
       6217.2194       1.0923062
       6218.0478       1.0714977
       6218.8762      0.93123317
       6219.7046      0.90459533
       6220.5330      0.96742284
       6221.3615      0.97957754
       6222.1899       1.0881507
       6223.0183       1.0217401
       6223.8467      0.60109464
       6224.6751      0.70065719
       6225.5036      0.68691403
       6226.3320      0.56694376
       6227.1604      0.34294156
       6227.9888      0.55271246
       6228.8172      0.71406896
       6229.6457      0.67866340
       6230.4741      0.98181511
       6231.3025      0.91241487
       6232.1309      0.85480212
       6232.9593       1.0706753
       6233.7878      0.84414456
       6234.6162      0.76771306
       6235.4446       1.0591183
       6236.2730      0.70857499
       6237.1014     -0.37763411
       6237.9299       1.0146152
       6238.7583      0.92033890
       6239.5867      0.98917654
       6240.4151      0.66896222
       6241.2435      0.80840378
       6242.0720      0.68228760
       6242.9004      0.91821857
       6243.7288      0.83525432
       6244.5572      0.93200707
       6245.3856      0.97107417
       6246.2141      0.88573089
       6247.0425      0.75289353
       6247.8709      0.72618040
       6248.6993      0.83072661
       6249.5277      0.92749509
       6250.3562      0.97720153
       6251.1846      0.96690351
       6252.0130      0.62491700
       6252.8414      0.78486715
       6253.6698      0.68324684
       6254.4983      0.70778964
       6255.3267      0.11565039
       6256.1551      0.40137361
       6256.9835      0.53465199
       6257.8119      0.38003385
       6258.6404      0.14787745
       6259.4688      0.50636328
       6260.2972      0.53045823
       6261.1256      0.80481286
       6261.9540      0.80323243
       6262.7825       1.0131452
       6263.6109      0.90168920
       6264.4393      0.94873488
       6265.2677       1.2416599
       6266.0961      0.96734633
       6266.9246       1.1489410
       6267.7530       1.3102793
       6268.5814       1.3402136
       6269.4098      0.74856569
       6270.2382      0.92044418
       6271.0667      0.78213220
       6271.8951      0.96177182
       6272.7235       1.0011068
       6273.5519      0.79583358
       6274.3803      0.66726139
       6275.2088      0.75869657
       6276.0372      0.80847185
       6276.8656      0.76731604
       6277.6940      0.70000538
       6278.5224      0.81628388
       6279.3509      0.83011356
       6280.1793      0.72234703
       6281.0077      0.93145851
       6281.8361      0.79292636
       6282.6645      0.85485075
       6283.4930      0.82921447
       6284.3214      0.75965453
       6285.1498      0.99668791
       6285.9782      0.97014391
       6286.8066      0.89018653
       6287.6351       1.0266425
       6288.4635      0.93123523
       6289.2919      0.74388627
       6290.1203       1.0441272
       6290.9487       1.1663164
       6291.7772       1.1852260
       6292.6056      0.78993467
       6293.4340      0.99700986
       6294.2624      0.92994057
       6295.0908      0.93662722
       6295.9193      0.79204457
       6296.7477      0.75965842
       6297.5761      0.65289282
       6298.4045       1.1872834
       6299.2329      0.89697216
       6300.0614       1.2402350
       6300.8898       1.1528386
       6301.7182      0.58542801
       6302.5466      0.94325413
       6303.3750      0.82286716
       6304.2035       1.0276234
       6305.0319       1.1024250
       6305.8603      0.82925808
       6306.6887      0.94860398
       6307.5171      0.86089308
       6308.3456       1.0801638
       6309.1740       1.0274615
       6310.0024       1.1739808
       6310.8308      0.97371397
       6311.6592       1.1079253
       6312.4877      0.96163223
       6313.3161       1.0899007
       6314.1445      0.77316127
       6314.9729      0.61980188
       6315.8013      0.92460670
       6316.6298      0.83098018
       6317.4582      0.90953822
       6318.2866      0.96587322
       6319.1150      0.89072133
       6319.9434      0.77118728
       6320.7719      0.93164152
       6321.6003      0.86081797
       6322.4287      0.77357630
       6323.2571       1.0303610
       6324.0855      0.85391863
       6324.9140      0.87780032
       6325.7424      0.99437699
       6326.5708      0.91220862
       6327.3992      0.80852820
       6328.2276      0.85801563
       6329.0561       1.2486705
       6329.8845      0.93198218
       6330.7129      0.81852266
       6331.5413      0.93855146
       6332.3697      0.87144330
       6333.1982      0.79712884
       6334.0266      0.94400602
       6334.8550       1.4179246
       6335.6834      0.85839198
       6336.5118      0.85702818
       6337.3403       1.3566185
       6338.1687       1.0903459
       6338.9971      0.93610724
       6339.8255       1.0191928
       6340.6539       1.0111383
       6341.4824      0.99008056
       6342.3108      0.93457515
       6343.1392      0.97879768
       6343.9676       1.0601636
       6344.7960      0.96570788
       6345.6245       1.0690384
       6346.4529      0.86957505
       6347.2813      0.90166829
       6348.1097      0.95825670
       6348.9381      0.81226022
       6349.7666      0.96132784
       6350.5950      0.88977078
       6351.4234      0.91796150
       6352.2518      0.95796624
       6353.0802      0.88994784
       6353.9087       1.0685502
       6354.7371      0.96537940
       6355.5655       1.0041437
       6356.3939       1.0279470
       6357.2223      0.79016988
       6358.0508      0.85991834
       6358.8792      0.86179510
       6359.7076      0.71584120
       6360.5360      0.79120064
       6361.3644      0.93286582
       6362.1929      0.96298277
       6363.0213       1.1506928
       6363.8497      0.98867837
       6364.6781       1.0576200
       6365.5065      0.94953259
       6366.3350       1.0331972
       6367.1634      0.94134902
       6367.9918      0.97385388
       6368.8202      0.71894596
       6369.6486       1.1356282
       6370.4771       1.2285347
       6371.3055      0.84383051
       6372.1339      0.89194754
       6372.9623      0.91989958
       6373.7907      0.85120599
       6374.6192       1.0884015
       6375.4476       1.1794866
       6376.2760      0.96460173
       6377.1044       1.1433019
       6377.9328      0.83996979
       6378.7613       1.2658371
       6379.5897       1.0128461
       6380.4181       1.2295623
       6381.2465       1.0623076
       6382.0749       1.1216647
       6382.9034      0.93286223
       6383.7318       1.1030345
       6384.5602       1.0371685
       6385.3886      0.95410739
       6386.2171       1.0122120
       6387.0455      0.79514096
       6387.8739      0.94506151
       6388.7023      0.98903444
       6389.5307      0.96874823
       6390.3592      0.93836881
       6391.1876      0.96988382
       6392.0160      0.93126467
       6392.8444       1.0003090
       6393.6728      0.92810831
       6394.5013       1.1409192
       6395.3297       1.0155096
       6396.1581       1.1839575
       6396.9865       1.1935617
       6397.8149       1.0970770
       6398.6434      0.92616213
       6399.4718      0.92837110
       6400.3002      0.77715947
       6401.1286       1.0966348
       6401.9570       1.0626224
       6402.7855       1.1230113
       6403.6139      0.98231614
       6404.4423       1.0114199
       6405.2707       1.0308374
       6406.0991       1.1661232
       6406.9276      0.94380005
       6407.7560       1.2986192
       6408.5844       1.0951627
       6409.4128      0.97954243
       6410.2412       1.0516368
       6411.0697       1.2265489
       6411.8981      0.92012736
       6412.7265       1.1706349
       6413.5549      0.93081069
       6414.3833      0.95717027
       6415.2118       1.0941742
       6416.0402       1.0770956
       6416.8686       1.1735928
       6417.6970      0.84436885
       6418.5254       1.1109118
       6419.3539       1.1392979
       6420.1823       1.1302552
       6421.0107       1.1629822
       6421.8391       1.1719682
       6422.6675      0.92537581
       6423.4960       1.0142495
       6424.3244       1.0945177
       6425.1528       1.0311261
       6425.9812       1.0049241
       6426.8096       1.0792703
       6427.6381      0.88490769
       6428.4665       1.0770681
       6429.2949       1.0203823
       6430.1233       1.0818854
       6430.9517       1.0841492
       6431.7802      0.98074042
       6432.6086      0.97199988
       6433.4370       1.0956916
       6434.2654       1.0722187
       6435.0938      0.96136217
       6435.9223      0.97633116
       6436.7507       1.1474291
       6437.5791      0.80624673
       6438.4075       1.0153587
       6439.2359      0.89246445
       6440.0644       1.0657371
       6440.8928       1.0968099
       6441.7212       1.1541004
       6442.5496      0.96129509
       6443.3780       1.0658510
       6444.2065      0.98034086
       6445.0349       1.0110686
       6445.8633      0.91763509
       6446.6917       1.1034989
       6447.5201       1.0186732
       6448.3486       1.0428975
       6449.1770       1.0221139
       6450.0054      0.90738839
       6450.8338       1.0920041
       6451.6622       1.1458939
       6452.4907       1.0818426
       6453.3191       1.2099364
       6454.1475       1.0769748
       6454.9759       1.1695663
       6455.8043      0.96266951
       6456.6328      0.96959013
       6457.4612      0.95207662
       6458.2896      0.95802352
       6459.1180      0.85533387
       6459.9464      0.96207722
       6460.7749       1.1306397
       6461.6033      0.96047670
       6462.4317      0.88421113
       6463.2601      0.82272925
       6464.0885      0.90822457
       6464.9170      0.96935006
       6465.7454       1.1093116
       6466.5738       1.0827136
       6467.4022      0.93489614
       6468.2306      0.86489432
       6469.0591      0.72113391
       6469.8875       1.0793575
       6470.7159      0.99792329
       6471.5443      0.81245984
       6472.3727      0.90415683
       6473.2012      0.86315050
       6474.0296       1.0126119
       6474.8580      0.42528624
       6475.6864      0.59063152
       6476.5148      0.58377365
       6477.3433      0.26558693
       6478.1717      0.69044159
       6479.0001      0.44200984
       6479.8285      0.27612165
       6480.6569      0.80867206
       6481.4854     -0.36852328
       6482.3138      0.98148758
       6483.1422     -0.53697966
       6483.9706      0.39155243
       6484.7990      0.82816824
       6485.6275      0.38256768
       6486.4559      0.80570091
       6487.2843     -0.38921517
       6488.1127      0.75284969
       6488.9411      0.33597867
       6489.7696      0.79903537
       6490.5980      0.79220720
       6491.4264       1.9143095
       6492.2548       1.2779028
       6493.0832      0.90722024
       6493.9117      0.54620389
       6494.7401      0.69088144
       6495.5685      0.76549100
       6496.3969      0.77390721
       6497.2253       1.0008500
       6498.0538      0.71926769
       6498.8822      0.92237659
       6499.7106      0.58411068
       6500.5390      0.76781353
       6501.3674      0.69748350
       6502.1959      0.17885503
       6503.0243      0.50857307
       6503.8527      0.38200913
       6504.6811      0.54770811
       6505.5095      0.58709770
       6506.3380      0.61128300
       6507.1664      0.62742403
       6507.9948      0.94876653
       6508.8232      0.85352328
       6509.6516       1.0572258
       6510.4801      0.78538250
       6511.3085      0.69177999
       6512.1369      0.65832196
       6512.9653      0.57346309
       6513.7937      0.69092171
       6514.6222      0.76886528
       6515.4506      0.91752387
       6516.2790      0.95033835
       6517.1074      0.96144491
       6517.9358      0.71248643
       6518.7643      0.94737381
       6519.5927      0.94852013
       6520.4211      0.53534975
       6521.2495      0.70281473
       6522.0779      0.43534678
       6522.9064     -0.38119222
       6523.7348      0.69537945
       6524.5632      0.16279944
       6525.3916      0.10415421
       6526.2200       1.1295209
       6527.0485       1.3212028
       6527.8769       1.0555667
       6528.7053      0.50853004
       6529.5337       1.0450733
       6530.3621      0.76008584
       6531.1906      0.73501967
       6532.0190      0.64069221
       6532.8474      0.88594202
       6533.6758      0.72135462
       6534.5042      0.78649546
       6535.3327       1.2252939
       6536.1611      0.87528450
       6536.9895      0.99368185
       6537.8179      0.98475020
       6538.6463       1.1151639
       6539.4748       1.0923984
       6540.3032       1.0272841
       6541.1316      0.53786858
       6541.9600      0.55252885
       6542.7884      0.63849882
       6543.6169      0.77299370
       6544.4453      0.77195350
       6545.2737       1.1253959
       6546.1021       1.1563146
       6546.9305       1.3429531
       6547.7590      0.94050399
       6548.5874      0.86827971
       6549.4158      0.98596177
       6550.2442      0.93068939
       6551.0726      0.83533754
       6551.9011      0.95903745
       6552.7295      0.90031076
       6553.5579      0.66646278
       6554.3863      0.95649675
       6555.2147      0.51933328
       6556.0432      0.69747395
       6556.8716       1.7119191
       6557.7000       1.3585640
       6558.5284       1.3312842
       6559.3568       1.3950038
       6560.1853       1.0892065
       6561.0137      0.92215135
       6561.8421      0.68056333
       6562.6705      0.66757139
       6563.4989      0.89261277
       6564.3274      0.82684476
       6565.1558      0.83547669
       6565.9842      0.94756544
       6566.8126      0.20393749
       6567.6410      0.11317877
       6568.4695      0.66476370
       6569.2979       1.6791937
       6570.1263       1.4011495
       6570.9547      0.51617725
       6571.7831       2.0383083
       6572.6116       2.4055434
       6573.4400       3.3329767
       6574.2684       3.3135369
       6575.0968       3.0180924
       6575.9252       3.1400674
       6576.7537       1.9380824
       6577.5821       1.3704764
       6578.4105       1.1335462
       6579.2389      0.85299258
       6580.0673      0.31744137
       6580.8958     0.043824991
       6581.7242      0.24853667
       6582.5526      0.48967635
       6583.3810       1.1576574
       6584.2094      0.86583945
       6585.0379       1.1653785
       6585.8663      0.83447954
       6586.6947      0.91120926
       6587.5231      0.93932464
       6588.3515      0.80065700
       6589.1800       1.0057385
       6590.0084       1.2708634
       6590.8368       1.0981956
       6591.6652       1.4099347
       6592.4936       1.3367487
       6593.3221       2.3302963
       6594.1505       1.9035381
       6594.9789      0.26763452
       6595.8073       1.3268039
       6596.6357       1.8301833
       6597.4642       1.5988704
       6598.2926      0.95693268
       6599.1210      0.54709037
       6599.9494      0.87607862
       6600.7778      0.84357917
       6601.6063       1.0470169
       6602.4347       1.0975679
       6603.2631      0.89410996
       6604.0915       1.0506122
       6604.9199      0.88580866
       6605.7484       1.0433791
       6606.5768      0.94139266
       6607.4052      0.79206498
       6608.2336      0.72124374
       6609.0620      0.67457012
       6609.8905      0.83481420
       6610.7189      0.79899903
       6611.5473      0.65080289
       6612.3757      0.42397498
       6613.2042      0.16851697
       6614.0326      0.73753201
       6614.8610       1.0047548
       6615.6894       1.4485618
       6616.5178      0.91361709
       6617.3463      0.81062358
       6618.1747       1.0915894
       6619.0031      0.88665063
       6619.8315      0.93275346
       6620.6599       1.0118890
       6621.4884       1.0234198
       6622.3168       1.1111742
       6623.1452     -0.36764011
       6623.9736      0.36240088
       6624.8020       1.2386974
       6625.6305      0.90049367
       6626.4589      0.87671647
       6627.2873       1.1651887
       6628.1157       1.1169684
       6628.9441      0.93974157
       6629.7726      0.89200125
       6630.6010       1.0203008
       6631.4294       1.0526679
       6632.2578      0.83472095
       6633.0862      0.72222788
       6633.9147       1.1045466
       6634.7431       1.0932651
       6635.5715      0.82085215
       6636.3999      0.93187901
       6637.2283      0.89778333
       6638.0568      0.80904688
       6638.8852       1.0256001
       6639.7136       1.0209764
       6640.5420      0.90077617
       6641.3704       1.0495175
       6642.1989      0.97018118
       6643.0273      0.93265489
       6643.8557      0.90320442
       6644.6841      0.81937512
       6645.5125      0.86942884
       6646.3410       1.0627654
       6647.1694       1.1898111
       6647.9978       1.0479358
       6648.8262    -0.068844910
       6649.6546      0.81844944
       6650.4831      0.79281233
       6651.3115      0.95981299
       6652.1399      0.85613160
       6652.9683      0.92989070
       6653.7967      0.93568388
       6654.6252      0.54787628
       6655.4536     0.031766132
       6656.2820       1.2700442
       6657.1104      0.88820146
       6657.9388      0.50256245
       6658.7673      0.12934933
       6659.5957      0.39548387
       6660.4241      0.89586043
       6661.2525      0.70913780
       6662.0809      0.85612266
       6662.9094       1.1095180
       6663.7378       1.1390445
       6664.5662       1.0415474
       6665.3946      0.99469672
       6666.2230      0.93802656
       6667.0515      0.98992271
       6667.8799      0.91484368
       6668.7083      0.88556746
       6669.5367       1.0305301
       6670.3651      0.94271556
       6671.1936      0.90241701
       6672.0220       1.1666804
       6672.8504      0.97076520
       6673.6788      0.93892451
       6674.5072      0.83885982
       6675.3357      0.75047418
       6676.1641      0.86970983
       6676.9925      0.87841293
       6677.8209       1.1755194
       6678.6493       1.1803655
       6679.4778       1.0169907
       6680.3062       1.0648599
       6681.1346      0.87688775
       6681.9630      0.97267082
       6682.7914      0.86009367
       6683.6199       1.0028889
       6684.4483       1.1889214
       6685.2767      0.54754606
       6686.1051       1.0371508
       6686.9335      0.94324875
       6687.7620      0.42760882
       6688.5904       1.1570858
       6689.4188      0.82595806
       6690.2472      0.88982859
       6691.0756      0.70335421
       6691.9041      0.93232977
       6692.7325      0.93863790
       6693.5609      0.83998625
       6694.3893      0.97045029
       6695.2177       1.0966716
       6696.0462      0.89866274
       6696.8746       1.5441429
       6697.7030       1.1489299
       6698.5314      0.91346973
       6699.3598       1.0998269
       6700.1883      0.90408726
       6701.0167       1.1239201
       6701.8451       1.1037489
       6702.6735       1.1038271
       6703.5019       1.2742761
       6704.3304       1.2403341
       6705.1588      0.98698445
       6705.9872       1.1059845
       6706.8156       1.1416822
       6707.6440       1.0409201
       6708.4725       1.0596307
       6709.3009       1.0468241
       6710.1293      0.96087831
       6710.9577       1.0535423
       6711.7861      0.91824275
       6712.6146      0.90316543
       6713.4430       1.0086692
       6714.2714       1.1005721
       6715.0998       1.0919880
       6715.9282       1.1415904
       6716.7567       1.0270021
       6717.5851       1.2341278
       6718.4135       1.1567901
       6719.2419       1.0034754
       6720.0703       1.1552218
       6720.8988      0.98559947
       6721.7272       1.1721704
       6722.5556       1.1320333
       6723.3840       1.1674749
       6724.2124       1.0233797
       6725.0409      0.96703119
       6725.8693      0.96211269
       6726.6977       1.4831356
       6727.5261       1.2320314
       6728.3545       1.5317362
       6729.1830      0.82283907
       6730.0114       1.3986154
       6730.8398       1.1403714
       6731.6682       1.1993712
       6732.4966      0.78636792
       6733.3251      0.72205387
       6734.1535       1.2093244
       6734.9819       1.1488030
       6735.8103      0.52584365
       6736.6387       1.1961947
       6737.4672       2.0767210
       6738.2956      0.94246953
       6739.1240       1.3834507
       6739.9524       1.8298598
       6740.7808       1.5697179
       6741.6093       1.2419356
       6742.4377       1.4687493
       6743.2661       1.3743431
       6744.0945      0.99051925
       6744.9229       1.2827215
       6745.7514       1.0517928
       6746.5798       1.0024240
       6747.4082       1.5583699
       6748.2366       1.4859205
       6749.0650       1.6586381
       6749.8935       1.3124545
       6750.7219      0.94033273
       6751.5503       1.1241858
       6752.3787       1.0477844
       6753.2071       1.0539646
       6754.0356       1.1723465
       6754.8640       1.0555135
       6755.6924       1.2550231
       6756.5208      0.80172542
       6757.3492       1.1703399
       6758.1777       1.0958659
       6759.0061       1.0022833
       6759.8345       1.1783320
       6760.6629      0.67143618
       6761.4913      0.81688411
       6762.3198      0.76617811
       6763.1482       1.7371610
       6763.9766       1.5203168
       6764.8050      0.85279841
       6765.6334       1.1365828
       6766.4619       1.0126379
       6767.2903       1.0621218
       6768.1187      0.83040055
       6768.9471       1.3732777
       6769.7755       1.1170007
       6770.6040      0.91377843
       6771.4324       1.1842434
       6772.2608       1.0989000
       6773.0892       1.1201807
       6773.9176      0.63231118
       6774.7461      0.96886303
       6775.5745       1.3638912
       6776.4029      0.49423462
       6777.2313      0.72239380
       6778.0597       1.0684375
       6778.8882       1.1327435
       6779.7166       1.3062496
       6780.5450       1.4967042
       6781.3734       1.2642683
       6782.2018      0.99416760
       6783.0303       1.0057327
       6783.8587       1.2786787
       6784.6871       1.2467045
       6785.5155       1.2381630
       6786.3439       1.3122391
       6787.1724       1.2061013
       6788.0008       1.1200398
       6788.8292      0.90125675
       6789.6576      0.97605025
       6790.4860       1.0821593
       6791.3145       1.0413890
       6792.1429       1.1502196
       6792.9713       1.0135491
       6793.7997       1.0751439
       6794.6281       1.0013085
       6795.4566       1.2093689
       6796.2850       1.2089689
       6797.1134       1.1349116
       6797.9418       1.1400421
       6798.7702       1.1048937
       6799.5987       1.1495288
       6800.4271      0.98223393
       6801.2555       1.2406406
       6802.0839       1.0224621
       6802.9123      0.99468485
       6803.7408       1.2416170
       6804.5692       1.1290367
       6805.3976       1.0442994
       6806.2260      0.98536330
       6807.0544      0.95840928
       6807.8829       1.0297963
       6808.7113      0.97125089
       6809.5397      0.93799230
       6810.3681      0.12803930
       6811.1965      0.45777119
       6812.0250      0.33397981
       6812.8534       1.5177264
       6813.6818       1.5084853
       6814.5102      0.92621692
       6815.3386       1.3291846
       6816.1671      0.76412552
       6816.9955      0.81722009
       6817.8239      0.91339265
       6818.6523       1.0728562
       6819.4807      0.92189854
       6820.3092       1.2915105
       6821.1376       1.1878856
       6821.9660       1.1331504
       6822.7944      0.92858737
       6823.6228      0.85480552
       6824.4513       1.2559432
       6825.2797      0.90397832
       6826.1081      0.55393675
       6826.9365      0.99242761
       6827.7649       1.3773339
       6828.5934       1.0323423
       6829.4218      0.83010505
       6830.2502       1.0634058
       6831.0786      0.93640147
       6831.9070       1.3015823
       6832.7355       1.3161959
       6833.5639      0.92197409
       6834.3923       1.1259302
       6835.2207       1.1835895
       6836.0491       1.1448090
       6836.8776       1.2368899
       6837.7060       1.0322898
       6838.5344      0.85644700
       6839.3628      0.98340171
       6840.1913       1.0386917
       6841.0197      0.77345275
       6841.8481       1.0200599
       6842.6765       1.0570669
       6843.5049       1.2455810
       6844.3334       1.1579698
       6845.1618       1.0028842
       6845.9902       1.0611117
       6846.8186      0.87897816
       6847.6470       1.1374371
       6848.4755       1.1468546
       6849.3039       1.1608695
       6850.1323       1.3933391
       6850.9607       1.6263957
       6851.7891       1.2338239
       6852.6176      0.56481734
       6853.4460       1.7191525
       6854.2744       1.2368260
       6855.1028       1.1000077
       6855.9312       1.1500290
       6856.7597       1.1405460
       6857.5881       1.0482930
       6858.4165       1.1240444
       6859.2449       1.0115390
       6860.0733       1.1198167
       6860.9018       1.2152184
       6861.7302       1.1818907
       6862.5586       1.1886462
       6863.3870      0.86093053
       6864.2154       1.1246347
       6865.0439      0.88495022
       6865.8723      0.93895593
       6866.7007       1.1678950
       6867.5291      0.38822740
       6868.3575     -0.45343102
       6869.1860     -0.45339016
       6870.0144      0.76744052
       6870.8428       1.7482196
       6871.6712       1.3936820
       6872.4996      0.74398584
       6873.3281       1.1255965
       6874.1565       1.1089161
       6874.9849       1.5828783
       6875.8133       1.6437754
       6876.6417       1.3545292
       6877.4702       1.3264846
       6878.2986       1.2999386
       6879.1270       1.2170265
       6879.9554      0.70907588
       6880.7838      0.99002222
       6881.6123      0.94528547
       6882.4407      0.94660802
       6883.2691      0.79222735
       6884.0975       1.4065518
       6884.9259       1.3270787
       6885.7544       1.3603472
       6886.5828      0.37837634
       6887.4112       1.1048164
       6888.2396       1.1290906
       6889.0680       1.2383255
       6889.8965       1.0880938
       6890.7249       1.1427019
       6891.5533       1.0928259
       6892.3817      0.86245211
       6893.2101      0.96756164
       6894.0386       1.0743170
       6894.8670       1.0323555
       6895.6954       1.3302735
       6896.5238       1.6257350
       6897.3522       1.1832774
       6898.1807       1.4480665
       6899.0091       2.0321820
       6899.8375       1.2178871
       6900.6659      0.80883679
       6901.4943      0.70377814
       6902.3228       1.0698397
       6903.1512       1.0219605
       6903.9796      0.92552195
       6904.8080       1.0919757
       6905.6364       1.1539207
       6906.4649       1.1635708
       6907.2933       1.0291805
       6908.1217       1.2872720
       6908.9501       1.3101639
       6909.7785       1.0946433
       6910.6070       1.0495744
       6911.4354       1.1022468
       6912.2638       1.1787547
       6913.0922      0.91526495
       6913.9206      0.84674912
       6914.7491       1.1072218
       6915.5775      0.69267931
       6916.4059       1.3566050
       6917.2343      0.76318228
       6918.0627      0.64025492
       6918.8912     -0.19495941
       6919.7196      0.56302559
       6920.5480      0.63880213
       6921.3764     -0.52156824
       6922.2048      0.18340236
       6923.0333       1.0795293
       6923.8617       1.0842969
       6924.6901      0.84907321
       6925.5185      0.50955652
       6926.3469      0.64016476
       6927.1754       1.6870439
       6928.0038       1.9234062
       6928.8322       1.5292599
       6929.6606       1.7044602
       6930.4890       1.5035495
       6931.3175       2.1540814
       6932.1459       1.0131880
       6932.9743      0.41327930
       6933.8027      0.98960696
       6934.6311      0.94358792
       6935.4596       1.0075004
       6936.2880       1.6155341
       6937.1164       1.6554935
       6937.9448      0.97041308
       6938.7732      0.95149890
       6939.6017      0.75454795
       6940.4301       1.1027001
       6941.2585       1.3621395
       6942.0869      0.71298174
       6942.9153      0.90280061
       6943.7438      0.81439916
       6944.5722      0.93311159
       6945.4006       1.0468386
       6946.2290       1.1929450
       6947.0574       1.0872863
       6947.8859       1.1170021
       6948.7143       1.0168651
       6949.5427       1.1811350
       6950.3711      0.99302717
       6951.1995       1.1461124
       6952.0280       1.1191819
       6952.8564      0.94100708
       6953.6848      0.92713957
       6954.5132      0.76700835
       6955.3416      0.74013045
       6956.1701      0.91054102
       6956.9985      0.53781634
       6957.8269       1.3742048
       6958.6553       1.4741537
       6959.4837       1.1355630
       6960.3122       1.0224859
       6961.1406      0.99364468
       6961.9690      0.99720767
       6962.7974      0.84764716
       6963.6258      0.73216899
       6964.4543       1.4859128
       6965.2827       1.7709162
       6966.1111     -0.36456392
       6966.9395      0.72974124
       6967.7679     -0.67126624
       6968.5964     -0.36818909
       6969.4248      0.89316815
       6970.2532      0.65192347
       6971.0816      0.83661609
       6971.9100      0.47615008
       6972.7385      0.59251421
       6973.5669      0.58616295
       6974.3953      0.84274442
       6975.2237      0.91754057
       6976.0521      0.77876658
       6976.8806      0.95655509
       6977.7090       1.3296673
       6978.5374      0.74058881
       6979.3658       1.0385553
       6980.1942       1.1387844
       6981.0227       1.1322918
       6981.8511       1.0733090
       6982.6795       1.3728180
       6983.5079       1.0284109
       6984.3363       1.1335479
       6985.1648       1.3776838
       6985.9932       1.1027522
       6986.8216       1.9030148
       6987.6500       1.8112256
       6988.4784       1.0295234
       6989.3069      0.97307675
       6990.1353       1.0487175
       6990.9637      0.97948428
       6991.7921       1.0066994
       6992.6205       1.0549097
       6993.4490       1.1794679
       6994.2774       1.1886187
       6995.1058       1.0056459
       6995.9342       1.2419125
       6996.7626       1.5134758
       6997.5911       1.1403483
       6998.4195       1.2549594
       6999.2479      0.80626033
       7000.0763      0.74949553
       7000.9047      0.26931028
       7001.7332      0.94900847
       7002.5616       1.0911372
       7003.3900       1.1080212
       7004.2184      0.93001403
       7005.0468      0.53287403
       7005.8753      0.12226506
       7006.7037      0.63388182
       7007.5321       1.3115726
       7008.3605      0.96665272
       7009.1889      0.90860137
       7010.0174      0.79302998
       7010.8458      0.60228316
       7011.6742      0.56423043
       7012.5026      0.96530560
       7013.3310       1.0473247
       7014.1595       2.1879070
       7014.9879      0.82648852
       7015.8163    -0.032718379
       7016.6447      0.42064023
       7017.4731      0.83885421
       7018.3016      0.81322253
       7019.1300      0.92352776
       7019.9584       1.0466719
       7020.7868       1.0038631
       7021.6152       1.1311450
       7022.4437      0.71048002
       7023.2721      0.61900070
       7024.1005      0.84416434
       7024.9289      0.78237854
       7025.7573      0.44244352
       7026.5858      0.40322984
       7027.4142      0.61253388
       7028.2426       1.6268149
       7029.0710      0.38202843
       7029.8994       1.0602834
       7030.7279       1.3994395
       7031.5563       1.0105382
       7032.3847      0.82714484
       7033.2131      0.82922756
       7034.0415      0.79967611
       7034.8700      0.90119421
       7035.6984      0.99584323
       7036.5268      0.82145427
       7037.3552       1.0554677
       7038.1836      0.85248492
       7039.0121      0.92260439
       7039.8405       1.1736374
       7040.6689      0.63077390
       7041.4973      0.16975995
       7042.3257      0.83279150
       7043.1542       1.8506545
       7043.9826       1.2913257
       7044.8110      0.23599070
