# wavelength flux
       2507.9629     0.021856529
       2508.8174    -0.016667116
       2509.6719     0.052039231
       2510.5263    0.0064543329
       2511.3808     0.045018665
       2512.2353    0.0090432214
       2513.0897   -0.0060372906
       2513.9442    -0.029421935
       2514.7987      0.12057344
       2515.6531     0.047482198
       2516.5076    -0.028878014
       2517.3621     0.021121795
       2518.2165     0.066659059
       2519.0710    -0.039072474
       2519.9255    -0.054201173
       2520.7799     0.037612613
       2521.6344     0.045105510
       2522.4889    -0.065788247
       2523.3433   -0.0034107107
       2524.1978     0.010428199
       2525.0523    -0.027095603
       2525.9067     0.056802716
       2526.7612   -0.0033450587
       2527.6157     0.086941273
       2528.4701     0.030694933
       2529.3246    -0.039895502
       2530.1791      0.12169213
       2531.0336    -0.045419875
       2531.8880    -0.022287828
       2532.7425     0.014075978
       2533.5970    -0.057856857
       2534.4514     0.049093209
       2535.3059     0.052725123
       2536.1604    -0.070917450
       2537.0148    -0.072348770
       2537.8693    -0.034118803
       2538.7238    -0.046822982
       2539.5782   0.00028082462
       2540.4327     0.053598854
       2541.2872     -0.10479493
       2542.1416     0.073456871
       2542.9961     0.077604267
       2543.8506     0.018909875
       2544.7050     0.037327513
       2545.5595    -0.035941676
       2546.4140    -0.020351960
       2547.2684    -0.015568963
       2548.1229     0.071332688
       2548.9774    -0.056351921
       2549.8318    -0.077850496
       2550.6863    -0.048883426
       2551.5408    -0.056413768
       2552.3952    -0.020266317
       2553.2497    -0.035647232
       2554.1042    -0.073844255
       2554.9586     0.055236176
       2555.8131    0.0015574963
       2556.6676    -0.029227738
       2557.5220     0.072615736
       2558.3765   -0.0060617349
       2559.2310    -0.026055512
       2560.0854     0.034624579
       2560.9399    -0.019364107
       2561.7944     0.011883186
       2562.6489    0.0012808172
       2563.5033     0.023192796
       2564.3578    -0.047668341
       2565.2123     0.018190252
       2566.0667     0.080886098
       2566.9212    -0.040672340
       2567.7757    -0.034415550
       2568.6301     0.094255091
       2569.4846    0.0086018940
       2570.3391   0.00089605603
       2571.1935    -0.082238141
       2572.0480    -0.052054413
       2572.9025   0.00052258658
       2573.7569    -0.067343150
       2574.6114   -0.0090285091
       2575.4659     0.049243649
       2576.3203    -0.027137122
       2577.1748     0.020084691
       2578.0293     0.089747952
       2578.8837     0.042759056
       2579.7382    0.0012941891
       2580.5927     0.070517474
       2581.4471    -0.023986377
       2582.3016     0.036242127
       2583.1561      0.10118427
       2584.0105    -0.073618042
       2584.8650    -0.020672128
       2585.7195    -0.081682577
       2586.5739    0.0058494848
       2587.4284   -0.0082251796
       2588.2829   -0.0083385796
       2589.1373     0.020425205
       2589.9918     0.010140446
       2590.8463    0.0073868293
       2591.7007     0.022977034
       2592.5552     0.085449238
       2593.4097     0.039079547
       2594.2641     0.049891644
       2595.1186     0.085154134
       2595.9731    -0.090058311
       2596.8276    -0.071630826
       2597.6820      0.10188025
       2598.5365    0.0030547093
       2599.3910    -0.049781773
       2600.2454    -0.031306518
       2601.0999    -0.059430868
       2601.9544    -0.033113000
       2602.8088    -0.069111134
       2603.6633    -0.013043406
       2604.5178     0.097931963
       2605.3722    -0.048910864
       2606.2267    -0.018224548
       2607.0812    -0.023935622
       2607.9356     0.025579801
       2608.7901     0.016565910
       2609.6446     -0.13778709
       2610.4990    -0.030804111
       2611.3535    -0.018454359
       2612.2080    -0.027330541
       2613.0624     0.069656584
       2613.9169     0.021958265
       2614.7714    0.0018668489
       2615.6258    0.0061056124
       2616.4803    -0.040227617
       2617.3348    -0.036824579
       2618.1892      0.10215963
       2619.0437     0.040098278
       2619.8982    -0.012999053
       2620.7526    -0.024403635
       2621.6071     0.060907948
       2622.4616      0.12174681
       2623.3160      0.11872957
       2624.1705     0.014503671
       2625.0250     0.087480344
       2625.8794    -0.064241740
       2626.7339    0.0031961164
       2627.5884      0.13439936
       2628.4428     0.024751223
       2629.2973    -0.014827476
       2630.1518     0.016116246
       2631.0063     0.059923437
       2631.8607     0.041719009
       2632.7152    0.0045509824
       2633.5697   -0.0048258884
       2634.4241    -0.040253247
       2635.2786     0.013600796
       2636.1331    -0.076476267
       2636.9875    0.0093704459
       2637.8420     0.031541379
       2638.6965     0.030276151
       2639.5509     0.031156018
       2640.4054    0.0010967545
       2641.2599     0.072994104
       2642.1143   -0.0078670581
       2642.9688    -0.054156984
       2643.8233     0.048467086
       2644.6777     0.019681340
       2645.5322     0.025864972
       2646.3867      0.14219392
       2647.2411     0.013357017
       2648.0956    0.0049393320
       2648.9501    -0.015755059
       2649.8045     0.011970481
       2650.6590    0.0080784114
       2651.5135     -0.10055869
       2652.3679    -0.032613528
       2653.2224    -0.014016107
       2654.0769    -0.026335598
       2654.9313   -0.0068602504
       2655.7858    0.0068909608
       2656.6403     0.018042826
       2657.4947     0.013444699
       2658.3492     0.028286806
       2659.2037    -0.035139321
       2660.0581    -0.040241231
       2660.9126    -0.015264688
       2661.7671     0.014396293
       2662.6216    0.0079508520
       2663.4760     0.038009466
       2664.3305    -0.027968646
       2665.1850   -0.0088971774
       2666.0394     0.012929408
       2666.8939     0.023121977
       2667.7484     0.054869923
       2668.6028  -0.00042138723
       2669.4573    -0.082842698
       2670.3118     0.069983741
       2671.1662     0.034455476
       2672.0207    -0.028439518
       2672.8752     0.034870933
       2673.7296     0.026081644
       2674.5841    -0.076820045
       2675.4386    -0.020831243
       2676.2930    -0.021115125
       2677.1475   -0.0076800305
       2678.0020    -0.038306896
       2678.8564     0.031082404
       2679.7109     0.013460939
       2680.5654     0.069982967
       2681.4198    -0.018431576
       2682.2743     0.016068199
       2683.1288   -0.0048501330
       2683.9832   -0.0011826998
       2684.8377    0.0055126609
       2685.6922     0.060919713
       2686.5466     0.019733606
       2687.4011  -0.00037110937
       2688.2556   -0.0058300414
       2689.1100    0.0083158737
       2689.9645   -0.0050791282
       2690.8190     0.023445065
       2691.6734     0.014546801
       2692.5279     0.045099593
       2693.3824    -0.018311722
       2694.2368   -0.0032178159
       2695.0913    0.0099055930
       2695.9458     0.016413979
       2696.8003     0.052237991
       2697.6547     0.034892314
       2698.5092    -0.010413591
       2699.3637    0.0017135849
       2700.2181     0.068858232
       2701.0726     0.013850225
       2701.9271    -0.016661620
       2702.7815   -0.0018116113
       2703.6360   -0.0023923118
       2704.4905    -0.064946708
       2705.3449    -0.024405615
       2706.1994     0.022761157
       2707.0539     0.018258431
       2707.9083    -0.038748981
       2708.7628   -0.0027401912
       2709.6173    -0.021482964
       2710.4717     0.021439967
       2711.3262     0.052259984
       2712.1807    0.0073394917
       2713.0351    -0.017958376
       2713.8896    -0.033630424
       2714.7441     0.045117272
       2715.5985      0.11296597
       2716.4530     0.014104610
       2717.3075   -0.0035652821
       2718.1619     0.017238621
       2719.0164     0.043274226
       2719.8709     0.017155051
       2720.7253     0.011333031
       2721.5798   -0.0097702233
       2722.4343     0.040324327
       2723.2887     0.027994748
       2724.1432     0.023493357
       2724.9977    -0.014767268
       2725.8521     0.052487127
       2726.7066     0.048521785
       2727.5611     0.049934021
       2728.4155    -0.030349431
       2729.2700   -0.0048800335
       2730.1245     0.018942040
       2730.9790    0.0041849133
       2731.8334    -0.043905838
       2732.6879     0.043758722
       2733.5424   -0.0058081123
       2734.3968   -0.0029284851
       2735.2513     0.044384236
       2736.1058    -0.017258483
       2736.9602    -0.028722455
       2737.8147    -0.026277837
       2738.6692    -0.035904521
       2739.5236     0.052726698
       2740.3781    -0.023210100
       2741.2326    -0.015985750
       2742.0870    -0.055108075
       2742.9415  -0.00095993003
       2743.7960     0.022590468
       2744.6504     0.039920155
       2745.5049    -0.019857974
       2746.3594     0.045120670
       2747.2138    0.0051593659
       2748.0683     0.043438781
       2748.9228     0.027549377
       2749.7772     0.031925911
       2750.6317   -0.0019997177
       2751.4862    -0.052866713
       2752.3406    0.0019021179
       2753.1951     0.013751178
       2754.0496     0.043326341
       2754.9040   -0.0073164326
       2755.7585    -0.026038612
       2756.6130    -0.035505314
       2757.4674     0.010924454
       2758.3219    -0.018790879
       2759.1764    -0.085701667
       2760.0308     0.017753098
       2760.8853  -0.00095863550
       2761.7398   -0.0012122675
       2762.5943     0.034867972
       2763.4487    -0.015944206
       2764.3032     0.054404043
       2765.1577     0.070267890
       2766.0121    -0.035965458
       2766.8666    -0.039278657
       2767.7211     0.029058915
       2768.5755     0.076216366
       2769.4300    0.0056686900
       2770.2845     0.029213886
       2771.1389    -0.011116442
       2771.9934   -0.0030210165
       2772.8479     0.027779643
       2773.7023  -0.00041326312
       2774.5568     0.028411289
       2775.4113    -0.021031781
       2776.2657     0.064307155
       2777.1202    -0.030012483
       2777.9747    -0.011653123
       2778.8291    -0.030748644
       2779.6836   -0.0069173165
       2780.5381   -0.0064298916
       2781.3925     0.035613718
       2782.2470   -0.0051488742
       2783.1015   -0.0015463040
       2783.9559     0.021333267
       2784.8104     0.039940420
       2785.6649     0.045650149
       2786.5193     0.045791401
       2787.3738    -0.016012432
       2788.2283    -0.011792907
       2789.0827     0.018068138
       2789.9372    -0.020432321
       2790.7917     0.025189545
       2791.6461     0.058469775
       2792.5006     0.036522610
       2793.3551     0.011450561
       2794.2095    0.0060225416
       2795.0640    -0.021721609
       2795.9185    -0.028845723
       2796.7730     0.036988170
       2797.6274    -0.016805661
       2798.4819   0.00098376137
       2799.3364    -0.030482705
       2800.1908    -0.026759242
       2801.0453     0.027437931
       2801.8998     0.022579699
       2802.7542     0.028002136
       2803.6087     0.065521756
       2804.4632     0.066422048
       2805.3176     0.060092473
       2806.1721    -0.021235476
       2807.0266     0.012025292
       2807.8810    0.0099372985
       2808.7355    -0.023165211
       2809.5900   -0.0019143159
       2810.4444    -0.032115605
       2811.2989    -0.014843768
       2812.1534     0.038265753
       2813.0078     0.063035211
       2813.8623     0.016664563
       2814.7168     0.016723441
       2815.5712     0.037681194
       2816.4257     0.052884417
       2817.2802   -0.0047932319
       2818.1346    0.0010282725
       2818.9891     0.020407097
       2819.8436    -0.015490675
       2820.6980    -0.019086493
       2821.5525    -0.016141093
       2822.4070     0.040834229
       2823.2614    0.0096072594
       2824.1159   0.00073713887
       2824.9704     0.016329401
       2825.8248     0.024907377
       2826.6793     0.012563087
       2827.5338     0.018611451
       2828.3882     0.017232639
       2829.2427     0.094603413
       2830.0972     0.072197518
       2830.9517     0.048919099
       2831.8061    -0.051647662
       2832.6606    -0.033661818
       2833.5151     0.034601489
       2834.3695    -0.017503709
       2835.2240     0.021507670
       2836.0785     0.049764813
       2836.9329     0.011004772
       2837.7874     0.021324567
       2838.6419    0.0076603837
       2839.4963    0.0023722966
       2840.3508     0.025922528
       2841.2053     0.038950168
       2842.0597     0.032700928
       2842.9142   -0.0070327765
       2843.7687    -0.013000055
       2844.6231    -0.015327487
       2845.4776   -0.0071531281
       2846.3321     0.042534833
       2847.1865     0.031500364
       2848.0410    0.0080260480
       2848.8955     0.083260861
       2849.7499     0.021505356
       2850.6044     0.035599538
       2851.4589     0.047760805
       2852.3133     0.044916777
       2853.1678     0.033217397
       2854.0223    0.0015674731
       2854.8767   -0.0058833134
       2855.7312    -0.025955878
       2856.5857     0.025457319
       2857.4401     0.014737943
       2858.2946     0.020689290
       2859.1491     0.057724879
       2860.0035    0.0063527035
       2860.8580     0.020179102
       2861.7125    -0.014499592
       2862.5669   -0.0062778905
       2863.4214     0.040981631
       2864.2759    -0.022439922
       2865.1304     0.014648996
       2865.9848    0.0029906080
       2866.8393     0.026210221
       2867.6938     0.032694476
       2868.5482    -0.017809276
       2869.4027     0.067094038
       2870.2572     0.049158097
       2871.1116     0.034988537
       2871.9661    -0.050838848
       2872.8206     0.020639432
       2873.6750    -0.020086977
       2874.5295     0.012572314
       2875.3840    -0.036509813
       2876.2384    -0.044135824
       2877.0929    -0.027616510
       2877.9474    -0.055714373
       2878.8018    0.0022614567
       2879.6563     0.060314656
       2880.5108     0.038017959
       2881.3652   -0.0013162313
       2882.2197    -0.018435536
       2883.0742     0.019064633
       2883.9286     0.012570341
       2884.7831    -0.036773151
       2885.6376   -0.0027869929
       2886.4920     0.038348691
       2887.3465     0.028242055
       2888.2010     0.050196001
       2889.0554    0.0091859375
       2889.9099     0.032421200
       2890.7644    -0.060255192
       2891.6188     0.052421703
       2892.4733     0.020391369
       2893.3278     0.025091618
       2894.1822     0.010781509
       2895.0367    0.0026195591
       2895.8912    0.0042258442
       2896.7457    -0.019709144
       2897.6001     0.034536443
       2898.4546     0.043131984
       2899.3091     0.074248967
       2900.1635     0.043866971
       2901.0180     0.012841115
       2901.8725     0.010416046
       2902.7269     0.051696136
       2903.5814   -0.0026993285
       2904.4359    0.0051045630
       2905.2903     0.027612693
       2906.1448     0.035545849
       2906.9993     0.028752540
       2907.8537     0.025214642
       2908.7082    0.0012149307
       2909.5627    -0.034586391
       2910.4171     0.020681919
       2911.2716    -0.018823444
       2912.1261     0.018180748
       2912.9805     0.018525802
       2913.8350    -0.011552782
       2914.6895     0.017903460
       2915.5439    0.0071145532
       2916.3984    -0.036779024
       2917.2529    -0.044703035
       2918.1073    0.0061158483
       2918.9618     0.044990325
       2919.8163     0.017105435
       2920.6707     0.027757736
       2921.5252     0.049358904
       2922.3797     0.043084790
       2923.2341   -0.0039030491
       2924.0886     0.016934297
       2924.9431     0.037852143
       2925.7975    0.0020870437
       2926.6520     0.011433833
       2927.5065     0.011229036
       2928.3609     0.021029390
       2929.2154     0.038158728
       2930.0699     0.042213981
       2930.9244     0.020905751
       2931.7788     0.049642844
       2932.6333     0.030091694
       2933.4878     0.027523120
       2934.3422     0.014729265
       2935.1967    0.0042003766
       2936.0512     0.016423615
       2936.9056     0.045282272
       2937.7601    0.0076771523
       2938.6146    -0.019034509
       2939.4690    -0.038793438
       2940.3235     0.011528949
       2941.1780     0.016010920
       2942.0324     0.060273979
       2942.8869     0.046019328
       2943.7414     0.016970399
       2944.5958    0.0086074142
       2945.4503    0.0084058211
       2946.3048    0.0073226864
       2947.1592     0.050156495
       2948.0137     0.016583031
       2948.8682     0.045382300
       2949.7226   -0.0091882918
       2950.5771    0.0082913084
       2951.4316    -0.045350090
       2952.2860   -0.0075290302
       2953.1405     0.016920705
       2953.9950    -0.022631695
       2954.8494    0.0099315130
       2955.7039    0.0068138968
       2956.5584     0.053673037
       2957.4128     0.055750139
       2958.2673     0.040321210
       2959.1218     0.032608257
       2959.9762    -0.022887476
       2960.8307     0.021561000
       2961.6852    -0.028579355
       2962.5396     0.010394116
       2963.3941     0.033682951
       2964.2486    -0.013589446
       2965.1031    0.0018300329
       2965.9575     0.029236937
       2966.8120     0.059330495
       2967.6665     0.055969146
       2968.5209     0.021095879
       2969.3754    -0.019858614
       2970.2299     0.052970105
       2971.0843     0.077742941
       2971.9388    -0.019944268
       2972.7933   -0.0096900117
       2973.6477    0.0013212469
       2974.5022     0.039432999
       2975.3567     0.014557105
       2976.2111     0.048317518
       2977.0656    -0.011482202
       2977.9201    -0.018008064
       2978.7745   0.00068080024
       2979.6290    -0.026744860
       2980.4835     0.028501562
       2981.3379    -0.019944210
       2982.1924     0.061172312
       2983.0469     0.042173087
       2983.9013     0.024223802
       2984.7558    0.0051171830
       2985.6103   -0.0032290443
       2986.4647     0.010182214
       2987.3192   -0.0075678973
       2988.1737     0.023207992
       2989.0281     0.049710735
       2989.8826    -0.012242462
       2990.7371    -0.035670464
       2991.5915    0.0098435555
       2992.4460    0.0080779551
       2993.3005   -0.0015313817
       2994.1549     0.029909289
       2995.0094   -0.0040142982
       2995.8639    0.0017244597
       2996.7184    0.0035751172
       2997.5728   -0.0012542683
       2998.4273     0.023815573
       2999.2818     0.048717372
       3000.1362    -0.013598170
       3000.9907   -0.0048401918
       3001.8452     0.014497879
       3002.6996  -0.00066544485
       3003.5541     0.032651888
       3004.4086     0.022208525
       3005.2630     0.062035519
       3006.1175     0.070769077
       3006.9720     0.038052857
       3007.8264    0.0090312252
       3008.6809   -0.0039383504
       3009.5354     0.041148178
       3010.3898     0.021470275
       3011.2443     0.043334724
       3012.0988    0.0072687799
       3012.9532     0.015541823
       3013.8077     0.034901011
       3014.6622     0.040575568
       3015.5166    -0.011404706
       3016.3711   -0.0037411034
       3017.2256   -0.0047457491
       3018.0800     0.029155684
       3018.9345     0.013595684
       3019.7890     0.036907833
       3020.6434   -0.0032249050
       3021.4979     0.011337982
       3022.3524   -0.0073493019
       3023.2068   0.00061375435
       3024.0613     0.032921918
       3024.9158    -0.036765586
       3025.7702     0.023433693
       3026.6247     0.033746189
       3027.4792     0.031873255
       3028.3336     0.020205915
       3029.1881     0.063305774
       3030.0426    -0.013393313
       3030.8971     0.020918366
       3031.7515     0.055862228
       3032.6060     0.017131651
       3033.4605     0.013284257
       3034.3149     0.030049966
       3035.1694     0.021959871
       3036.0239    -0.017298559
       3036.8783    -0.027643635
       3037.7328     0.030750783
       3038.5873     0.019291805
       3039.4417     0.047042675
       3040.2962     0.041303191
       3041.1507     0.030245166
       3042.0051     0.014855102
       3042.8596    0.0077001007
       3043.7141     0.023444250
       3044.5685     0.042890895
       3045.4230     0.044336018
       3046.2775     0.028430665
       3047.1319     0.054946392
       3047.9864     0.035093496
       3048.8409   -0.0045625711
       3049.6953    -0.020652468
       3050.5498     0.023411714
       3051.4043    -0.014742206
       3052.2587    -0.018473561
       3053.1132     0.034865924
       3053.9677    -0.047263474
       3054.8221    -0.033219246
       3055.6766     0.014119111
       3056.5311    -0.014423450
       3057.3855   -0.0016792728
       3058.2400    -0.027803260
       3059.0945    -0.019573203
       3059.9489     0.039273963
       3060.8034     0.021629443
       3061.6579     0.016580815
       3062.5123   -0.0050662911
       3063.3668    -0.017327190
       3064.2213     0.023828271
       3065.0758     0.015014533
       3065.9302    -0.026176506
       3066.7847     0.041447027
       3067.6392     0.029084171
       3068.4936     0.022956341
       3069.3481    0.0044441722
       3070.2026     0.060815801
       3071.0570     0.037378090
       3071.9115     0.039758312
       3072.7660     0.020637588
       3073.6204     0.034771449
       3074.4749     0.018600796
       3075.3294     0.030394656
       3076.1838     0.020158386
       3077.0383     0.014962077
       3077.8928    0.0084694168
       3078.7472     0.023248659
       3079.6017     0.041829811
       3080.4562     0.015870225
       3081.3106     0.022543119
       3082.1651    0.0062618523
       3083.0196     0.015968252
       3083.8740     0.023392262
       3084.7285     0.025150238
       3085.5830    0.0065908448
       3086.4374     0.035190878
       3087.2919     0.013295414
       3088.1464     0.014805807
       3089.0008     0.054676979
       3089.8553     0.035606223
       3090.7098     0.013977880
       3091.5642     0.038878075
       3092.4187     0.026146882
       3093.2732   0.00056747565
       3094.1276   -0.0030020049
       3094.9821   -0.0011548618
       3095.8366   -0.0034059286
       3096.6911    0.0053179070
       3097.5455     0.018083506
       3098.4000     0.042597775
       3099.2545    0.0088533714
       3100.1089  -0.00045677776
       3100.9634     0.012908866
       3101.8179   -0.0013906347
       3102.6723   -0.0031517480
       3103.5268    -0.019855365
       3104.3813     0.010747470
       3105.2357     0.025646934
       3106.0902     0.018880667
       3106.9447    -0.025348238
       3107.7991     0.055995761
       3108.6536     0.028788152
       3109.5081    -0.018085926
       3110.3625     0.049505842
       3111.2170     0.025510635
       3112.0715     0.012517230
       3112.9259     0.031028594
       3113.7804     0.034938788
       3114.6349     0.020083596
       3115.4893     0.025999274
       3116.3438     0.018857823
       3117.1983    -0.026405009
       3118.0527    -0.014902368
       3118.9072     0.032592220
       3119.7617    0.0029945667
       3120.6161     0.013056618
       3121.4706    0.0057931584
       3122.3251    -0.050327632
       3123.1795    -0.026541025
       3124.0340    -0.012279286
       3124.8885    -0.022333178
       3125.7429     0.016667364
       3126.5974   -0.0080645554
       3127.4519   -0.0086435181
       3128.3063    0.0097687628
       3129.1608   7.8529904e-05
       3130.0153     0.027289153
       3130.8698     0.065843876
       3131.7242     0.016994985
       3132.5787   -0.0059808786
       3133.4332    -0.018801237
       3134.2876    0.0032329405
       3135.1421    0.0018205652
       3135.9966     0.016629558
       3136.8510   -0.0023392616
       3137.7055     0.022769363
       3138.5600     0.013243936
       3139.4144     0.020048072
       3140.2689     0.032294078
       3141.1234   -0.0094157156
       3141.9778     0.022317147
       3142.8323     0.030833375
       3143.6868     0.020238101
       3144.5412     0.017661347
       3145.3957     0.018011149
       3146.2502     0.021381746
       3147.1046   -0.0055856805
       3147.9591    -0.025874638
       3148.8136    0.0054533141
       3149.6680     0.015482678
       3150.5225     0.025764729
       3151.3770     0.039629288
       3152.2314     0.026049617
       3153.0859     0.032126258
       3153.9404     0.020689383
       3154.7948     0.023050372
       3155.6493     0.014798153
       3156.5038     0.016127406
       3157.3582     0.026607390
       3158.2127     0.017983797
       3159.0672    0.0086628267
       3159.9216   -0.0053532732
       3160.7761    0.0075517308
       3161.6306     0.021544460
       3162.4850    -0.021318137
       3163.3395     0.020967909
       3164.1940     0.014191748
       3165.0485    -0.033119072
       3165.9029    -0.016913518
       3166.7574    -0.031460270
       3167.6119    -0.011779781
       3168.4663     0.031114732
       3169.3208   -0.0017557443
       3170.1753    -0.016595126
       3171.0297   -0.0066218405
       3171.8842     0.025745777
       3172.7387     0.043427763
       3173.5931   -0.0024364129
       3174.4476    0.0043226320
       3175.3021    -0.013694733
       3176.1565     0.033245981
       3177.0110     0.042338780
       3177.8655     0.030908649
       3178.7199   0.00067719759
       3179.5744    0.0033355449
       3180.4289     0.023077183
       3181.2833     0.017994934
       3182.1378     0.040693779
       3182.9923     0.037989169
       3183.8467   -0.0061892568
       3184.7012    -0.046275720
       3185.5557   0.00022488898
       3186.4101    0.0077738058
       3187.2646     0.019570123
       3188.1191     0.045146001
       3188.9735     0.013000079
       3189.8280     0.038464216
       3190.6825     0.011514728
       3191.5369    -0.018255828
       3192.3914     0.014315972
       3193.2459    -0.025725952
       3194.1003     0.027474836
       3194.9548     0.030686611
       3195.8093    -0.025321443
       3196.6638    0.0032492807
       3197.5182    0.0015454107
       3198.3727    -0.021576319
       3199.2272    -0.020158792
       3200.0816    -0.019386901
       3200.9361   -0.0083465546
       3201.7906    -0.010565143
       3202.6450     0.018649670
       3203.4995   -0.0094408330
       3204.3540     0.031783060
       3205.2084     0.029062250
       3206.0629     0.031793180
       3206.9174     0.029161832
       3207.7718     0.059930157
       3208.6263     0.053294812
       3209.4808     0.021625656
       3210.3352     0.025617451
       3211.1897     0.032574509
       3212.0442     0.029355930
       3212.8986    -0.020378637
       3213.7531    0.0081083671
       3214.6076     0.023221591
       3215.4620     0.057412971
       3216.3165     0.040893786
       3217.1710   -0.0078540099
       3218.0254     0.012742957
       3218.8799    0.0046285306
       3219.7344     0.023408185
       3220.5888     0.017647617
       3221.4433     0.010344799
       3222.2978     0.020978435
       3223.1522     0.011206385
       3224.0067     0.034650363
       3224.8612     0.024638511
       3225.7156    0.0099253976
       3226.5701     0.033655998
       3227.4246     0.016095125
       3228.2790     0.030822221
       3229.1335     0.021744979
       3229.9880     0.043947455
       3230.8425     0.077918307
       3231.6969   0.00079881522
       3232.5514     0.018898319
       3233.4059    0.0056153191
       3234.2603     0.016481128
       3235.1148     0.024881049
       3235.9693     0.030501920
       3236.8237    -0.021014360
       3237.6782    0.0046093276
       3238.5327    -0.020258870
       3239.3871    -0.024180190
       3240.2416    0.0046180222
       3241.0961     0.032644111
       3241.9505     0.024584719
       3242.8050     0.024113988
       3243.6595    0.0058324514
       3244.5139    -0.014415577
       3245.3684    0.0087928977
       3246.2229     0.028179940
       3247.0773   -0.0057560337
       3247.9318     0.016688297
       3248.7863    0.0090503269
       3249.6407     0.039782246
       3250.4952     0.030777875
       3251.3497   0.00018143601
       3252.2041    0.0065707479
       3253.0586     0.022892365
       3253.9131     0.033259952
       3254.7675    0.0073076049
       3255.6220    -0.012444119
       3256.4765     0.019366178
       3257.3309   -0.0045861801
       3258.1854    0.0082123275
       3259.0399     0.027398771
       3259.8943    -0.019261457
       3260.7488     0.041045188
       3261.6033     0.060595780
       3262.4577    0.0056823140
       3263.3122    -0.010885691
       3264.1667    -0.031054025
       3265.0212    -0.011124662
       3265.8756     0.013410349
       3266.7301  -0.00026754384
       3267.5846    -0.010055603
       3268.4390     0.014343555
       3269.2935     0.010214867
       3270.1480  -0.00026639676
       3271.0024    -0.014530994
       3271.8569     0.048341251
       3272.7114     0.045575709
       3273.5658     0.024025170
       3274.4203     0.037703074
       3275.2748     0.055385553
       3276.1292     0.011126836
       3276.9837     0.015952480
       3277.8382     0.025816132
       3278.6926     0.045733421
       3279.5471     0.034762462
       3280.4016    -0.013569662
       3281.2560     0.051002622
       3282.1105   -0.0066837219
       3282.9650    -0.026202750
       3283.8194     0.037708032
       3284.6739     0.038230750
       3285.5284   0.00014118383
       3286.3828  -0.00058464726
       3287.2373   -0.0099866850
       3288.0918    0.0013503979
       3288.9462     0.028961274
       3289.8007     0.026312568
       3290.6552     0.024964082
       3291.5096     0.043855473
       3292.3641     0.035073992
       3293.2186     0.013533211
       3294.0730     0.016159621
       3294.9275    -0.026231053
       3295.7820     0.036646587
       3296.6365     0.015833948
       3297.4909     0.034109708
       3298.3454     0.041959173
       3299.1999     0.017071547
       3300.0543     0.015729398
       3300.9088     0.068543325
       3301.7633     0.033314355
       3302.6177     0.053733802
       3303.4722     0.032340608
       3304.3267  -0.00080059528
       3305.1811    -0.030981093
       3306.0356    0.0079119741
       3306.8901   -0.0089800716
       3307.7445     0.020554747
       3308.5990    0.0041665520
       3309.4535     0.013079030
       3310.3079     0.015715997
       3311.1624     0.032549756
       3312.0169     0.043693597
       3312.8713     0.057462839
       3313.7258    0.0071844549
       3314.5803   -0.0038453997
       3315.4347     0.059282068
       3316.2892     0.011076686
       3317.1437     0.020482568
       3317.9981     0.059243182
       3318.8526    0.0015296438
       3319.7071     0.032997282
       3320.5615     0.026454344
       3321.4160   -0.0050859210
       3322.2705     0.019358330
       3323.1249     0.033178637
       3323.9794    -0.032820595
       3324.8339   -0.0072702866
       3325.6883     0.053647964
       3326.5428     0.021921591
       3327.3973     0.038249920
       3328.2517    -0.028178012
       3329.1062   -0.0080847177
       3329.9607     0.041228592
       3330.8152     0.049091649
       3331.6696    0.0039807525
       3332.5241    -0.013131931
       3333.3786     0.060509681
       3334.2330     0.058970805
       3335.0875     0.036912149
       3335.9420     0.039912064
       3336.7964    0.0034134281
       3337.6509     0.031781301
       3338.5054   -0.0068861798
       3339.3598    0.0086313756
       3340.2143    -0.013482759
       3341.0688    0.0056426051
       3341.9232     0.060995946
       3342.7777    -0.029544207
       3343.6322     0.015754225
       3344.4866     0.028844276
       3345.3411   -0.0042388994
       3346.1956     0.016070473
       3347.0500     0.045402516
       3347.9045     0.042557051
       3348.7590     0.037327404
       3349.6134     0.043938041
       3350.4679     0.052325977
       3351.3224     0.022550781
       3352.1768    0.0062276477
       3353.0313     0.010885749
       3353.8858     0.028330071
       3354.7402   -0.0053459109
       3355.5947     0.019577044
       3356.4492     0.033524298
       3357.3036     0.027951623
       3358.1581     0.018594543
       3359.0126     0.044554864
       3359.8670     0.041155424
       3360.7215     0.013193572
       3361.5760    -0.033292133
       3362.4304     0.015332232
       3363.2849  -0.00096606730
       3364.1394    -0.016137792
       3364.9939    0.0041865639
       3365.8483     0.022099672
       3366.7028     0.038054251
       3367.5573     0.028242976
       3368.4117   -0.0080275583
       3369.2662     0.027643678
       3370.1207     0.031202621
       3370.9751     0.042801943
       3371.8296     0.050514385
       3372.6841     0.015552448
       3373.5385   -0.0023768832
       3374.3930    0.0068007661
       3375.2475    -0.016170289
       3376.1019  -0.00094687601
       3376.9564     0.025281970
       3377.8109    0.0083790132
       3378.6653    0.0061826280
       3379.5198    -0.016417772
       3380.3743     0.010091804
       3381.2287     0.042404017
       3382.0832     0.018043005
       3382.9377     0.039660194
       3383.7921    0.0075599995
       3384.6466    0.0018276773
       3385.5011     0.011961529
       3386.3555    0.0035993053
       3387.2100     0.013683700
       3388.0645  -0.00067255743
       3388.9189     0.051630195
       3389.7734     0.025362255
       3390.6279     0.050808125
       3391.4823     0.044329242
       3392.3368     0.047379551
       3393.1913     0.013581942
       3394.0457     0.036154517
       3394.9002    0.0010750519
       3395.7547   -0.0016522097
       3396.6092     0.016496935
       3397.4636    0.0018469004
       3398.3181     0.011853762
       3399.1726    -0.018892496
       3400.0270    -0.014345103
       3400.8815    -0.033464508
       3401.7360     0.039078407
       3402.5904     0.053267933
       3403.4449     0.053008944
       3404.2994    -0.044274164
       3405.1538   -0.0076134449
       3406.0083     0.041455395
       3406.8628     0.048946050
       3407.7172     0.023142016
       3408.5717   -0.0030291899
       3409.4262     0.019484446
       3410.2806    0.0056882629
       3411.1351     0.046806916
       3411.9896     0.012421657
       3412.8440     0.034010722
       3413.6985     0.017855357
       3414.5530  -0.00040214772
       3415.4074     0.071542795
       3416.2619     0.020671698
       3417.1164     0.018899041
       3417.9708     0.028815353
       3418.8253     0.030960176
       3419.6798   -0.0069583362
       3420.5342     0.012245109
       3421.3887     0.040536896
       3422.2432     0.044910339
       3423.0976    0.0032772230
       3423.9521     0.032403402
       3424.8066    0.0016785909
       3425.6610     0.015467393
       3426.5155   -0.0026822128
       3427.3700    -0.019319684
       3428.2244    0.0033900255
       3429.0789     0.025635533
       3429.9334     0.030464021
       3430.7879     0.013086300
       3431.6423     0.059612069
       3432.4968     0.027012803
       3433.3513     0.028502398
       3434.2057     0.054311586
       3435.0602     0.041123506
       3435.9147     0.045155297
       3436.7691     0.037392901
       3437.6236     0.052486967
       3438.4781     0.031056586
       3439.3325     0.017619296
       3440.1870     0.046575055
       3441.0415     0.012956282
       3441.8959     0.056083086
       3442.7504     0.053378849
       3443.6049     0.036767002
       3444.4593     0.023757267
       3445.3138     0.049427541
       3446.1683     0.054721581
       3447.0227     0.017689367
       3447.8772     0.033548186
       3448.7317     0.024140374
       3449.5861    0.0068171748
       3450.4406     0.015445650
       3451.2951     0.054718777
       3452.1495    0.0076487502
       3453.0040    0.0058972299
       3453.8585   -0.0070732943
       3454.7129   -0.0049893915
       3455.5674     0.021652125
       3456.4219     0.026036078
       3457.2763     0.059453547
       3458.1308     0.076768706
       3458.9853     0.057259599
       3459.8397   -0.0098788040
       3460.6942     0.040413221
       3461.5487     0.046250860
       3462.4031     0.022032279
       3463.2576    0.0044592076
       3464.1121    -0.028158912
       3464.9666    -0.026180764
       3465.8210   -0.0014525665
       3466.6755    -0.010983021
       3467.5300     0.035394130
       3468.3844     0.037693887
       3469.2389     0.039179725
       3470.0934     0.034336031
       3470.9478     0.067692387
       3471.8023     0.048354786
       3472.6568     0.030943731
       3473.5112     0.013456792
       3474.3657    -0.013387867
       3475.2202   -0.0021125278
       3476.0746    0.0014043994
       3476.9291     0.016196635
       3477.7836     0.026949852
       3478.6380    -0.016104750
       3479.4925     0.010486967
       3480.3470     0.027565210
       3481.2014     0.053841134
       3482.0559     0.051560411
       3482.9104     0.037136912
       3483.7648     0.047035288
       3484.6193     0.014629053
       3485.4738     0.042143395
       3486.3282     0.028006533
       3487.1827     0.021477730
       3488.0372  -0.00078274240
       3488.8916     0.032293804
       3489.7461     0.016020153
       3490.6006     0.014844643
       3491.4550     0.047939305
       3492.3095     0.058903003
       3493.1640     0.031204389
       3494.0184     0.033595576
       3494.8729     0.061620176
       3495.7274     0.039432431
       3496.5818     0.024147523
       3497.4363     0.023659540
       3498.2908    -0.011573002
       3499.1453     0.014243988
       3499.9997     0.037684681
       3500.8542     0.025916264
       3501.7087     0.019263860
       3502.5631     0.016861881
       3503.4176     0.083943401
       3504.2721     0.051603147
       3505.1265     0.052982474
       3505.9810     0.073379375
       3506.8355    -0.013050166
       3507.6899     0.066704260
       3508.5444     0.092013547
       3509.3989     0.093738831
       3510.2533     0.030909422
       3511.1078    -0.024616582
       3511.9623    0.0047514894
       3512.8167    -0.022647064
       3513.6712     0.036689831
       3514.5257    0.0099002332
       3515.3801     0.057201274
       3516.2346     0.076724298
       3517.0891     0.027621005
       3517.9435     0.057563727
       3518.7980     0.057828794
       3519.6525     0.075597151
       3520.5069   -0.0017677119
       3521.3614     0.023085558
       3522.2159  -0.00074477766
       3523.0703     0.016100528
       3523.9248    -0.016556972
       3524.7793     0.048310939
       3525.6337     0.048229309
       3526.4882   -0.0031051165
       3527.3427     0.054716569
       3528.1971   -0.0066170867
       3529.0516     0.025179608
       3529.9061     0.019102016
       3530.7606    -0.016268000
       3531.6150     0.014656118
       3532.4695   -0.0099115039
       3533.3240     0.025426004
       3534.1784    -0.028221107
       3535.0329     0.070316641
       3535.8874     0.040731430
       3536.7418     0.054393349
       3537.5963     0.055464190
       3538.4508     0.042929284
       3539.3052     0.073620822
       3540.1597     0.060822113
       3541.0142     0.064986728
       3541.8686     0.029708361
       3542.7231    -0.010658159
       3543.5776    0.0037225327
       3544.4320     0.018916993
       3545.2865     0.025579785
       3546.1410     0.015575943
       3546.9954     0.018691109
       3547.8499     0.047552004
       3548.7044     0.040570655
       3549.5588     0.031800129
       3550.4133     0.038106437
       3551.2678     0.014332970
       3552.1222     0.024130435
       3552.9767     0.024083468
       3553.8312     0.023069177
       3554.6856     0.017302601
       3555.5401     0.021900132
       3556.3946     0.050990723
       3557.2490     0.043544411
       3558.1035     0.050940591
       3558.9580     0.055142803
       3559.8124   0.00026759005
       3560.6669     0.020972275
       3561.5214     0.021014877
       3562.3758     0.054793664
       3563.2303    -0.017388855
       3564.0848    0.0069403691
       3564.9393     0.011366413
       3565.7937     0.047494369
       3566.6482     0.040701957
       3567.5027     0.032360532
       3568.3571    0.0069228298
       3569.2116     0.029894416
       3570.0661     0.032007482
       3570.9205     0.039867555
       3571.7750     0.074252495
       3572.6295     0.023973776
       3573.4839     0.027231536
       3574.3384     0.025047708
       3575.1929     0.048624369
       3576.0473     0.053648243
       3576.9018     0.010629936
       3577.7563     0.059844576
       3578.6107     0.054423487
       3579.4652     0.061876467
       3580.3197     0.033389721
       3581.1741     0.092326967
       3582.0286     0.052905229
       3582.8831    -0.020143443
       3583.7375     0.031030493
       3584.5920     0.013720329
       3585.4465     0.053080272
       3586.3009     0.016888852
       3587.1554     0.058598564
       3588.0099  -0.00094826386
       3588.8643     0.080882151
       3589.7188     0.011530604
       3590.5733     0.023721659
       3591.4277     0.024749587
       3592.2822     0.016587231
       3593.1367     0.023499849
       3593.9911     0.017581013
       3594.8456    0.0085953256
       3595.7001     0.030150739
       3596.5545   -0.0045839951
       3597.4090     0.069932931
       3598.2635     0.050621672
       3599.1180   -0.0073377190
       3599.9724     0.023894675
       3600.8269     0.023442783
       3601.6814     0.074867112
       3602.5358     0.060841337
       3603.3903     0.080461608
       3604.2448     0.048390482
       3605.0992     0.016060581
       3605.9537     0.020263271
       3606.8082  -0.00094902783
       3607.6626     0.015151367
       3608.5171     0.059655130
       3609.3716     0.043240786
       3610.2260    0.0029622983
       3611.0805     0.029745026
       3611.9350     0.041037402
       3612.7894     0.076697000
       3613.6439     0.020420557
       3614.4984  -1.7162452e-05
       3615.3528   -0.0099600830
       3616.2073     0.020628417
       3617.0618     0.050950240
       3617.9162     0.058256214
       3618.7707     0.019370143
       3619.6252    0.0067321827
       3620.4796    -0.033297160
       3621.3341    -0.017225671
       3622.1886   -0.0039661044
       3623.0430     0.047037485
       3623.8975     0.053974613
       3624.7520     0.039951950
       3625.6064     0.017249197
       3626.4609     0.028369516
       3627.3154     0.019196376
       3628.1698     0.055952829
       3629.0243     0.057078029
       3629.8788    -0.010509920
       3630.7333    -0.035571113
       3631.5877   -0.0026643730
       3632.4422     0.076603208
       3633.2967     0.028120530
       3634.1511     0.013884967
       3635.0056     0.019213245
       3635.8601    0.0063655868
       3636.7145     0.067801373
       3637.5690     0.064551157
       3638.4235     0.079150078
       3639.2779     0.081499855
       3640.1324     0.043799851
       3640.9869     0.027556283
       3641.8413     0.025262677
       3642.6958    0.0043022629
       3643.5503   -0.0027252964
       3644.4047     0.053687072
       3645.2592     0.072542745
       3646.1137     0.029732604
       3646.9681     0.060301587
       3647.8226     0.023824683
       3648.6771   -0.0086623680
       3649.5315    -0.047916808
       3650.3860    0.0061109444
       3651.2405    0.0060607433
       3652.0949     0.046017796
       3652.9494     0.033306947
       3653.8039     0.039020635
       3654.6583    0.0088310889
       3655.5128     0.015674400
       3656.3673   0.00077252608
       3657.2217     0.035575679
       3658.0762     0.047797825
       3658.9307     0.025680882
       3659.7851     0.023190113
       3660.6396     0.021555554
       3661.4941    -0.021912815
       3662.3485     0.027245087
       3663.2030     0.048473666
       3664.0575     0.035040460
       3664.9120     0.059142020
       3665.7664    -0.017603793
       3666.6209   0.00082186051
       3667.4754     0.055325105
       3668.3298     0.021371185
       3669.1843     0.026989004
       3670.0388     0.030212342
       3670.8932     0.022324510
       3671.7477     0.030125839
       3672.6022     0.020292224
       3673.4566     0.020607992
       3674.3111     0.050550106
       3675.1656     0.012033367
       3676.0200   -0.0062412732
       3676.8745     0.041688511
       3677.7290     0.042138915
       3678.5834     0.030492401
       3679.4379     0.012188770
       3680.2924     0.042564960
       3681.1468     0.053894618
       3682.0013     0.049623626
       3682.8558     0.046169191
       3683.7102     0.077216022
       3684.5647     0.013350445
       3685.4192   -0.0013494077
       3686.2736     0.048278270
       3687.1281    -0.022005567
       3687.9826   -0.0032159180
       3688.8370    -0.032764539
       3689.6915    -0.016957975
       3690.5460     0.039460177
       3691.4004     0.011409942
       3692.2549     0.043707103
       3693.1094    0.0066369524
       3693.9638     0.027196232
       3694.8183     0.015844907
       3695.6728     0.033944040
       3696.5272     0.045947222
       3697.3817    0.0084890388
       3698.2362    -0.012399222
       3699.0907    0.0025924956
       3699.9451     0.023747164
       3700.7996     0.014685940
       3701.6541     0.044460683
       3702.5085     0.054437651
       3703.3630     0.059962122
       3704.2175    -0.014943900
       3705.0719     0.035599663
       3705.9264     0.055038212
       3706.7809     0.050112735
       3707.6353   0.00038057954
       3708.4898   -0.0017360446
       3709.3443     0.017652799
       3710.1987     0.041977225
       3711.0532     0.023176648
       3711.9077     0.058027561
       3712.7621     0.036757495
       3713.6166     0.030006567
       3714.4711     0.015986085
       3715.3255     0.032530433
       3716.1800     0.050305364
       3717.0345     0.034835586
       3717.8889     0.018362568
       3718.7434     0.028342348
       3719.5979     0.050885207
       3720.4523      0.10847698
       3721.3068     0.064442050
       3722.1613     0.036335457
       3723.0157     0.058172212
       3723.8702     0.092796049
       3724.7247     0.086500139
       3725.5791      0.15089264
       3726.4336     0.088105644
       3727.2881     0.097798384
       3728.1425      0.10756495
       3728.9970     0.061341567
       3729.8515     0.049096481
       3730.7060     0.043194014
       3731.5604     0.083525556
       3732.4149     0.063620784
       3733.2694     0.017425198
       3734.1238    -0.019683619
       3734.9783     0.030169554
       3735.8328    0.0027380132
       3736.6872   -0.0062971351
       3737.5417    -0.028510790
       3738.3962    0.0088874283
       3739.2506     0.061985710
       3740.1051     0.054548646
       3740.9596     0.011879356
       3741.8140     0.035268130
       3742.6685     0.019956447
       3743.5230     0.035382930
       3744.3774     0.014320009
       3745.2319     0.024208740
       3746.0864     0.017525569
       3746.9408     0.078146475
       3747.7953     0.012219242
       3748.6498     0.039543907
       3749.5042     0.018665736
       3750.3587     0.038904764
       3751.2132     0.040257016
       3752.0676     0.051285600
       3752.9221     0.019530158
       3753.7766    0.0097274377
       3754.6310     0.022902434
       3755.4855     0.041853009
       3756.3400     0.030498730
       3757.1944     0.041861942
       3758.0489     0.021746316
       3758.9034     0.012476043
       3759.7578     0.054105604
       3760.6123     0.050751388
       3761.4668     0.020307771
       3762.3212    -0.030111614
       3763.1757     0.058434403
       3764.0302     0.032623111
       3764.8847     0.032590572
       3765.7391    0.0023298122
       3766.5936     0.018594470
       3767.4481   -0.0093781910
       3768.3025    0.0084258907
       3769.1570     0.031263956
       3770.0115    0.0059060212
       3770.8659     0.040912273
       3771.7204     0.069059493
       3772.5749     0.048970211
       3773.4293    -0.025783104
       3774.2838  -6.3188623e-05
       3775.1383     0.032336540
       3775.9927     0.026521105
       3776.8472     0.012970325
       3777.7017     0.024992637
       3778.5561     0.083546495
       3779.4106     0.074694257
       3780.2651     0.074399614
       3781.1195     0.039462867
       3781.9740     0.074396792
       3782.8285     0.052733784
       3783.6829     0.032970158
       3784.5374     0.028703830
       3785.3919     0.062207626
       3786.2463     0.048633179
       3787.1008     0.036381280
       3787.9553     0.024118604
       3788.8097    0.0083672332
       3789.6642     0.074274794
       3790.5187     0.074394686
       3791.3731     0.032788763
       3792.2276    0.0010174111
       3793.0821     0.031548325
       3793.9365     0.087232201
       3794.7910     0.014922488
       3795.6455     0.040649140
       3796.4999     0.022951989
       3797.3544   0.00019657190
       3798.2089     0.019605395
       3799.0634     0.034854707
       3799.9178     0.047315005
       3800.7723     0.061926990
       3801.6268     0.050891959
       3802.4812     0.028940199
       3803.3357  -0.00035622848
       3804.1902   -0.0092517277
       3805.0446     0.017400223
       3805.8991    -0.038199143
       3806.7536     0.017562879
       3807.6080     0.032805922
       3808.4625     0.060519786
       3809.3170     0.068032629
       3810.1714     0.010580389
       3811.0259     0.038139353
       3811.8804   -0.0027924994
       3812.7348     0.049745893
       3813.5893     0.019122327
       3814.4438     0.021510555
       3815.2982     0.016116919
       3816.1527     0.058432974
       3817.0072     0.087637627
       3817.8616     0.058745985
       3818.7161     0.028909843
       3819.5706     0.011445774
       3820.4250     0.052258726
       3821.2795     0.090404103
       3822.1340     0.051616027
       3822.9884     0.051855319
       3823.8429     0.053706614
       3824.6974     0.025315169
       3825.5518     0.054089204
       3826.4063    0.0011680219
       3827.2608     0.018606743
       3828.1152     0.036006414
       3828.9697     0.049927224
       3829.8242    0.0085258653
       3830.6787    0.0096085571
       3831.5331     0.035284082
       3832.3876     0.037852143
       3833.2421     0.014441877
       3834.0965   -0.0088606919
       3834.9510     0.035673471
       3835.8055     0.023331523
       3836.6599     0.015112062
       3837.5144     0.068939408
       3838.3689     0.010778300
       3839.2233     0.024640350
       3840.0778     0.026159922
       3840.9323     0.074608332
       3841.7867     0.035337004
       3842.6412   -0.0084165914
       3843.4957     0.058276105
       3844.3501     0.010667750
       3845.2046     0.038863773
       3846.0591     0.034846326
       3846.9135     0.043992442
       3847.7680     0.054653523
       3848.6225     0.085251049
       3849.4769     0.080994930
       3850.3314     0.063323461
       3851.1859     0.048221565
       3852.0403     0.017174435
       3852.8948     0.048629655
       3853.7493     0.096462776
       3854.6037     0.073540935
       3855.4582     0.011450493
       3856.3127     0.046624266
       3857.1671    0.0033133601
       3858.0216     0.021438790
       3858.8761     0.057354303
       3859.7305     0.081560825
       3860.5850     0.052106431
       3861.4395     0.073606087
       3862.2939     0.068241297
       3863.1484     0.056723857
       3864.0029     0.037467648
       3864.8574     0.050133637
       3865.7118     0.053323059
       3866.5663   -0.0015387562
       3867.4208     0.015698974
       3868.2752     0.045807672
       3869.1297     0.060811595
       3869.9842     0.065006813
       3870.8386     0.044440253
       3871.6931     0.069428290
       3872.5476     0.076934893
       3873.4020     0.019009625
       3874.2565     0.062789322
       3875.1110     0.064056415
       3875.9654     0.043525070
       3876.8199     0.020888249
       3877.6744     0.024789188
       3878.5288     0.021624018
       3879.3833     0.060294646
       3880.2378      0.10949410
       3881.0922     0.042709605
       3881.9467    -0.017718872
       3882.8012     0.030728985
       3883.6556     0.039618622
       3884.5101     0.046212331
       3885.3646     0.017924785
       3886.2190    0.0076286905
       3887.0735    0.0092642886
       3887.9280     0.010705536
       3888.7824     0.051321243
       3889.6369     0.055694705
       3890.4914     0.032463841
       3891.3458    0.0076308906
       3892.2003   0.00020584271
       3893.0548     0.048973734
       3893.9092     0.047910507
       3894.7637     0.044173664
       3895.6182     0.020000837
       3896.4726     0.015871019
       3897.3271     0.024593992
       3898.1816    -0.016879206
       3899.0361     0.061793576
       3899.8905     0.093629893
       3900.7450     0.013672822
       3901.5995   -0.0012230790
       3902.4539     0.082236858
       3903.3084     0.083555288
       3904.1629     0.048507849
       3905.0173     0.013250003
       3905.8718     0.020602715
       3906.7263   -0.0047849269
       3907.5807     0.074029999
       3908.4352     0.045009251
       3909.2897     0.013555369
       3910.1441     0.050081980
       3910.9986     0.044256512
       3911.8531     0.044936253
       3912.7075     0.091537974
       3913.5620     0.052157458
       3914.4165     0.057912096
       3915.2709     0.067363407
       3916.1254     0.046715989
       3916.9799     0.022423632
       3917.8343     0.074410899
       3918.6888     0.010252571
       3919.5433     0.033142621
       3920.3977     0.057388966
       3921.2522     0.076712336
       3922.1067     0.020632467
       3922.9611     0.022338722
       3923.8156     0.059220228
       3924.6701     0.043678214
       3925.5245     0.014584202
       3926.3790     0.049050426
       3927.2335     0.049002842
       3928.0879  -0.00044968876
       3928.9424   -0.0062839335
       3929.7969    0.0049604601
       3930.6514     0.045354928
       3931.5058     0.074791826
       3932.3603     0.047025455
       3933.2148     0.022970253
       3934.0692     0.030449620
       3934.9237     0.021136796
       3935.7782     0.029510529
       3936.6326     0.028430284
       3937.4871     0.071239170
       3938.3416      0.10530589
       3939.1960     0.052976972
       3940.0505     0.052361565
       3940.9050     0.050300316
       3941.7594   0.00097705208
       3942.6139     0.033458479
       3943.4684     0.076147663
       3944.3228     0.038559909
       3945.1773     0.086579148
       3946.0318     0.036276630
       3946.8862     0.034392832
       3947.7407     0.071042604
       3948.5952     0.021302124
       3949.4496     0.088653560
       3950.3041     0.031204700
       3951.1586    0.0069979172
       3952.0130   -0.0093353935
       3952.8675     0.039697483
       3953.7220     0.082087586
       3954.5764     0.043834559
       3955.4309     0.047956216
       3956.2854     0.069733993
       3957.1398     0.022821856
       3957.9943     0.016950904
       3958.8488     0.090754447
       3959.7032     0.027448197
       3960.5577     0.038216843
       3961.4122     0.030977666
       3962.2666    -0.065377861
       3963.1211     0.015126909
       3963.9756     0.073762470
       3964.8301     0.013200038
       3965.6845     0.042024636
       3966.5390     0.071474702
       3967.3935     0.032507124
       3968.2479     0.028327477
       3969.1024     0.028393553
       3969.9569     0.011847282
       3970.8113     0.028296984
       3971.6658     0.026686246
       3972.5203     0.016172277
       3973.3747     0.071205606
       3974.2292     0.040288421
       3975.0837     0.061583872
       3975.9381     0.076457087
       3976.7926     0.057382522
       3977.6471     0.088871242
       3978.5015     0.039580846
       3979.3560     0.063729259
       3980.2105     0.057025372
       3981.0649     0.029473524
       3981.9194     0.033800161
       3982.7739     0.037450471
       3983.6283     0.029161599
       3984.4828     0.050411336
       3985.3373     0.084558215
       3986.1917     0.096701101
       3987.0462     0.045565778
       3987.9007     0.079773998
       3988.7551     0.050097069
       3989.6096     0.092086066
       3990.4641     0.029917271
       3991.3185     0.033518243
       3992.1730     0.029666049
       3993.0275     0.044111243
       3993.8819     0.028325553
       3994.7364    0.0072629768
       3995.5909     0.053561533
       3996.4453     0.077228304
       3997.2998     0.042178231
       3998.1543     0.054437883
       3999.0088     0.064637230
       3999.8632     0.055978347
       4000.7177     0.028740502
       4001.5722   0.00060713515
       4002.4266     0.062160744
       4003.2811     0.049614117
       4004.1356     0.042312200
       4004.9900    0.0092225700
       4005.8445   -0.0077781299
       4006.6990     0.038603893
       4007.5534     0.049533350
       4008.4079     0.023088195
       4009.2624     0.022388903
       4010.1168     0.020060008
       4010.9713     0.047524881
       4011.8258     0.051473210
       4012.6802     0.031974685
       4013.5347     0.059670438
       4014.3892     0.099104284
       4015.2436      0.13206764
       4016.0981      0.11018280
       4016.9526     0.044874247
       4017.8070     0.034745727
       4018.6615     0.078072977
       4019.5160     0.045765881
       4020.3704     0.078768741
       4021.2249     0.053538976
       4022.0794     0.058327071
       4022.9338     0.078364819
       4023.7883     0.058357475
       4024.6428     0.065756644
       4025.4972     0.097931682
       4026.3517     0.079984651
       4027.2062     0.057800690
       4028.0606     0.090727186
       4028.9151     0.033375411
       4029.7696     0.035861878
       4030.6241     0.065637520
       4031.4785      0.13269277
       4032.3330      0.11296295
       4033.1875     0.086460015
       4034.0419     0.033455656
       4034.8964     0.037754794
       4035.7509     0.027940920
       4036.6053     0.052182833
       4037.4598     0.041391156
       4038.3143     0.019315584
       4039.1687     0.058343737
       4040.0232     0.026158506
       4040.8777     0.057206882
       4041.7321     0.075366775
       4042.5866    -0.018808812
       4043.4411  -0.00056937588
       4044.2955     0.016249721
       4045.1500     0.047446491
       4046.0045     0.069829570
       4046.8589     0.025258502
       4047.7134     0.056113906
       4048.5679     0.038261390
       4049.4223     0.041978339
       4050.2768     0.058168745
       4051.1313     0.054779306
       4051.9857     0.025565067
       4052.8402     0.065075946
       4053.6947     0.058396440
       4054.5491     0.033698397
       4055.4036     0.038217752
       4056.2581     0.042686356
       4057.1125     0.078885382
       4057.9670     0.070644116
       4058.8215     0.036328638
       4059.6759    0.0026451843
       4060.5304     0.042732426
       4061.3849     0.047832326
       4062.2393     0.032272829
       4063.0938     0.046358814
       4063.9483     0.022862242
       4064.8028     0.083960714
       4065.6572     0.089995015
       4066.5117     0.040770752
       4067.3662     0.044496611
       4068.2206     0.073332195
       4069.0751     0.053801675
       4069.9296     0.094158419
       4070.7840     0.085759381
       4071.6385     0.081345638
       4072.4930     0.058214044
       4073.3474     0.041858204
       4074.2019     0.055867600
       4075.0564     0.039839445
       4075.9108     0.027737899
       4076.7653     0.042183435
       4077.6198     0.030671852
       4078.4742     0.028932847
       4079.3287     0.036729850
       4080.1832     0.032322834
       4081.0376   -0.0098776520
       4081.8921    -0.010885622
       4082.7466     0.011717627
       4083.6010     0.019186412
       4084.4555     0.022433700
       4085.3100     0.039070563
       4086.1644     0.096034163
       4087.0189     0.052339990
       4087.8734     0.055229932
       4088.7278     0.091719802
       4089.5823     0.090727391
       4090.4368     0.042147049
       4091.2912     0.019904833
       4092.1457     0.065742629
       4093.0002     0.048742917
       4093.8546     0.029111065
       4094.7091     0.024750627
       4095.5636     0.083731210
       4096.4180     0.055139283
       4097.2725    -0.012784160
       4098.1270   -0.0054045187
       4098.9815     0.025086763
       4099.8359     0.079810754
       4100.6904     0.091226534
       4101.5449     0.047218026
       4102.3993     0.024257840
       4103.2538     0.059231454
       4104.1083     0.037693393
       4104.9627    0.0014632889
       4105.8172     0.018299509
       4106.6717     0.030332038
       4107.5261     0.074495855
       4108.3806     0.063101516
       4109.2351     0.038698477
       4110.0895     0.027494242
       4110.9440     0.048753581
       4111.7985     0.025553455
       4112.6529    -0.016347292
       4113.5074     0.058937049
       4114.3619     0.088635774
       4115.2163      0.10085668
       4116.0708      0.10681549
       4116.9253     0.044820042
       4117.7797     0.025959435
       4118.6342     0.033976611
       4119.4887     0.069399410
       4120.3431     0.078151759
       4121.1976     0.054139296
       4122.0521     0.036544773
       4122.9065     0.013584723
       4123.7610     0.049670137
       4124.6155     0.084931959
       4125.4699     0.045316606
       4126.3244     0.072933617
       4127.1789     0.070252796
       4128.0333     0.025429519
       4128.8878     0.030707661
       4129.7423     0.043186550
       4130.5968     0.063447060
       4131.4512     0.054279403
       4132.3057     0.094884101
       4133.1602     0.097309186
       4134.0146     0.098551296
       4134.8691     0.070524125
       4135.7236     0.027392745
       4136.5780     0.074733694
       4137.4325      0.11272386
       4138.2870      0.13014121
       4139.1414     0.096740420
       4139.9959     0.061163175
       4140.8504     0.065964698
       4141.7048     0.028129028
       4142.5593     0.034269772
       4143.4138     0.090322619
       4144.2682     0.074059312
       4145.1227     0.090954589
       4145.9772     0.030987332
       4146.8316   -0.0074457298
       4147.6861     0.051498758
       4148.5406      0.10328209
       4149.3950     0.079735086
       4150.2495     0.082488733
       4151.1040     0.073261778
       4151.9584     0.054918247
       4152.8129     0.053760352
       4153.6674     0.059759171
       4154.5218     0.018755363
       4155.3763     0.048773555
       4156.2308    0.0015626173
       4157.0852     0.030550750
       4157.9397     0.061810102
       4158.7942     0.029900129
       4159.6486     0.054640196
       4160.5031     0.020935404
       4161.3576     0.050123666
       4162.2120     0.092252109
       4163.0665     0.074196428
       4163.9210     0.081674078
       4164.7755     0.026285610
       4165.6299     0.025788303
       4166.4844     0.067473597
       4167.3389     0.070087528
       4168.1933     0.032890733
       4169.0478     0.068400262
       4169.9023     0.046619674
       4170.7567    0.0090385742
       4171.6112     0.027972899
       4172.4657     0.064597611
       4173.3201     0.027381136
       4174.1746     0.022747844
       4175.0291     0.022441852
       4175.8835     0.044757094
       4176.7380     0.091840387
       4177.5925     0.073304843
       4178.4469     0.065362601
       4179.3014     0.065959344
       4180.1559     0.059979133
       4181.0103     0.056992843
       4181.8648      0.10733506
       4182.7193     0.062140855
       4183.5737     0.022981492
       4184.4282     0.058098395
       4185.2827     0.040895975
       4186.1371     0.064459133
       4186.9916     0.021773587
       4187.8461    -0.017785957
       4188.7005   -0.0017761684
       4189.5550     0.028639259
       4190.4095     0.022905434
       4191.2639     0.022337264
       4192.1184    -0.033325330
       4192.9729    0.0010776954
       4193.8273     0.039088796
       4194.6818     0.070941365
       4195.5363      0.10131874
       4196.3907      0.11292418
       4197.2452     0.075525246
       4198.0997     0.047710282
       4198.9542     0.040114004
       4199.8086     0.041003731
       4200.6631     0.034236636
       4201.5176     0.026679037
       4202.3720     0.085939876
       4203.2265     0.068156559
       4204.0810     0.057604663
       4204.9354   0.00078073009
       4205.7899     0.061180932
       4206.6444     0.065320763
       4207.4988     0.026570887
       4208.3533     0.034787600
       4209.2078     0.026940860
       4210.0622     0.053280841
       4210.9167     0.050422776
       4211.7712     0.041737799
       4212.6256     0.068829039
       4213.4801     0.061109119
       4214.3346     0.071273750
       4215.1890     0.045927334
       4216.0435    0.0072469714
       4216.8980   0.00075420904
       4217.7524     0.051283649
       4218.6069    0.0016097058
       4219.4614    -0.010823975
       4220.3158   -0.0018654505
       4221.1703     0.025250920
       4222.0248     0.045215910
       4222.8792     0.072594290
       4223.7337     0.019996464
       4224.5882     0.054722230
       4225.4426     0.067236907
       4226.2971     0.046354377
       4227.1516     0.055471044
       4228.0060     0.049953797
       4228.8605     0.063320720
       4229.7150     0.068824626
       4230.5694     0.043608231
       4231.4239     0.040843856
       4232.2784     0.061287695
       4233.1329     0.032098743
       4233.9873     0.089094129
       4234.8418     0.078748228
       4235.6963     0.043848885
       4236.5507     0.029684556
       4237.4052     0.022868832
       4238.2597    0.0087247862
       4239.1141     0.014828568
       4239.9686     0.047001213
       4240.8231     0.021912222
       4241.6775   -0.0071271192
       4242.5320     0.041812630
       4243.3865     0.038890308
       4244.2409     0.068420415
       4245.0954     0.059604801
       4245.9499     0.045740689
       4246.8043     0.048201954
       4247.6588     0.049819089
       4248.5133     0.010366975
       4249.3677     0.075197896
       4250.2222     0.043035891
       4251.0767     0.025014052
       4251.9311     0.055616477
       4252.7856     0.015772451
       4253.6401     0.052295350
       4254.4945     0.041703427
       4255.3490    0.0090357412
       4256.2035     0.025207483
       4257.0579     0.016994967
       4257.9124    0.0096154631
       4258.7669     0.034829758
       4259.6213     0.052438325
       4260.4758     0.074665330
       4261.3303     0.068949644
       4262.1847     0.033259984
       4263.0392     0.057327845
       4263.8937      0.10495833
       4264.7482     0.048244343
       4265.6026     0.035042699
       4266.4571     0.098526072
       4267.3116     0.092876426
       4268.1660     0.067545069
       4269.0205     0.037041186
       4269.8750     0.050751794
       4270.7294     0.042885210
       4271.5839     0.051667343
       4272.4384     0.084492573
       4273.2928      0.10410133
       4274.1473     0.084305137
       4275.0018     0.044676068
       4275.8562     0.037353570
       4276.7107     0.028260675
       4277.5652    0.0081692470
       4278.4196     0.019971410
       4279.2741     0.021532395
       4280.1286     0.052417282
       4280.9830     0.072496060
       4281.8375     0.065617534
       4282.6920     0.052755089
       4283.5464     0.063574550
       4284.4009     0.078135990
       4285.2554     0.023298032
       4286.1098     0.033168750
       4286.9643     0.065060439
       4287.8188     0.026857543
       4288.6732     0.054031294
       4289.5277     0.070043643
       4290.3822     0.055418218
       4291.2366     0.022058494
       4292.0911   -0.0033999665
       4292.9456    -0.023996523
       4293.8000     0.013628843
       4294.6545    -0.012550106
       4295.5090     0.012634572
       4296.3634     0.069435547
       4297.2179      0.12541426
       4298.0724     0.052291746
       4298.9269     0.025882625
       4299.7813     0.056887136
       4300.6358     0.077805972
       4301.4903     0.091601667
       4302.3447     0.063779723
       4303.1992     0.066881436
       4304.0537     0.048339495
       4304.9081      0.10536275
       4305.7626    0.0078505720
       4306.6171     0.048011236
       4307.4715    -0.014483789
       4308.3260     0.038601484
       4309.1805     0.075477190
       4310.0349     0.063799460
       4310.8894      0.11470482
       4311.7439     0.099395799
       4312.5983     0.051227459
       4313.4528    -0.012846088
       4314.3073     0.054365798
       4315.1617     0.092339128
       4316.0162     0.041975300
       4316.8707     0.050158394
       4317.7251     0.048487570
       4318.5796     0.064380885
       4319.4341     0.052272602
       4320.2885     0.076499101
       4321.1430     0.082417732
       4321.9975    0.0046787290
       4322.8519    0.0072996094
       4323.7064     0.092172453
       4324.5609     0.090572533
       4325.4153     0.058026926
       4326.2698     0.096500433
       4327.1243     0.039551455
       4327.9787     0.065972079
       4328.8332      0.10276420
       4329.6877      0.13004865
       4330.5421     0.071299345
       4331.3966     0.023084901
       4332.2511     0.020874946
       4333.1056     0.010180858
       4333.9600     0.074678919
       4334.8145     0.058640841
       4335.6690     0.081867000
       4336.5234    0.0016233767
       4337.3779     0.015859068
       4338.2324     0.089102805
       4339.0868     0.050041097
       4339.9413     0.090672780
       4340.7958     0.047801691
       4341.6502     0.060585336
       4342.5047     0.061939319
       4343.3592     0.074239182
       4344.2136     0.054196211
       4345.0681     0.065540786
       4345.9226     0.058652931
       4346.7770     0.082752114
       4347.6315     0.093898292
       4348.4860     0.045656243
       4349.3404     0.039875745
       4350.1949   -0.0047712226
       4351.0494     0.037240250
       4351.9038     0.094232442
       4352.7583     0.094288695
       4353.6128     0.074798464
       4354.4672     0.016174039
       4355.3217    -0.014275974
       4356.1762     0.056530583
       4357.0306     0.098549394
       4357.8851     0.042460386
       4358.7396     0.045348148
       4359.5940     0.046991894
       4360.4485     0.080773212
       4361.3030     0.047149003
       4362.1574     0.088881743
       4363.0119     0.074335105
       4363.8664     0.024760707
       4364.7209   0.00030978636
       4365.5753     0.012001423
       4366.4298     0.011116514
       4367.2843     0.061295327
       4368.1387     0.051432752
       4368.9932     0.022179490
       4369.8477     0.067356148
       4370.7021     0.055507832
       4371.5566   -0.0043469571
       4372.4111     0.031441132
       4373.2655     0.071354143
       4374.1200     0.039668380
       4374.9745    0.0032216502
       4375.8289   0.00028279233
       4376.6834    0.0074963921
       4377.5379     0.054260922
       4378.3923     0.051151333
       4379.2468     0.059725381
       4380.1013   -0.0045128369
       4380.9557     0.062286185
       4381.8102     0.058255835
       4382.6647     0.063142835
       4383.5191     0.080410080
       4384.3736     0.040896325
       4385.2281   -0.0097476453
       4386.0825     0.017772801
       4386.9370     0.037822739
       4387.7915     0.054068236
       4388.6459     0.038528949
       4389.5004     0.078176789
       4390.3549     0.076929092
       4391.2093     0.017556184
       4392.0638     0.034850580
       4392.9183     0.061291562
       4393.7727     0.049031257
       4394.6272     0.088995033
       4395.4817    -0.024437561
       4396.3361     0.028276100
       4397.1906      0.10362863
       4398.0451     0.054670276
       4398.8996     0.023394365
       4399.7540     0.060646673
       4400.6085     0.011145471
       4401.4630     0.048685808
       4402.3174     0.028581029
       4403.1719     0.036604319
       4404.0264     0.070045258
       4404.8808     0.046162100
       4405.7353     0.023069426
       4406.5898     0.097997231
       4407.4442      0.14071338
       4408.2987     0.090119267
       4409.1532     0.045007938
       4410.0076     0.095309398
       4410.8621   -0.0055653267
       4411.7166     0.012121224
       4412.5710     0.089240867
       4413.4255     0.021704436
       4414.2800    -0.017810251
       4415.1344    -0.013607059
       4415.9889      0.10587501
       4416.8434      0.15121802
       4417.6978      0.15285601
       4418.5523    0.0050195392
       4419.4068     0.095561063
       4420.2612     0.035260323
       4421.1157     0.026383091
       4421.9702     0.063195060
       4422.8246     0.054002555
       4423.6791     0.056644399
       4424.5336      0.12567950
       4425.3880      0.11534806
       4426.2425     0.047475385
       4427.0970     0.076865685
       4427.9514     0.029470756
       4428.8059     0.079956280
       4429.6604     0.045171450
       4430.5148     0.041659666
       4431.3693     0.062958387
       4432.2238     0.090185409
       4433.0783     0.080839942
       4433.9327     0.073870449
       4434.7872     0.083631925
       4435.6417     0.025314996
       4436.4961    0.0081042593
       4437.3506    0.0057220064
       4438.2051     0.015209275
       4439.0595     0.022292618
       4439.9140     0.022822877
       4440.7685     0.012675263
       4441.6229     0.012423740
       4442.4774     0.087606391
       4443.3319     0.051685822
       4444.1863     0.025493021
       4445.0408   -0.0082549902
       4445.8953     0.013896432
       4446.7497     0.041046070
       4447.6042     0.051642037
       4448.4587     0.021402090
       4449.3131     0.037117819
       4450.1676     0.061963358
       4451.0221   -0.0042953599
       4451.8765    -0.017385220
       4452.7310    -0.015792563
       4453.5855    0.0085819137
       4454.4399     0.047245831
       4455.2944     0.090999854
       4456.1489    -0.013820027
       4457.0033     -0.21934584
       4457.8578     -0.20419463
       4458.7123    -0.058447373
       4459.5667     0.032297874
       4460.4212     0.010554542
       4461.2757     0.040257543
       4462.1301     0.075034415
       4462.9846     0.086550180
       4463.8391     0.035953034
       4464.6936    -0.017055622
       4465.5480     0.014094454
       4466.4025    0.0062428367
       4467.2570   -0.0053931983
       4468.1114     0.045503159
       4468.9659     0.021032024
       4469.8204    -0.014869746
       4470.6748     0.014292686
       4471.5293   -0.0013909663
       4472.3838    0.0013058215
       4473.2382     0.093910096
       4474.0927     0.070390538
       4474.9472     0.035289474
       4475.8016     0.028388879
       4476.6561     0.021902649
       4477.5106     0.036432152
       4478.3650     0.056789732
       4479.2195     0.030808419
       4480.0740   -0.0055226173
       4480.9284    0.0073225770
       4481.7829     0.055271859
       4482.6374     0.074877863
       4483.4918      0.11615752
       4484.3463     0.033151614
       4485.2008    0.0077164901
       4486.0552     0.040678983
       4486.9097     0.087473844
       4487.7642     0.093455458
       4488.6186     0.034507856
       4489.4731     0.032328381
       4490.3276    -0.036470343
       4491.1820    -0.026583253
       4492.0365    -0.017389302
       4492.8910     0.045721461
       4493.7454     0.040867053
       4494.5999     0.015308388
       4495.4544     0.054353032
       4496.3088     0.054470568
       4497.1633     0.063188984
       4498.0178     0.054193641
       4498.8723    -0.023331018
       4499.7267     0.015938697
       4500.5812    -0.018273623
       4501.4357   -0.0043885564
       4502.2901     0.097293127
       4503.1446     0.074733298
       4503.9991     0.048363913
       4504.8535     0.068476219
       4505.7080     0.055580448
       4506.5625     0.074060151
       4507.4169   -0.0044970907
       4508.2714   -0.0024528739
       4509.1259     0.031677222
       4509.9803     0.023866230
       4510.8348     0.033408002
       4511.6893      0.11226905
       4512.5437     0.097236084
       4513.3982     0.069162742
       4514.2527     0.049986465
       4515.1071    -0.028288457
       4515.9616    0.0066980506
       4516.8161   -0.0085137784
       4517.6705   -0.0052966521
       4518.5250     0.020308628
       4519.3795    0.0077994743
       4520.2339    -0.033933043
       4521.0884    -0.016582550
       4521.9429     0.028848228
       4522.7973     0.069363867
       4523.6518     0.047021213
       4524.5063     0.034503257
       4525.3607     0.036429350
       4526.2152     0.063010951
       4527.0697     0.037123553
       4527.9241     0.056667639
       4528.7786    0.0076881501
       4529.6331     0.019408970
       4530.4875   -0.0086981073
       4531.3420    0.0052053210
       4532.1965    0.0049631684
       4533.0510     0.021871838
       4533.9054     0.034041860
       4534.7599    -0.016613760
       4535.6144     0.035949508
       4536.4688     0.017642053
       4537.3233   -0.0041616819
       4538.1778     0.024492724
       4539.0322    -0.054719252
       4539.8867    -0.053326204
       4540.7412     0.068690611
       4541.5956     0.034424973
       4542.4501    -0.035767574
       4543.3046    -0.033790429
       4544.1590    -0.022640206
       4545.0135    0.0046725725
       4545.8680     0.039808016
       4546.7224     0.026413974
       4547.5769    0.0078958607
       4548.4314     0.052251379
       4549.2858     0.079321193
       4550.1403    0.0094129879
       4550.9948    -0.033622517
       4551.8492    -0.044747279
       4552.7037    -0.030479955
       4553.5582     0.079953994
       4554.4126     0.026763605
       4555.2671    -0.034045161
       4556.1216    0.0020389726
       4556.9760     0.056930215
       4557.8305     0.023779807
       4558.6850     0.020287000
       4559.5394    0.0044325861
       4560.3939   -0.0046737546
       4561.2484    -0.026872815
       4562.1028    0.0057712382
       4562.9573     0.024609305
       4563.8118    -0.014811328
       4564.6663    -0.084824169
       4565.5207  -0.00036950964
       4566.3752     0.014485514
       4567.2297     0.021651127
       4568.0841     0.087231174
       4568.9386     0.034919592
       4569.7931    0.0070056673
       4570.6475     0.081002672
       4571.5020     0.070764856
       4572.3565     0.022328414
       4573.2109    -0.028501007
       4574.0654     0.029299674
       4574.9199    -0.035930056
       4575.7743     0.067900189
       4576.6288     0.024291794
       4577.4833    -0.064222237
       4578.3377    -0.049472835
       4579.1922    -0.018616172
       4580.0467     0.056071347
       4580.9011     0.044766452
       4581.7556     0.066670207
       4582.6101     0.084137274
       4583.4645     0.055581233
       4584.3190    -0.087512263
       4585.1735    -0.063121055
       4586.0279      0.11449722
       4586.8824      0.12612356
       4587.7369    -0.050115197
       4588.5913    -0.016615696
       4589.4458      0.12343389
       4590.3003    0.0079611577
       4591.1547     -0.11032958
       4592.0092    0.0012811077
       4592.8637     0.095697899
       4593.7181      0.13504122
       4594.5726    -0.031688573
       4595.4271    -0.032581606
       4596.2815     0.014028111
       4597.1360      0.14173124
       4597.9905      0.20866279
       4598.8450     0.094743466
       4599.6994     0.054406466
       4705.2562      0.29850477
       4706.2076      0.21831726
       4707.1590      0.34566134
       4708.1104      0.32911625
       4709.0618      0.20613247
       4710.0132      0.15259522
       4710.9646      0.29254608
       4711.9160      0.27298644
       4712.8674      0.43890008
       4713.8188      0.24659960
       4714.7702      0.18130017
       4715.7216      0.30129890
       4716.6730      0.31470259
       4717.6244      0.28347887
       4718.5758      0.35388571
       4719.5272      0.22894853
       4720.4786      0.36739087
       4721.4300      0.36824399
       4722.3813      0.29023162
       4723.3327      0.45736820
       4724.2841      0.57324503
       4725.2355      0.41263485
       4726.1869      0.46513620
       4727.1383      0.39206760
       4728.0897      0.31633064
       4729.0411      0.37033851
       4729.9925      0.19782752
       4730.9439      0.32657753
       4731.8953      0.21659408
       4732.8467      0.26330999
       4733.7981     0.094566318
       4734.7495      0.24840125
       4735.7009     0.036724398
       4736.6523      0.17772801
       4737.6037      0.21240344
       4738.5551     0.089555852
       4739.5065      0.26675819
       4740.4579      0.21147820
       4741.4093      0.12563811
       4742.3607      0.25630090
       4743.3121      0.16741834
       4744.2635      0.26535580
       4745.2149      0.19106954
       4746.1663      0.38354669
       4747.1177      0.29528265
       4748.0691     0.083055032
       4749.0205      0.11523494
       4749.9719      0.21313002
       4750.9233      0.15010157
       4751.8747      0.14332303
       4752.8261     0.076817175
       4753.7775      0.12126085
       4754.7289     0.096309334
       4755.6803      0.18698220
       4756.6317      0.22820732
       4757.5831      0.14402984
       4758.5345      0.16163048
       4759.4858      0.21045720
       4760.4372      0.11904241
       4761.3886      0.12388953
       4762.3400      0.19489128
       4763.2914      0.22779267
       4764.2428      0.20209720
       4765.1942      0.11369894
       4766.1456      0.25940232
       4767.0970    -0.014490072
       4768.0484     0.051739773
       4768.9998     0.080064525
       4769.9512     0.055813836
       4770.9026      0.20984606
       4771.8540      0.17893800
       4772.8054      0.22771662
       4773.7568    -0.090361424
       4774.7082      0.31936538
       4775.6596      0.46577854
       4776.6110      0.12840107
       4777.5624      0.17688993
       4778.5138     0.063182104
       4779.4652      0.28509836
       4780.4166      0.22373861
       4781.3680      0.10985971
       4782.3194      0.22227317
       4783.2708      0.23077407
       4784.2222     0.015816780
       4785.1736      0.19650278
       4786.1250      0.18725740
       4787.0764     0.070566706
       4788.0278      0.13862313
       4788.9792      0.23536231
       4789.9306      0.19473488
       4790.8820      0.27861950
       4791.8334      0.35248891
       4792.7848     0.076486848
       4793.7362      0.23403909
       4794.6876      0.33656957
       4795.6389      0.11833629
       4796.5903      0.15960496
       4797.5417      0.23687366
       4798.4931     0.099695418
       4799.4445      0.22654117
       4800.3959     0.064393036
       4801.3473      0.30504793
       4802.2987      0.21930180
       4803.2501      0.24403468
       4804.2015     0.034510703
       4805.1529      0.15391335
       4806.1043      0.17846611
       4807.0557      0.13431828
       4808.0071      0.20123112
       4808.9585    -0.025309702
       4809.9099      0.25416552
       4810.8613      0.14821697
       4811.8127      0.35405799
       4812.7641      0.10810774
       4813.7155      0.19003297
       4814.6669      0.26984957
       4815.6183      0.14124267
       4816.5697     0.088061810
       4817.5211      0.22078487
       4818.4725      0.24303199
       4819.4239      0.12976941
       4820.3753     0.076457302
       4821.3267      0.21402166
       4822.2781      0.18283382
       4823.2295      0.23674758
       4824.1809    -0.049848659
       4825.1323      0.23115732
       4826.0837      0.24972648
       4827.0351     0.072207995
       4827.9865      0.10666865
       4828.9379      0.29748401
       4829.8893     0.091207464
       4830.8407      0.16159867
       4831.7920      0.24303118
       4832.7434      0.10889007
       4833.6948      0.11116127
       4834.6462      0.29728524
       4835.5976      0.26021400
       4836.5490      0.28257962
       4837.5004      0.17165741
       4838.4518      0.18042076
       4839.4032    -0.017537237
       4840.3546  -0.00096119782
       4841.3060     0.020542542
       4842.2574     0.074702178
       4843.2088      0.24515623
       4844.1602      0.35841715
       4845.1116      0.20832183
       4846.0630      0.24743145
       4847.0144      0.30710961
       4847.9658     0.021719136
       4848.9172      0.21081027
       4849.8686      0.17685499
       4850.8200      0.18061171
       4851.7714     0.072106595
       4852.7228      0.12110721
       4853.6742      0.32308024
       4854.6256      0.29023296
       4855.5770      0.13478273
       4856.5284      0.19565666
       4857.4798      0.32980330
       4858.4312      0.40141565
       4859.3826      0.14976221
       4860.3340      0.27072869
       4861.2854     0.072983569
       4862.2368      0.27766144
       4863.1882      0.29266654
       4864.1396      0.15905195
       4865.0910      0.36892986
       4866.0424      0.34205849
       4866.9938      0.35309608
       4867.9452      0.19550398
       4868.8965    -0.038937217
       4869.8479      0.17903870
       4870.7993     0.096372006
       4871.7507      0.18577243
       4872.7021     0.015688619
       4873.6535      0.44172763
       4874.6049      0.33735382
       4875.5563      0.29116445
       4876.5077     0.085941378
       4877.4591      0.20463707
       4878.4105      0.37188764
       4879.3619      0.20310360
       4880.3133    -0.022087476
       4881.2647      0.37925171
       4882.2161      0.10153451
       4883.1675      0.29697911
       4884.1189      0.21472656
       4885.0703      0.18669377
       4886.0217     0.097573157
       4886.9731      0.13939381
       4887.9245    -0.048847104
       4888.8759     0.088048955
       4889.8273      0.17472776
       4890.7787      0.48776332
       4891.7301      0.41593701
       4892.6815      0.13588945
       4893.6329      0.28800655
       4894.5843      0.27761054
       4895.5357      0.22301433
       4896.4871      0.31213814
       4897.4385      0.26492743
       4898.3899      0.24609853
       4899.3413      0.21006946
       4900.2927      0.10052595
       4901.2441      0.10676084
       4902.1955      0.15493642
       4903.1469      0.34150672
       4904.0983      0.17687713
       4905.0496      0.19758623
       4906.0010     0.052757577
       4906.9524      0.28101949
       4907.9038      0.18107637
       4908.8552      0.35511424
       4909.8066      0.16489953
       4910.7580      0.28385933
       4911.7094      0.15329235
       4912.6608      0.14486195
       4913.6122      0.28634905
       4914.5636      0.15977281
       4915.5150      0.40879751
       4916.4664     0.023408761
       4917.4178      0.16476273
       4918.3692      0.16118852
       4919.3206      0.39631584
       4920.2720      0.10081215
       4921.2234      0.34555278
       4922.1748     0.097424071
       4923.1262     0.036450857
       4924.0776      0.22366990
       4925.0290    0.0054595013
       4925.9804      0.20432785
       4926.9318     0.057205699
       4927.8832      0.23836423
       4928.8346      0.27811140
       4929.7860      0.32109234
       4930.7374      0.12955855
       4931.6888      0.28212849
       4932.6402      0.29853451
       4933.5916      0.28299005
       4934.5430      0.22508555
       4935.4944     0.095481378
       4936.4458      0.30591804
       4937.3972      0.22221643
       4938.3486      0.21663427
       4939.3000      0.18969392
       4940.2514      0.10103157
       4941.2028     0.095397353
       4942.1541      0.38335188
       4943.1055      0.19014444
       4944.0569      0.11368458
       4945.0083      0.43025559
       4945.9597     0.095038508
       4946.9111     -0.22459130
       4947.8625     -0.35362165
       4948.8139     -0.12993640
       4949.7653     0.062977943
       4950.7167      0.16579920
       4951.6681     0.079305393
       4952.6195      0.11983968
       4953.5709      0.34519102
       4954.5223     0.096695987
       4955.4737      0.13121828
       4956.4251     0.011052590
       4957.3765      0.39186289
       4958.3279      0.18732948
       4959.2793      0.10764630
       4960.2307      0.35344740
       4961.1821      0.25154786
       4962.1335      0.22205359
       4963.0849     0.076747849
       4964.0363      0.23097276
       4964.9877      0.33155613
       4965.9391     0.091670449
       4966.8905      0.39462841
       4967.8419      0.32831996
       4968.7933      0.21211812
       4969.7447      0.18537514
       4970.6961      0.15814493
       4971.6475      0.20907406
       4972.5989      0.11654703
       4973.5503      0.31335652
       4974.5017      0.39732154
       4975.4531      0.13940558
       4976.4045      0.17337351
       4977.3559      0.32096654
       4978.3072     0.052055810
       4979.2586     0.087597778
       4980.2100      0.38167662
       4981.1614      0.32399533
       4982.1128      0.19239649
       4983.0642      0.15232318
       4984.0156      0.28409838
       4984.9670      0.25919110
       4985.9184      0.15655679
       4986.8698      0.36264972
       4987.8212      0.28287245
       4988.7726      0.29669990
       4989.7240      0.55389237
       4990.6754      0.21323891
       4991.6268     0.065282097
       4992.5782     0.096625041
       4993.5296      0.24233438
       4994.4810     -0.11761379
       4995.4324      0.24470901
       4996.3838     0.067859986
       4997.3352      0.26715950
       4998.2866      0.33413818
       4999.2380    -0.061650215
       5000.1894      0.42383918
       5001.1408      0.12081761
       5002.0922      0.12313873
       5003.0436     0.083232360
       5003.9950      0.28750805
       5004.9464    -0.034428240
       5005.8978     0.067040986
       5006.8492      0.19958018
       5007.8006      0.29354071
       5008.7520      0.42932992
       5009.7034      0.24742295
       5010.6548     0.046115832
       5011.6062      0.16839652
       5012.5576      0.18015499
       5013.5090     0.088944944
       5014.4603      0.30214575
       5015.4117      0.21771475
       5016.3631     0.080792420
       5017.3145      0.13389207
       5018.2659     0.047138380
       5019.2173      0.30462091
       5020.1687      0.17170144
       5021.1201      0.26723049
       5022.0715      0.10899569
       5023.0229      0.34889914
       5023.9743    -0.017463076
       5024.9257      0.14024904
       5025.8771     0.071772072
       5026.8285      0.34895987
       5027.7799      0.21310835
       5028.7313      0.22372147
       5029.6827      0.29191891
       5030.6341      0.36832818
       5031.5855     0.020029473
       5032.5369      0.20557381
       5033.4883      0.19305155
       5034.4397      0.18656574
       5035.3911      0.10924384
       5036.3425      0.29835109
       5037.2939     0.031996644
       5038.2453      0.25624232
       5039.1967      0.11825802
       5040.1481      0.23669391
       5041.0995      0.34286440
       5042.0509     0.058775861
       5043.0023      0.11819338
       5043.9537      0.45242723
       5044.9051      0.12944834
       5045.8565      0.25881601
       5046.8079      0.25943987
       5047.7593      0.39280528
       5048.7107      0.35022198
       5049.6621      0.73916672
       5050.6135      0.13680994
       5051.5648      0.56943824
       5052.5162      0.37852537
       5053.4676      0.38877459
       5054.4190      0.26781825
       5055.3704      0.16275460
       5056.3218     0.095172231
       5057.2732      0.32679796
       5058.2246      0.32412107
       5059.1760      0.17543847
       5060.1274      0.23873923
       5061.0788      0.26980529
       5062.0302      0.11388420
       5062.9816      0.13540988
       5063.9330    -0.052964621
       5064.8844      0.20891092
       5065.8358      0.13321301
       5066.7872      0.27250861
       5067.7386      0.39175952
       5068.6900      0.14976462
       5069.6414      0.24074191
       5070.5928     0.091890056
       5071.5442      0.39122257
       5072.4956      0.50470186
       5073.4470     0.079922680
       5074.3984      0.22983943
       5075.3498      0.27832219
       5076.3012      0.28797222
       5077.2526      0.17796963
       5078.2040      0.35437970
       5079.1554      0.24954456
       5080.1068      0.14383180
       5081.0582      0.26238902
       5082.0096      0.37844056
       5082.9610      0.28238887
       5083.9124      0.36900702
       5084.8638      0.42687740
       5085.8152      0.24952937
       5086.7666      0.47058792
       5087.7179      0.33547640
       5088.6693      0.23739643
       5089.6207      0.13535823
       5090.5721      0.10631866
       5091.5235    -0.077117009
       5092.4749     0.093667247
       5093.4263      0.19119831
       5094.3777      0.18730587
       5095.3291      0.20562021
       5096.2805      0.16599013
       5097.2319      0.16237264
       5098.1833      0.22541361
       5099.1347      0.32711309
       5100.0861      0.25996300
       5101.0375      0.47443935
       5101.9889      0.27397787
       5102.9403      0.14990975
       5103.8917      0.25024443
       5104.8431      0.17930514
       5105.7945      0.10144180
       5106.7459     0.092109899
       5107.6973    -0.091647466
       5108.6487      0.20996188
       5109.6001      0.42674101
       5110.5515      0.24056264
       5111.5029     0.084150284
       5112.4543      0.27612464
       5113.4057      0.20990436
       5114.3571      0.23738997
       5115.3085      0.27679042
       5116.2599      0.14997728
       5117.2113     0.017104889
       5118.1627      0.14381608
       5119.1141      0.22437152
       5120.0655      0.14450147
       5121.0169      0.15558010
       5121.9683      0.32920225
       5122.9197      0.18223216
       5123.8710      0.16123822
       5124.8224      0.24787157
       5125.7738      0.29594027
       5126.7252     0.057963834
       5127.6766      0.27260442
       5128.6280     0.099838658
       5129.5794      0.20775513
       5130.5308      0.22026963
       5131.4822      0.27077527
       5132.4336   -0.0061880473
       5133.3850      0.31830933
       5134.3364      0.25295196
       5135.2878      0.23948430
       5136.2392     0.087952143
       5137.1906      0.34394074
       5138.1420      0.25327980
       5139.0934      0.22955544
       5140.0448      0.16795975
       5140.9962      0.25842587
       5141.9476      0.22150821
       5142.8990      0.23339161
       5143.8504     0.031946919
       5144.8018     0.075421515
       5145.7532      0.16883806
       5146.7046      0.18014929
       5147.6560      0.19393811
       5148.6074      0.38168432
       5149.5588      0.35099190
       5150.5102      0.24903392
       5151.4616      0.27872375
       5152.4130      0.25594558
       5153.3644      0.11591697
       5154.3158      0.28756108
       5155.2672      0.21616800
       5156.2186     0.061831604
       5157.1700      0.19319022
       5158.1214      0.34647170
       5159.0728      0.47434222
       5160.0242      0.29560655
       5160.9755      0.29671653
       5161.9269      0.29358656
       5162.8783      0.36188936
       5163.8297     0.082193214
       5164.7811      0.29903396
       5165.7325      0.23806508
       5166.6839      0.22974592
       5167.6353      0.39290250
       5168.5867      0.22841430
       5169.5381      0.16792342
       5170.4895      0.39789768
       5171.4409      0.12648473
       5172.3923      0.19800147
       5173.3437      0.12672483
       5174.2951      0.34131130
       5175.2465      0.24733063
       5176.1979      0.34942847
       5177.1493      0.31710262
       5178.1007      0.19512233
       5179.0521     0.048522632
       5180.0035      0.34270293
       5180.9549      0.23005524
       5181.9063      0.23813591
       5182.8577      0.23129971
       5183.8091      0.37209990
       5184.7605      0.23375173
       5185.7119      0.17631380
       5186.6633      0.33143748
       5187.6147      0.42165940
       5188.5661     0.024247458
       5189.5175      0.28992925
       5190.4689      0.24825172
       5191.4203      0.41206692
       5192.3717      0.28797971
       5193.3231      0.24845058
       5194.2745     0.080125286
       5195.2259      0.21156594
       5196.1773     0.064830804
       5197.1286      0.12218168
       5198.0800      0.33269301
       5199.0314      0.16914440
       5199.9828     0.079914136
       5200.9342      0.24489699
       5201.8856     0.084503762
       5202.8370     0.027795986
       5203.7884      0.15648778
       5204.7398      0.22330060
       5205.6912      0.23596002
       5206.6426     0.098478381
       5207.5940      0.28654516
       5208.5454      0.28490651
       5209.4968      0.31605536
       5210.4482      0.32920391
       5211.3996      0.18682744
       5212.3510      0.21672304
       5213.3024      0.18293816
       5214.2538      0.11758938
       5215.2052      0.22005432
       5216.1566      0.14682477
       5217.1080      0.26271594
       5218.0594     0.096243045
       5219.0108      0.38350006
       5219.9622      0.31054556
       5220.9136      0.21328069
       5221.8650      0.15025289
       5222.8164      0.14898087
       5223.7678      0.13912987
       5224.7192      0.54412176
       5225.6706      0.12725644
       5226.6220      0.13759254
       5227.5734      0.18858463
       5228.5248      0.27793396
       5229.4762      0.18966993
       5230.4276      0.29453928
       5231.3790      0.33117563
       5232.3304      0.34046025
       5233.2818      0.34514672
       5234.2331      0.27629070
       5235.1845      0.12963021
       5236.1359      0.13150995
       5237.0873      0.15592367
       5238.0387      0.16470383
       5238.9901      0.10948078
       5239.9415      0.14352359
       5240.8929      0.18113662
       5241.8443      0.16840498
       5242.7957      0.13283619
       5243.7471      0.28708971
       5244.6985      0.24728569
       5245.6499      0.33292134
       5246.6013      0.30115894
       5247.5527      0.18781725
       5248.5041      0.31287486
       5249.4555     0.098480552
       5250.4069      0.29836216
       5251.3583      0.31828841
       5252.3097      0.40400112
       5253.2611      0.22673190
       5254.2125      0.17785081
       5255.1639      0.29036953
       5256.1153      0.21878178
       5257.0667      0.22151698
       5258.0181      0.20005377
       5258.9695     0.053634848
       5259.9209      0.25824720
       5260.8723      0.14866056
       5261.8237      0.27702298
       5262.7751      0.17741030
       5263.7265      0.32656530
       5264.6779      0.13698638
       5265.6293      0.15405528
       5266.5807      0.31845463
       5267.5321     0.077708647
       5268.4835      0.15020163
       5269.4349      0.23419256
       5270.3862      0.31053372
       5271.3376      0.12546758
       5272.2890      0.17385162
       5273.2404      0.20559156
       5274.1918      0.13527426
       5275.1432      0.24190810
       5276.0946      0.18093673
       5277.0460      0.13286110
       5277.9974      0.15952268
       5278.9488      0.32954300
       5279.9002      0.14398176
       5280.8516      0.18484789
       5281.8030      0.29590319
       5282.7544      0.24242554
       5283.7058      0.33701347
       5284.6572     0.071712599
       5285.6086      0.25027615
       5286.5600      0.21851218
       5287.5114      0.23912866
       5288.4628      0.32378501
       5289.4142      0.26065625
       5290.3656      0.27488807
       5291.3170      0.34009440
       5292.2684      0.29336594
       5293.2198      0.19306150
       5294.1712      0.31323243
       5295.1226      0.27946764
       5296.0740      0.19343549
       5297.0254      0.16495422
       5297.9768      0.15755651
       5298.9282      0.32915878
       5299.8796      0.40578165
       5300.8310      0.17556247
       5301.7824      0.10975014
       5302.7338      0.34955386
       5303.6852      0.36565980
       5304.6366      0.25691804
       5305.5880      0.29830517
       5306.5393      0.29944941
       5307.4907      0.15021760
       5308.4421      0.13523242
       5309.3935      0.30300945
       5310.3449      0.25698901
       5311.2963      0.32786362
       5312.2477      0.11823473
       5313.1991      0.21429416
       5314.1505      0.38488442
       5315.1019      0.20413356
       5316.0533      0.17423876
       5317.0047      0.22591660
       5317.9561      0.22380945
       5318.9075      0.38956961
       5319.8589      0.13359812
       5320.8103      0.16086526
       5321.7617     0.087408038
       5322.7131     0.084062448
       5323.6645      0.31227310
       5324.6159      0.10902134
       5325.5673      0.12243860
       5326.5187     0.089720916
       5327.4701      0.20998386
       5328.4215      0.18189904
       5329.3729      0.11554660
       5330.3243      0.18061036
       5331.2757      0.24057497
       5332.2271      0.11027198
       5333.1785      0.30959638
       5334.1299      0.24965611
       5335.0813      0.12713999
       5336.0327      0.25095388
       5336.9841    -0.090981050
       5337.9355      0.17088231
       5338.8869      0.42772961
       5339.8383      0.23558170
       5340.7897      0.32403456
       5341.7411      0.26401347
       5342.6925      0.30472389
       5343.6438      0.25916140
       5344.5952      0.17309416
       5345.5466      0.30158737
       5346.4980      0.18140610
       5347.4494      0.20069669
       5348.4008      0.24508575
       5349.3522      0.33072612
       5350.3036      0.27827178
       5351.2550      0.12549742
       5352.2064      0.20662846
       5353.1578      0.36307657
       5354.1092      0.24897048
       5355.0606      0.29907990
       5356.0120      0.28449773
       5356.9634      0.17378915
       5357.9148      0.21389867
       5358.8662      0.26323311
       5359.8176      0.36532797
       5360.7690      0.38044656
       5361.7204      0.31071883
       5362.6718      0.27220315
       5363.6232      0.38748031
       5364.5746      0.34195527
       5365.5260      0.40079403
       5366.4774      0.25911010
       5367.4288      0.22673706
       5368.3802      0.17998369
       5369.3316    0.0051943487
       5370.2830     0.070707982
       5371.2344      0.27944915
       5372.1858      0.27962475
       5373.1372     0.078433223
       5374.0886      0.23375730
       5375.0400      0.21926493
       5375.9914      0.21492326
       5376.9428      0.14883693
       5377.8942      0.25880408
       5378.8456      0.25800241
       5379.7969      0.16661768
       5380.7483      0.29050832
       5381.6997      0.36480396
       5382.6511      0.33935412
       5383.6025      0.19120064
       5384.5539      0.13457657
       5385.5053      0.25924711
       5386.4567      0.23401450
       5387.4081      0.26914115
       5388.3595      0.25495728
       5389.3109      0.17831444
       5390.2623      0.18254628
       5391.2137      0.11031479
       5392.1651      0.23660319
       5393.1165      0.24085997
       5394.0679      0.21071447
       5395.0193      0.18312584
       5395.9707      0.30249928
       5396.9221      0.17168051
       5397.8735      0.20228381
       5398.8249      0.23918815
       5399.7763      0.20055723
       5400.7277      0.10407139
       5401.6791      0.29129418
       5402.6305      0.37431411
       5403.5819     0.027447874
       5404.5333      0.22766419
       5405.4847      0.15771135
       5406.4361      0.25106609
       5407.3875      0.33190587
       5408.3389      0.34147268
       5409.2903      0.21523189
       5410.2417      0.16293756
       5411.1931      0.19801202
       5412.1445      0.17956063
       5413.0959      0.24290588
       5414.0473      0.23672097
       5414.9987      0.12201372
       5415.9501      0.14951096
       5416.9014      0.13694312
       5417.8528      0.28348060
       5418.8042      0.15400591
       5419.7556      0.23681135
       5420.7070      0.17762801
       5421.6584      0.28254261
       5422.6098     0.068653716
       5423.5612      0.25383382
       5424.5126      0.11505783
       5425.4640      0.41528385
       5426.4154      0.42306215
       5427.3668     -0.21271369
       5428.3182    -0.010437418
       5429.2696    -0.012955456
       5430.2210      0.22818946
       5431.1724      0.42191899
       5432.1238      0.10998329
       5433.0752     0.032495743
       5434.0266      0.18906441
       5434.9780      0.23973145
       5435.9294      0.30958417
       5436.8808      0.27692298
       5437.8322      0.32884402
       5438.7836      0.36391301
       5439.7350      0.22726078
       5440.6864     0.090784881
       5441.6378     0.086334730
       5442.5892      0.28695291
       5443.5406      0.33591320
       5444.4920      0.29228556
       5445.4434      0.20340607
       5446.3948      0.25479179
       5447.3462      0.14079294
       5448.2976      0.20300030
       5449.2490      0.19142481
       5450.2004      0.37696415
       5451.1518      0.18117787
       5452.1032      0.25135081
       5453.0545      0.31088937
       5454.0059    -0.039026250
       5454.9573   -0.0042703238
       5455.9087     0.017580295
       5456.8601      0.41522115
       5457.8115      0.32910578
       5458.7629      0.11198752
       5459.7143     0.067678608
       5460.6657      0.13693909
       5461.6171      0.26031253
       5462.5685     0.099563777
       5463.5199      0.19631991
       5464.4713      0.15083011
       5465.4227      0.28051229
       5466.3741      0.35117100
       5467.3255      0.17360207
       5468.2769      0.20413094
       5469.2283      0.29044509
       5470.1797      0.39886309
       5471.1311      0.35371780
       5472.0825     0.080870513
       5473.0339      0.13626397
       5473.9853      0.22434972
       5474.9367      0.20002751
       5475.8881      0.25294204
       5476.8395      0.15584310
       5477.7909      0.23815761
       5478.7423      0.20020264
       5479.6937     0.071810363
       5480.6451     0.095011642
       5481.5965      0.20885510
       5482.5479      0.30524941
       5483.4993      0.29539562
       5484.4507      0.27322793
       5485.4021      0.26082163
       5486.3535      0.15265340
       5487.3049      0.32549595
       5488.2563      0.37551397
       5489.2076      0.29648430
       5490.1590     0.097484353
       5491.1104    -0.054392280
       5492.0618    -0.040263708
       5493.0132     -0.19184651
       5493.9646      0.30219450
       5494.9160      0.55379219
       5495.8674      0.45139141
       5496.8188      0.20189906
       5497.7702      0.23883509
       5498.7216      0.37684090
       5499.6730      0.25110091
       5500.6244      0.23505876
       5501.5758      0.20500001
       5502.5272      0.55613848
       5503.4786      0.27413696
       5504.4300      0.20066033
       5505.3814      0.46292071
       5506.3328     0.085228909
       5507.2842      0.25131631
       5508.2356      0.11430218
       5509.1870      0.25190820
       5510.1384      0.23560509
       5511.0898      0.12525654
       5512.0412      0.11033524
       5512.9926      0.32149985
       5513.9440      0.26951534
       5514.8954      0.17528810
       5515.8468      0.13816284
       5516.7982      0.31661957
       5517.7496      0.19991507
       5518.7010      0.43534198
       5519.6524      0.14765379
       5520.6038      0.17142039
       5521.5552      0.16515657
       5522.5066      0.18364709
       5523.4580      0.15493920
       5524.4094      0.22874448
       5525.3608      0.23212462
       5526.3121      0.11117708
       5527.2635      0.16271499
       5528.2149      0.15466628
       5529.1663      0.32511356
       5530.1177      0.44989276
       5531.0691      0.22716033
       5532.0205     0.096748725
       5532.9719      0.37488651
       5533.9233      0.28693662
       5534.8747      0.31570621
       5535.8261      0.22815331
       5536.7775      0.34463607
       5537.7289     0.071143358
       5538.6803      0.25422099
       5539.6317      0.21915678
       5540.5831      0.29404985
       5541.5345      0.24393282
       5542.4859      0.39840305
       5543.4373      0.27385580
       5544.3887    -0.010109832
       5545.3401     -0.13935119
       5546.2915    -0.016324214
       5547.2429      0.19787305
       5548.1943      0.32251597
       5549.1457     0.054703133
       5550.0971      0.16212138
       5551.0485     0.011726204
       5551.9999     0.029069141
       5552.9513      0.23548417
       5553.9027      0.26992989
       5554.8541      0.24026921
       5555.8055      0.22504301
       5556.7569      0.25073526
       5557.7083      0.10794769
       5558.6597      0.26380034
       5559.6111      0.11148467
       5560.5625      0.41094593
       5561.5139      0.28525958
       5562.4652      0.29303789
       5563.4166      0.26873193
       5564.3680     0.073095276
       5565.3194      0.20251361
       5566.2708      0.21445176
       5567.2222      0.21410606
       5568.1736      0.23671141
       5569.1250      0.34019693
       5570.0764      0.18764773
       5571.0278      0.26935523
       5571.9792      0.10632881
       5572.9306      0.22996175
       5573.8820      0.36201383
       5574.8334      0.17061040
       5575.7848      0.32710915
       5576.7362      0.34430304
       5577.6876      0.17749730
       5578.6390      0.16445030
       5579.5904      0.13923674
       5580.5418      0.25456742
       5581.4932      0.29725916
       5582.4446      0.18428912
       5583.3960      0.29276487
       5584.3474      0.21402291
       5585.2988      0.37919937
       5586.2502      0.26820679
       5587.2016      0.28370132
       5588.1530      0.12747734
       5589.1044     0.084044864
       5590.0558     0.010408388
       5591.0072     -0.14610671
       5591.9586      0.11215489
       5592.9100      0.34086766
       5593.8614      0.36446091
       5594.8128      0.18405195
       5595.7642      0.27298621
       5596.7156    -0.014907023
       5597.6670      0.34898007
       5598.6184      0.24125101
       5599.5697      0.27122800
       5600.5211      0.39876929
       5601.4725      0.32626142
       5602.4239      0.18812173
       5603.3753      0.28235235
       5604.3267      0.14457342
       5605.2781      0.24636435
       5606.2295      0.24137261
       5607.1809      0.31002017
       5608.1323      0.26200816
       5609.0837      0.44878262
       5610.0351      0.13720419
       5610.9865      0.24494586
       5611.9379      0.23643352
       5612.8893      0.30281009
       5613.8407      0.41863388
       5614.7921      0.21018744
       5615.7435      0.14460804
       5616.6949     0.070342359
       5617.6463      0.11741842
       5618.5977     0.035623084
       5619.5491      0.29861167
       5620.5005      0.19102665
       5621.4519    -0.049398890
       5622.4033     0.065752028
       5623.3547    -0.030699469
       5624.3061      0.13255310
       5625.2575      0.13124358
       5626.2089      0.18690703
       5627.1603      0.17742877
       5628.1117     0.092971572
       5629.0631      0.17779744
       5630.0145      0.32396932
       5630.9659      0.25336721
       5631.9173      0.27041735
       5632.8687      0.29606902
       5633.8201      0.28567291
       5634.7715      0.26342797
       5635.7228      0.21607038
       5636.6742      0.16280699
       5637.6256      0.31677890
       5638.5770      0.19863056
       5639.5284      0.17524188
       5640.4798      0.23439129
       5641.4312      0.35624898
       5642.3826      0.26507832
       5643.3340      0.22056746
       5644.2854      0.18431408
       5645.2368      0.29846896
       5646.1882      0.19486236
       5647.1396      0.25193652
       5648.0910      0.40108391
       5649.0424      0.36347827
       5649.9938      0.26519473
       5650.9452      0.25236128
       5651.8966      0.31520523
       5652.8480      0.33056885
       5653.7994      0.13633420
       5654.7508      0.11086235
       5655.7022      0.13301224
       5656.6536      0.22648299
       5657.6050      0.10290843
       5658.5564      0.28901391
       5659.5078      0.20570608
       5660.4592      0.22885320
       5661.4106      0.32590484
       5662.3620      0.23139431
       5663.3134      0.21906302
       5664.2648      0.38621528
       5665.2162      0.29292376
       5666.1676      0.17190250
       5667.1190      0.19375433
       5668.0704      0.24374173
       5669.0218      0.27285100
       5669.9732      0.20592264
       5670.9246      0.32987283
       5671.8759      0.31766944
       5672.8273      0.21713858
       5673.7787      0.15985170
       5674.7301      0.47277459
       5675.6815      0.23961957
       5676.6329      0.19675564
       5677.5843      0.22982266
       5678.5357      0.28077675
       5679.4871      0.11651117
       5680.4385     0.087586158
       5681.3899      0.14869857
       5682.3413      0.14472682
       5683.2927     0.038901825
       5684.2441      0.29879262
       5685.1955      0.19229689
       5686.1469      0.34812156
       5687.0983      0.30925527
       5688.0497      0.19481650
       5689.0011      0.10704754
       5689.9525      0.25231742
       5690.9039      0.16085302
       5691.8553      0.33386556
       5692.8067      0.37992484
       5693.7581      0.25620405
       5694.7095      0.22265295
       5695.6609      0.34699954
       5696.6123      0.34727833
       5697.5637      0.17207631
       5698.5151      0.24287543
       5699.4665      0.22503805
       5700.4179      0.33107449
       5701.3693      0.34833059
       5702.3207      0.15640278
       5703.2721      0.29758946
       5704.2235      0.28844075
       5705.1749      0.16155861
       5706.1263      0.21237797
       5707.0777      0.35667888
       5708.0291      0.27185386
       5708.9804      0.21607110
       5709.9318      0.20334198
       5710.8832     0.057792396
       5711.8346      0.13846056
       5712.7860      0.14376022
       5713.7374      0.22589915
       5714.6888      0.22275996
       5715.6402      0.27278556
       5716.5916      0.28493622
       5717.5430      0.20931334
       5718.4944      0.18379911
       5719.4458      0.29221148
       5720.3972      0.11060088
       5721.3486      0.30269764
       5722.3000      0.41236003
       5723.2514      0.44718654
       5724.2028      0.29087029
       5725.1542      0.35036863
       5726.1056      0.35328878
       5727.0570      0.25962449
       5728.0084      0.28609159
       5728.9598      0.23304169
       5729.9112      0.47051259
       5730.8626      0.29727301
       5731.8140      0.36580655
       5732.7654      0.31544509
       5733.7168      0.18833660
       5734.6682      0.25905436
       5735.6196      0.22741611
       5736.5710      0.24153817
       5737.5224      0.31879508
       5738.4738      0.12848727
       5739.4252      0.23465049
       5740.3766      0.38120469
       5741.3280      0.27943628
       5742.2794      0.26735357
       5743.2308      0.23308781
       5744.1822      0.24571646
       5745.1335      0.24780316
       5746.0849      0.16670239
       5747.0363      0.26133921
       5747.9877      0.18214252
       5748.9391      0.23070539
       5749.8905     0.060106737
       5750.8419      0.27166230
       5751.7933      0.39457146
       5752.7447      0.26837284
       5753.6961      0.32992233
       5754.6475      0.52307104
       5755.5989       1.0531665
       5756.5503      0.55480393
       5757.5017     -0.60993768
       5758.4531    -0.088270641
       5759.4045     -0.30090005
       5760.3559     0.063341092
       5761.3073      0.27073670
       5762.2587      0.15077219
       5763.2101     0.087485271
       5764.1615      0.26886406
       5765.1129      0.23037460
       5766.0643     0.046843678
       5767.0157      0.31771925
       5767.9671    -0.070409698
       5768.9185      0.26696794
       5769.8699      0.33617275
       5770.8213      0.20970296
       5771.7727      0.22254387
       5772.7241      0.24280285
       5773.6755      0.13515593
       5774.6269      0.25814998
       5775.5783      0.21633078
       5776.5297      0.29956254
       5777.4811      0.41020782
       5778.4325      0.18414391
       5779.3839      0.22598454
       5780.3353      0.18888815
       5781.2867      0.32396526
       5782.2380   -0.0063728495
       5783.1894      0.23364667
       5784.1408     -0.19589114
       5785.0922     0.098302953
       5786.0436      0.15270465
       5786.9950      0.16356954
       5787.9464      0.20122898
       5788.8978      0.37725950
       5789.8492      0.13064483
       5790.8006      0.13344983
       5791.7520      0.23173486
       5792.7034     0.067711700
       5793.6548      0.28557959
       5794.6062      0.21051064
       5795.5576      0.31089963
       5796.5090      0.30143031
       5797.4604      0.28962771
       5798.4118      0.17678173
       5799.3632      0.19769067
       5800.3146      0.19468484
       5801.2660      0.21963720
       5802.2174     0.031986397
       5803.1688     0.075360811
       5804.1202     0.085318196
       5805.0716      0.14348616
       5806.0230      0.19976183
       5806.9744      0.23836548
       5807.9258      0.14164933
       5808.8772      0.42832407
       5809.8286      0.33367413
       5810.7800      0.32854105
       5811.7314     0.029644394
       5812.6828      0.26626379
       5813.6342      0.34445739
       5814.5856      0.16550902
       5815.5370      0.21892803
       5816.4884      0.10057197
       5817.4398      0.13891444
       5818.3911      0.44189155
       5819.3425      0.57405821
       5820.2939      0.28664924
       5821.2453      0.21506553
       5822.1967      0.38308886
       5823.1481      0.40281865
       5824.0995    -0.022757603
       5825.0509     -0.16526226
       5826.0023    -0.025046224
       5826.9537    -0.028411685
       5827.9051     -0.25057550
       5828.8565     0.085578817
       5829.8079      0.42658650
       5830.7593     0.044777548
       5831.7107      0.24040217
       5832.6621      0.75762792
       5833.6135      0.96509660
       5834.5649       1.5533610
       5835.5163       1.4555598
       5836.4677       1.0636645
       5837.4191       1.1516683
       5838.3705      0.67779570
       5839.3219      0.41965913
       5840.2733      0.23884206
       5841.2247     0.018698257
       5842.1761      0.10620077
       5843.1275    -0.014837298
       5844.0789      0.21063794
       5845.0303     0.066100881
       5845.9817      0.11812466
       5846.9331     0.034574164
       5847.8845      0.25681511
       5848.8359      0.30516067
       5849.7873      0.10506870
       5850.7387    -0.042593430
       5851.6901    -0.097912623
       5852.6415      0.21052120
       5853.5929      0.60371686
       5854.5442      0.19981585
       5855.4956     0.072547750
       5856.4470     -0.13239207
       5857.3984     0.026467140
       5858.3498      0.22908965
       5859.3012      0.31801286
       5860.2526      0.12555705
       5861.2040      0.20746476
       5862.1554    -0.089421319
       5863.1068      0.34525332
       5864.0582      0.42811871
       5865.0096      0.30131561
       5865.9610      0.13254557
       5866.9124      0.23059759
       5867.8638      0.33483974
       5868.8152      0.23893164
       5869.7666      0.39212016
       5870.7180      0.26351745
       5871.6694     0.092550206
       5872.6208      0.18474575
       5873.5722      0.10507536
       5874.5236      0.43267659
       5875.4750     0.060136119
       5876.4264      0.18019022
       5877.3778     0.099965145
       5878.3292      0.26163957
       5879.2806      0.12436191
       5880.2320      0.24983910
       5881.1834      0.40353319
       5882.1348      0.33786903
       5883.0862      0.41543256
       5884.0376      0.31269249
       5884.9890    -0.095068994
       5885.9404    -0.015604005
       5886.8918     0.028828779
       5887.8432      0.24652807
       5888.7946      0.19880156
       5889.7460      0.20497509
       5890.6974      0.31552446
       5891.6487      0.13433288
       5892.6001      0.21118900
       5893.5515      0.20077736
       5894.5029      0.21151117
       5895.4543      0.16659022
       5896.4057      0.24155988
       5897.3571      0.25067378
       5898.3085      0.34453101
       5899.2599      0.35345029
       5900.2113      0.23629080
       5901.1627      0.34268610
       5902.1141      0.20001053
       5903.0655      0.23680670
       5904.0169      0.27368981
       5904.9683      0.31429299
       5905.9197      0.41519892
       5906.8711      0.19423629
       5907.8225      0.29222871
       5908.7739      0.13391328
       5909.7253      0.14031268
       5910.6767      0.16156996
       5911.6281      0.33829935
       5912.5795      0.20593568
       5913.5309      0.13930135
       5914.4823      0.10287926
       5915.4337      0.10383259
       5916.3851      0.11405254
       5917.3365     0.082266766
       5918.2879      0.26151523
       5919.2393      0.18687674
       5920.1907      0.16412317
       5921.1421      0.19933083
       5922.0935      0.31106727
       5923.0449      0.25313297
       5923.9963      0.20705807
       5924.9477      0.25579927
       5925.8991      0.28217188
       5926.8505      0.16067272
       5927.8018      0.22661306
       5928.7532      0.24262055
       5929.7046      0.34443613
       5930.6560      0.15086588
       5931.6074      0.24133532
       5932.5588      0.22890933
       5933.5102      0.14105425
       5934.4616      0.16143216
       5935.4130     0.018094298
       5936.3644      0.18348679
       5937.3158      0.14843822
       5938.2672      0.16720825
       5939.2186     0.024250238
       5940.1700      0.25678993
       5941.1214      0.30442731
       5942.0728      0.44201866
       5943.0242      0.26313672
       5943.9756      0.15700838
       5944.9270      0.21646036
       5945.8784     0.056047604
       5946.8298   -0.0030714930
       5947.7812     0.050880633
       5948.7326      0.14038569
       5949.6840      0.15859622
       5950.6354      0.19649313
       5951.5868     -0.11907896
       5952.5382      0.24622308
       5953.4896      0.20217073
       5954.4410      0.30936008
       5955.3924      0.34452921
       5956.3438      0.23733418
       5957.2952      0.35946037
       5958.2466      0.24908734
       5959.1980      0.10565337
       5960.1494      0.37338220
       5961.1008      0.10441160
       5962.0522      0.17806712
       5963.0036      0.30952359
       5963.9550      0.21777317
       5964.9063      0.32520081
       5965.8577      0.16172016
       5966.8091      0.22294127
       5967.7605      0.19487913
       5968.7119      0.18083220
       5969.6633      0.23418839
       5970.6147      0.35172125
       5971.5661      0.21407291
       5972.5175      0.13274410
       5973.4689      0.17102266
       5974.4203      0.46957660
       5975.3717      0.21443552
       5976.3231      0.29149792
       5977.2745      0.20478753
       5978.2259      0.19588355
       5979.1773      0.13245681
       5980.1287      0.43252123
       5981.0801      0.32167306
       5982.0315     0.032832587
       5982.9829     0.016198319
       5983.9343      0.23148444
       5984.8857      0.23589832
       5985.8371      0.20728214
       5986.7885      0.24345770
       5987.7399      0.19362710
       5988.6913      0.15290761
       5989.6427      0.26361226
       5990.5941      0.25476753
       5991.5455      0.36560819
       5992.4969      0.26526250
       5993.4483      0.11656154
       5994.3997      0.24005357
       5995.3511      0.22285866
       5996.3025      0.29998787
       5997.2539      0.21034060
       5998.2053      0.23039301
       5999.1567      0.26836652
       6000.1081      0.21641924
       6001.0594      0.23625532
       6002.0108      0.25174885
       6002.9622      0.26109080
       6003.9136      0.14636517
       6004.8650      0.21756835
       6005.8164      0.33790194
       6006.7678      0.11041658
       6007.7192      0.27675257
       6008.6706      0.18921608
       6009.6220      0.31562639
       6010.5734      0.40040947
       6011.5248      0.40747375
       6012.4762      0.38775011
       6013.4276      0.21304905
       6014.3790      0.30210722
       6015.3304      0.40816050
       6016.2818      0.47810977
       6017.2332      0.35214846
       6018.1846      0.20799352
       6019.1360      0.36697355
       6020.0874      0.60124033
       6021.0388      0.43382197
       6021.9902      0.26219353
       6022.9416     0.092401988
       6023.8930      0.35008862
       6024.8444      0.31692367
       6025.7958      0.36674830
       6026.7472      0.11847079
       6027.6986      0.12992409
       6028.6500      0.26913089
       6029.6014    -0.028638064
       6030.5528     0.027973701
       6031.5042      0.14618649
       6032.4556      0.32835027
       6033.4070      0.24882660
       6034.3584    -0.052690907
       6035.3098      0.13839635
       6036.2612      0.18398883
       6037.2125      0.20835217
       6038.1639      0.16750735
       6039.1153    -0.018962431
       6040.0667    -0.041698758
       6041.0181     0.035782583
       6041.9695             NaN
       6042.9209             NaN
       6043.8723             NaN
       6044.8237             NaN
       6045.7751             NaN
       6046.7265             NaN
       6047.6779             NaN
       6048.6293             NaN
       6049.5807             NaN
       6050.5321             NaN
       6051.4835             NaN
       6052.4349             NaN
       6053.3863             NaN
       6054.3377             NaN
       6055.2891             NaN
       6056.2405             NaN
       6057.1919             NaN
       6058.1433             NaN
       6059.0947             NaN
       6060.0461             NaN
       6060.9975             NaN
       6061.9489             NaN
       6062.9003             NaN
       6063.8517             NaN
       6064.8031             NaN
       6065.7545             NaN
       6066.7059             NaN
       6067.6573             NaN
       6068.6087             NaN
       6069.5601             NaN
       6070.5115             NaN
       6071.4629             NaN
       6072.4143             NaN
       6073.3657             NaN
       6074.3170             NaN
       6075.2684             NaN
       6076.2198             NaN
       6077.1712             NaN
       6078.1226             NaN
       6079.0740             NaN
       6080.0254             NaN
       6080.9768             NaN
       6081.9282             NaN
       6082.8796             NaN
       6083.8310             NaN
       6084.7824             NaN
       6085.7338             NaN
       6086.6852             NaN
       6087.6366             NaN
       6088.5880             NaN
       6089.5394             NaN
       6090.4908             NaN
       6091.4422             NaN
       6092.3936             NaN
       6093.3450             NaN
       6094.2964             NaN
       6095.2478             NaN
       6096.1992             NaN
       6097.1506             NaN
       6098.1020             NaN
       6099.0534             NaN
       6100.0048             NaN
       6100.9562             NaN
       6101.9076             NaN
       6102.8590             NaN
       6103.8104             NaN
       6104.7618             NaN
       6105.7132             NaN
       6106.6646             NaN
       6107.6160             NaN
       6108.5674             NaN
       6109.5188             NaN
       6110.4701             NaN
       6111.4215             NaN
       6112.3729             NaN
       6113.3243             NaN
       6114.2757             NaN
       6115.2271             NaN
       6116.1785             NaN
       6117.1299             NaN
       6118.0813             NaN
       6119.0327             NaN
       6119.9841             NaN
       6120.9355             NaN
       6121.8869             NaN
       6122.8383             NaN
       6123.7897             NaN
       6124.7411             NaN
       6125.6925             NaN
       6126.6439      0.11344196
       6127.5953      0.11866548
       6128.5467      0.29788953
       6129.4981      0.25306904
       6130.4495      0.47563874
       6131.4009    -0.019053632
       6132.3523      0.58605215
       6133.3037      0.92702314
       6134.2551     -0.25616213
       6135.2065    -0.089082484
       6136.1579      0.12000229
       6137.1093    -0.053974307
       6138.0607      0.15978929
       6139.0121      0.20103078
       6139.9635      0.27718570
       6140.9149      0.56442017
       6141.8663    -0.063568805
       6142.8177     0.098643445
       6143.7691     0.080183701
       6144.7205     0.015659660
       6145.6719      0.24903610
       6146.6233      0.38618464
       6147.5746      0.40230908
       6148.5260      0.19206517
       6149.4774      0.37532795
       6150.4288      0.16644281
       6151.3802      0.13224276
       6152.3316      0.12341352
       6153.2830      0.28456472
       6154.2344      0.15486702
       6155.1858      0.14774915
       6156.1372      0.36636930
       6157.0886      0.19398851
       6158.0400      0.30161059
       6158.9914     0.030873784
       6159.9428     -0.17071552
       6160.8942     0.035472448
       6161.8456    -0.037416632
       6162.7970      0.49239417
       6163.7484     -0.20072456
       6164.6998      0.22696866
       6165.6512      0.11926624
       6166.6026      0.24368361
       6167.5540      0.20454076
       6168.5054      0.15917831
       6169.4568      0.25311014
       6170.4082    -0.014707879
       6171.3596      0.23937172
       6172.3110      0.29601522
       6173.2624      0.24963448
       6174.2138      0.22125793
       6175.1652      0.33881923
       6176.1166      0.36702612
       6177.0680      0.32271517
       6178.0194      0.47149020
       6178.9708      0.41401822
       6179.9222      0.43207893
       6180.8736     0.049285890
       6181.8250      0.11714776
       6182.7764      0.36711629
       6183.7277    -0.043036549
       6184.6791      0.34632412
       6185.6305      0.16561296
       6186.5819      0.31422621
       6187.5333      0.52610603
       6188.4847      0.20653838
       6189.4361      0.26288754
       6190.3875      0.28369312
       6191.3389      0.29038775
       6192.2903      0.27033679
       6193.2417      0.26941898
       6194.1931     -0.31853700
       6195.1445     -0.33859810
       6196.0959      0.85717927
       6197.0473     -0.27679136
       6197.9987    -0.093639699
       6198.9501      0.52688568
       6199.9015      0.25773360
       6200.8529      0.18170457
       6201.8043      0.12259433
       6202.7557      0.13680041
       6203.7071      0.22435633
       6204.6585      0.22964221
       6205.6099     -0.19391979
       6206.5613     -0.12482963
       6207.5127      0.43446904
       6208.4641    -0.026547706
       6209.4155      0.29195483
       6210.3669     -0.14129559
       6211.3183     -0.25564228
       6212.2697      0.16195149
       6213.2211     0.083835113
       6214.1725      0.13301998
       6215.1239     0.016858011
       6216.0753     -0.34449506
       6217.0267     -0.63508497
       6217.9781     -0.18012275
       6218.9295      0.55656958
       6219.8808      0.51791921
       6220.8322      0.34395399
       6221.7836   -0.0091039364
       6222.7350      0.34125008
       6223.6864      0.25090828
       6224.6378      0.11886503
       6225.5892      0.17793718
       6226.5406    -0.025080209
       6227.4920      0.15909616
       6228.4434      0.21721654
       6229.3948      0.20370679
       6230.3462      0.17366832
       6231.2976      0.34120782
       6232.2490      0.75362343
       6233.2004      0.35841608
       6234.1518     0.042754929
       6235.1032      0.40289723
       6236.0546      0.14863087
       6237.0060      0.54299328
       6237.9574      -2.2713300
       6238.9088      -1.1651078
       6239.8602      0.31119459
       6240.8116    0.0011117647
       6241.7630    -0.040792381
       6242.7144      0.16440722
       6243.6658     -0.16464103
       6244.6172      0.12468601
       6245.5686     -0.16260735
       6246.5200      0.17437938
       6247.4714      0.67091422
       6248.4228      0.29430279
       6249.3742     0.079546222
       6250.3256     -0.15441681
       6251.2770    -0.022982352
       6252.2284     0.035095018
       6253.1798      0.16416796
       6254.1312      0.14587298
       6255.0826      0.19187924
       6256.0340     -0.58043915
       6256.9853     0.017725179
       6257.9367     0.049745798
       6258.8881      0.14713931
       6259.8395    -0.084669026
       6260.7909     -0.16071050
       6261.7423      0.10218824
       6262.6937      0.25565097
       6263.6451     -0.11109022
       6264.5965    -0.084214186
       6265.5479     -0.16105997
       6266.4993      0.33600444
       6267.4507      0.22440184
       6268.4021      0.39110259
       6269.3535      0.16347967
       6270.3049     0.064990055
       6271.2563      0.57440174
       6272.2077     -0.15001782
       6273.1591     -0.21858861
       6274.1105      0.53598921
       6275.0619    -0.017759074
       6276.0133    0.0057263785
       6276.9647      0.14217767
       6277.9161      0.20447218
       6278.8675      0.33873894
       6279.8189      0.28614351
       6280.7703      0.26718700
       6281.7217      0.19624669
       6282.6731      0.23920761
       6283.6245      0.32188884
       6284.5759      0.13178195
       6285.5273      0.21934626
       6286.4787     -0.27587222
       6287.4301     -0.25609193
       6288.3815      0.35604945
       6289.3329      0.59885987
       6290.2843      0.42709749
       6291.2357     0.029468833
       6292.1871     -0.66003041
       6293.1384      0.31443900
       6294.0898     -0.12366419
       6295.0412      0.32670234
       6295.9926      0.29953189
       6296.9440      0.25416412
       6297.8954     0.076774449
       6298.8468    -0.074758903
       6299.7982     0.010258862
       6300.7496      0.28313220
       6301.7010      0.22089749
       6302.6524      0.11981871
       6303.6038      0.37815956
       6304.5552      0.45926736
       6305.5066      0.17668805
       6306.4580      0.34931573
       6307.4094      0.27010487
       6308.3608      0.17382049
       6309.3122     0.075475575
       6310.2636      0.17254414
       6311.2150      0.14361397
       6312.1664      0.43922487
       6313.1178      0.29873592
       6314.0692      0.38526806
       6315.0206      0.20266955
       6315.9720      0.10585714
       6316.9234      0.10126993
       6317.8748      0.50978829
       6318.8262      0.12165725
       6319.7776      0.13162394
       6320.7290      0.21634846
       6321.6804      0.50334591
       6322.6318      0.25047325
       6323.5832      0.28030708
       6324.5346      0.28076811
       6325.4860      0.28354112
       6326.4374      0.25188027
       6327.3888      0.61505283
       6328.3402      0.38009976
       6329.2916      0.31378101
       6330.2429      0.12694575
       6331.1943    0.0024024018
       6332.1457     0.066958348
       6333.0971    -0.020835151
       6334.0485      0.11846065
       6334.9999     -0.21211364
       6335.9513    -0.024858353
       6336.9027      0.23620830
       6337.8541      0.27511114
       6338.8055      0.12075748
       6339.7569     0.031967495
       6340.7083     0.026402860
       6341.6597      0.38680241
       6342.6111     -0.12071709
       6343.5625      0.33431958
       6344.5139      0.25994087
       6345.4653    -0.055177930
       6346.4167    -0.012163501
       6347.3681     0.024719481
       6348.3195      0.17547371
       6349.2709     0.077504025
       6350.2223      0.17678234
       6351.1737     0.072579206
       6352.1251      0.33633410
       6353.0765      0.25929051
       6354.0279      0.48288067
       6354.9793     0.029926753
       6355.9307      0.27056005
       6356.8821      0.15283674
       6357.8335    -0.023354473
       6358.7849      0.18320524
       6359.7363      0.38363578
       6360.6877      0.20557621
       6361.6391      0.22641693
       6362.5905      0.16473152
       6363.5419      0.30554747
       6364.4933      0.34681983
       6365.4447      0.25535394
       6366.3960      0.12260909
       6367.3474      0.31822860
       6368.2988      0.26903029
       6369.2502      0.41504781
       6370.2016      0.56418141
       6371.1530    -0.039744907
       6372.1044      0.11471084
       6373.0558      0.51561422
       6374.0072      0.22675489
       6374.9586      0.34991404
       6375.9100      0.36744243
       6376.8614      0.54464686
       6377.8128      0.15189362
       6378.7642      0.13268329
       6379.7156     0.022971249
       6380.6670      0.53834409
       6381.6184     -0.11544868
       6382.5698     0.036303557
       6383.5212      0.17114910
       6384.4726      0.14435940
       6385.4240      0.10986988
       6386.3754      0.20804895
       6387.3268      0.36245871
       6388.2782      0.36988798
       6389.2296      0.34814054
       6390.1810      0.25279055
       6391.1324      0.11580160
       6392.0838      0.26133050
       6393.0352      0.19693058
       6393.9866      0.22382734
       6394.9380      0.30981693
       6395.8894      0.26300440
       6396.8408      0.18676441
       6397.7922      0.38184328
       6398.7436      0.31426247
       6399.6950      0.13011308
       6400.6464   0.00081357981
       6401.5978      0.25486719
       6402.5491      0.15386081
       6403.5005      0.31018529
       6404.4519      0.31110021
       6405.4033      0.32892960
       6406.3547      0.32939122
       6407.3061    -0.036829402
       6408.2575     0.042156207
       6409.2089      0.31671686
       6410.1603      0.28755469
       6411.1117      0.28938735
       6412.0631      0.27407107
       6413.0145      0.10292893
       6413.9659      0.12678372
       6414.9173      0.38830080
       6415.8687      0.31200738
       6416.8201      0.27580672
       6417.7715      0.23892842
       6418.7229      0.19116177
       6419.6743      0.32440320
       6420.6257      0.23375507
       6421.5771      0.26962635
       6422.5285      0.41014595
       6423.4799      0.35188675
       6424.4313      0.20514248
       6425.3827      0.28855936
       6426.3341      0.21318865
       6427.2855      0.27001055
       6428.2369      0.17507776
       6429.1883      0.36661413
       6430.1397      0.18234359
       6431.0911      0.12571154
       6432.0425      0.15248918
       6432.9939      0.39438971
       6433.9453      0.48450401
       6434.8967      0.11995082
       6435.8481      0.31092058
       6436.7995      0.24880019
       6437.7509      0.14317117
       6438.7023      0.37353285
       6439.6536      0.33799823
       6440.6050      0.50673382
       6441.5564      0.21935594
       6442.5078      0.39620002
       6443.4592      0.23675233
       6444.4106      0.28739022
       6445.3620      0.20235284
       6446.3134      0.28600259
       6447.2648      0.32946729
       6448.2162      0.24784778
       6449.1676      0.23933570
       6450.1190      0.29252518
       6451.0704      0.24998429
       6452.0218      0.21746914
       6452.9732      0.12290883
       6453.9246      0.12132895
       6454.8760      0.30647999
       6455.8274      0.43821534
       6456.7788      0.25373032
       6457.7302      0.10005465
       6458.6816      0.27337243
       6459.6330      0.37699358
       6460.5844      0.24620965
       6461.5358      0.31541068
       6462.4872      0.25077456
       6463.4386      0.33590428
       6464.3900      0.18400077
       6465.3414      0.29440338
       6466.2928      0.23067136
       6467.2442      0.28227977
       6468.1956      0.24617262
       6469.1470      0.25109874
       6470.0984      0.24945173
       6471.0498     0.088058230
       6472.0012      0.22109152
       6472.9526      0.21813527
       6473.9040      0.28354325
       6474.8554      0.47684069
       6475.8067      0.37898039
       6476.7581      0.25854157
       6477.7095    -0.076958397
       6478.6609      0.17990557
       6479.6123      0.30252653
       6480.5637      0.29481051
       6481.5151      0.32225853
       6482.4665      0.28572330
       6483.4179      0.28001538
       6484.3693      0.32964609
       6485.3207      0.34204588
       6486.2721      0.27979056
       6487.2235      0.29727139
       6488.1749      0.31234782
       6489.1263      0.31394788
       6490.0777      0.19226814
       6491.0291      0.26674802
       6491.9805      0.19037496
       6492.9319      0.21628953
       6493.8833      0.18211553
       6494.8347      0.20293495
       6495.7861      0.25401253
       6496.7375      0.39102018
       6497.6889      0.20138828
       6498.6403      0.22254075
       6499.5917      0.24890591
       6500.5431      0.27206042
       6501.4945      0.14319553
       6502.4459      0.19917707
       6503.3973      0.10767854
       6504.3487      0.25192980
       6505.3001     -0.15717821
       6506.2515    -0.053241738
       6507.2029     0.061178606
       6508.1543      0.22017264
       6509.1057      0.21352988
       6510.0571      0.27613616
       6511.0085     0.027395922
       6511.9598      0.27190015
       6512.9112     -0.19306220
       6513.8626     0.076476573
       6514.8140      0.26999194
       6515.7654      0.33006558
       6516.7168      0.15210802
       6517.6682    -0.011677826
       6518.6196      0.25076364
       6519.5710      0.30748680
       6520.5224      0.40297902
       6521.4738      0.19498443
       6522.4252      0.19125878
       6523.3766      0.27650995
       6524.3280      0.21250299
       6525.2794      0.24244977
       6526.2308      0.29147506
       6527.1822      0.22046939
       6528.1336      0.29847923
       6529.0850      0.43651919
       6530.0364      0.26462831
       6530.9878      0.11869828
       6531.9392      0.17202956
       6532.8906      0.28314350
       6533.8420      0.21939058
       6534.7934      0.19341497
       6535.7448      0.10958200
       6536.6962      0.29545384
       6537.6476      0.32851824
       6538.5990      0.25210267
       6539.5504     0.047486461
       6540.5018     0.063652674
       6541.4532      0.12996142
       6542.4046      0.18667860
       6543.3560      0.37039402
       6544.3074      0.30993188
       6545.2588      0.16279479
       6546.2102      0.33295281
       6547.1616      0.33605165
       6548.1130      0.32133541
       6549.0643      0.17855757
       6550.0157      0.28633133
       6550.9671      0.18527215
       6551.9185      0.37505436
       6552.8699     0.094567089
       6553.8213      0.17741536
       6554.7727      0.10516373
       6555.7241      0.22021662
       6556.6755      0.47273787
       6557.6269      0.71356453
       6558.5783      0.83615629
       6559.5297      0.94194260
       6560.4811      0.90512757
       6561.4325      0.97335122
       6562.3839      0.97794819
       6563.3353      0.75575071
       6564.2867      0.63378906
       6565.2381      0.33224014
       6566.1895      0.30432803
       6567.1409      0.25023094
       6568.0923      0.18119355
       6569.0437      0.28313209
       6569.9951      0.29515879
       6570.9465      0.21962619
       6571.8979      0.25357896
       6572.8493      0.14153822
       6573.8007      0.22493824
       6574.7521     0.036486417
       6575.7035      0.11772356
       6576.6549      0.14219857
       6577.6063      0.42420421
       6578.5577      0.38966245
       6579.5091      0.78677637
       6580.4605      0.14537895
       6581.4119      0.54709499
       6582.3633      0.71063035
       6583.3147      0.24384393
       6584.2661     -0.27094736
       6585.2174      0.28558041
       6586.1688      0.47122869
       6587.1202      0.49828082
       6588.0716      0.64425676
       6589.0230     0.089816907
       6589.9744    -0.085688203
       6590.9258      0.30086789
       6591.8772      0.38220900
       6592.8286      0.45728342
       6593.7800      0.67986699
       6594.7314      0.43400033
       6595.6828     0.030336171
       6596.6342      0.15975149
       6597.5856      0.14389382
       6598.5370   -0.0030271031
       6599.4884     -0.27115507
       6600.4398     0.069676405
       6601.3912      0.15894466
       6602.3426      0.24215957
       6603.2940      0.18336718
       6604.2454    0.0014688296
       6605.1968    -0.034740631
       6606.1482     -0.21419055
       6607.0996     -0.11674338
       6608.0510    -0.013686881
       6609.0024      0.22197449
       6609.9538      0.33519502
       6610.9052      0.29543989
       6611.8566      0.36927533
       6612.8080      0.41002453
       6613.7594      0.30026315
       6614.7108      0.10028680
       6615.6622      0.18425308
       6616.6136      0.26903062
       6617.5650      0.43064963
       6618.5164      0.33944139
       6619.4678      0.22231537
       6620.4192      0.20346410
       6621.3706      0.31320116
       6622.3219      0.34274203
       6623.2733      0.38796319
       6624.2247      0.35606501
       6625.1761      0.26503708
       6626.1275      0.20326663
       6627.0789      0.32288108
       6628.0303      0.38534888
       6628.9817      0.50422716
       6629.9331      0.43872213
       6630.8845    -0.085848695
       6631.8359    -0.058959366
       6632.7873    -0.068766408
       6633.7387      0.22354217
       6634.6901     -0.40059298
       6635.6415    -0.069744111
       6636.5929     -0.39221305
       6637.5443      -1.4730232
       6638.4957     -0.93987894
       6639.4471     -0.91642901
       6640.3985     -0.91513949
       6641.3499    0.0032341062
       6642.3013     0.029116056
       6643.2527    -0.027812127
       6644.2041      0.36221242
       6645.1555      0.48043059
       6646.1069      0.21622767
       6647.0583     0.079709440
       6648.0097      0.19685535
       6648.9611      0.15459905
       6649.9125    0.0037706477
       6650.8639    -0.039649439
       6651.8153    0.0016180584
       6652.7667      0.30349248
       6653.7181      0.27234213
       6654.6695      0.20052360
       6655.6209      0.17495545
       6656.5723      0.26280410
       6657.5237      0.26990675
       6658.4750      0.24547098
       6659.4264      0.35183204
       6660.3778      0.22297823
       6661.3292      0.19477549
       6662.2806    0.0097945710
       6663.2320     -0.24366562
       6664.1834    -0.013063111
       6665.1348     0.069192199
       6666.0862      0.32014445
       6667.0376      0.44449443
       6667.9890      0.22273910
       6668.9404      0.18402578
       6669.8918      0.26380959
       6670.8432     0.099828161
       6671.7946     -0.37334221
       6672.7460     -0.71683665
       6673.6974      0.84638629
       6674.6488       4.9215011
       6675.6002       2.6258509
       6676.5516      0.56013011
       6677.5030      0.31440038
       6678.4544     -0.32330749
       6679.4058   -0.0046244820
       6680.3572      0.23106078
       6681.3086      0.40135753
       6682.2600      0.51867907
       6683.2114      0.44415305
       6684.1628      0.42644958
       6685.1142    -0.017646475
       6686.0656      0.28540190
       6687.0170     0.077962510
       6687.9684    -0.033925852
       6688.9198      0.27861046
       6689.8712      0.56286334
       6690.8226   -0.0014583444
       6691.7740     0.088273907
       6692.7254     0.052512501
       6693.6768      0.16213832
       6694.6281      0.23121459
       6695.5795      0.27138003
       6696.5309      0.23080655
       6697.4823      0.33851160
       6698.4337     -0.40680372
       6699.3851      0.24290834
       6700.3365     -0.19323537
       6701.2879    -0.053838303
       6702.2393      0.32393941
       6703.1907     0.045911750
       6704.1421    -0.096829839
       6705.0935      0.15356095
       6706.0449     0.074644902
       6706.9963      0.26229519
       6707.9477      0.33860533
       6708.8991      0.39425720
       6709.8505      0.32399436
       6710.8019      0.43250838
       6711.7533      0.32607806
       6712.7047      0.41127833
       6713.6561      0.46177943
       6714.6075      0.39254699
       6715.5589      0.28040699
       6716.5103      0.20530856
       6717.4617      0.15475209
       6718.4131      0.27130503
       6719.3645      0.42804389
       6720.3159      0.58681183
       6721.2673      0.32289781
       6722.2187     0.065228898
       6723.1701      0.40950750
       6724.1215      0.24287393
       6725.0729     0.054462233
       6726.0243      0.38812818
       6726.9757      0.17886658
       6727.9271      0.51328489
       6728.8785       1.1340856
       6729.8299     0.044370760
       6730.7813     -0.51252814
       6731.7326    -0.025130983
       6732.6840      0.14726641
       6733.6354      0.23012967
       6734.5868      0.29429923
       6735.5382      0.29612737
       6736.4896      0.24448770
       6737.4410      0.23774485
       6738.3924      0.26844901
       6739.3438      0.22686883
       6740.2952     0.066710942
       6741.2466      0.21739465
       6742.1980      0.35775982
       6743.1494      0.41529596
       6744.1008      0.27942544
       6745.0522      0.22259004
       6746.0036      0.25225662
       6746.9550     0.042397870
       6747.9064      0.21803964
       6748.8578      0.39824877
       6749.8092      0.75590204
       6750.7606     0.024461540
       6751.7120     0.074301249
       6752.6634      0.25847211
       6753.6148    -0.089126827
       6754.5662      0.11943181
       6755.5176      0.27584383
       6756.4690      0.12767277
       6757.4204      0.22640278
       6758.3718     -0.11247212
       6759.3232     -0.27129277
       6760.2746      0.20709749
       6761.2260     -0.11171217
       6762.1774      0.11113435
       6763.1288      0.23677293
       6764.0802      0.30384865
       6765.0316      0.34544789
       6765.9830      0.26419052
       6766.9344      0.12536826
       6767.8857      0.15960685
       6768.8371      0.19793103
       6769.7885      0.10031297
       6770.7399    -0.039478707
       6771.6913     0.017462398
       6772.6427      0.23640687
       6773.5941      0.24915596
       6774.5455      0.32298203
       6775.4969      0.23371995
       6776.4483      0.22626096
       6777.3997      0.22190004
       6778.3511      0.22059217
       6779.3025      0.20492751
       6780.2539      0.18443397
       6781.2053      0.12529014
       6782.1567      0.13307768
       6783.1081    -0.070202238
       6784.0595      0.10292981
       6785.0109      0.19275865
       6785.9623      0.19435238
       6786.9137     0.023374100
       6787.8651    -0.020153259
       6788.8165      0.14844941
       6789.7679      0.13595294
       6790.7193     0.027568710
       6791.6707      0.28777255
       6792.6221      0.34946149
       6793.5735      0.14862373
       6794.5249     -0.10221837
       6795.4763    -0.063003459
       6796.4277      0.13326356
       6797.3791     0.039768948
       6798.3305      0.25869473
       6799.2819      0.21861652
       6800.2333      0.39861506
       6801.1847      0.24571110
       6802.1361      0.15203701
       6803.0875      0.32247807
       6804.0389      0.30035956
       6804.9902      0.22187859
       6805.9416      0.32722569
       6806.8930      0.39116109
       6807.8444      0.34194981
       6808.7958      0.22503326
       6809.7472      0.27943636
       6810.6986      0.17751102
       6811.6500      0.18165421
       6812.6014      0.29837163
       6813.5528      0.35138394
       6814.5042      0.47953303
       6815.4556      0.26918336
       6816.4070      0.23566402
       6817.3584      0.18290541
       6818.3098      0.27999250
       6819.2612      0.10350271
       6820.2126      0.24028909
       6821.1640      0.33776925
       6822.1154      0.35129067
       6823.0668      0.21616029
       6824.0182      0.16176043
       6824.9696      0.19004369
       6825.9210      0.19342195
       6826.8724     0.032486807
       6827.8238      0.20199242
       6828.7752      0.17958524
       6829.7266      0.16491060
       6830.6780      0.37404826
       6831.6294      0.23365790
       6832.5808      0.15420754
       6833.5322     0.051569062
       6834.4836      0.27989909
       6835.4350      0.42649463
       6836.3864      0.17582074
       6837.3378      0.11118771
       6838.2892      0.20614665
       6839.2406      0.18385357
       6840.1920      0.20872106
       6841.1433    -0.060785477
       6842.0947      0.39561433
       6843.0461      0.25574801
       6843.9975      0.26391837
       6844.9489      0.11856602
       6845.9003      0.25492792
       6846.8517      0.37734531
       6847.8031     0.023336328
       6848.7545     -0.16007847
       6849.7059    -0.026822565
       6850.6573      0.44960730
       6851.6087      0.72973214
       6852.5601      0.41851582
       6853.5115      0.85110736
       6854.4629      0.36836353
       6855.4143     -0.44808319
       6856.3657    0.0044004709
       6857.3171      0.21437424
       6858.2685      0.26317712
       6859.2199      0.52112095
       6860.1713      0.99471164
       6861.1227       1.0382480
       6862.0741      0.55379535
       6863.0255      0.37878415
       6863.9769      0.37930410
       6864.9283      0.16943815
       6865.8797     0.062634696
       6866.8311    -0.047886093
       6867.7825     0.087816693
       6868.7339      0.11150416
       6869.6853      0.20184567
       6870.6367      0.28480340
       6871.5881      0.16618422
       6872.5395     -0.13633871
       6873.4909      0.37052097
       6874.4423      0.16559100
       6875.3937      0.55541167
       6876.3451      0.38561411
       6877.2964      0.45158780
       6878.2478      0.45944121
       6879.1992     -0.12223728
       6880.1506      0.43748933
       6881.1020      0.26961431
       6882.0534      0.22534262
       6883.0048     -0.14789264
       6883.9562     0.014456997
       6884.9076      0.28769999
       6885.8590     0.027398313
       6886.8104      0.76582927
       6887.7618      0.23490147
       6888.7132     0.080502218
       6889.6646    -0.017583770
       6890.6160       1.0491506
       6891.5674      0.55860709
       6892.5188      0.24937096
       6893.4702      0.28294306
       6894.4216      0.54563401
       6895.3730      0.42690594
       6896.3244      0.24636890
       6897.2758      0.42892633
       6898.2272      0.25303198
       6899.1786      0.22233103
       6900.1300      0.20213088
       6901.0814    -0.068207388
       6902.0328      0.10518501
       6902.9842      0.22889675
       6903.9356      0.20532338
       6904.8870      0.46525440
       6905.8384      0.47130189
       6906.7898      0.35068801
       6907.7412      0.25361644
       6908.6926      0.43206163
       6909.6440      0.26664065
       6910.5954      0.50213462
       6911.5468      0.41043084
       6912.4982      0.42211492
       6913.4496      0.29345023
       6914.4009      0.38525286
       6915.3523      0.21741496
       6916.3037     0.018914459
       6917.2551      0.28540273
       6918.2065      0.50111925
       6919.1579      0.35501397
       6920.1093      0.39801845
       6921.0607      0.56815428
       6922.0121      0.42563599
       6922.9635      0.49870018
       6923.9149      0.41612339
       6924.8663      0.33865646
       6925.8177      0.31869064
       6926.7691      0.26252416
       6927.7205      0.20826418
       6928.6719      0.37651671
       6929.6233      0.24764920
       6930.5747      0.42897587
       6931.5261      0.27037748
       6932.4775      0.27165360
       6933.4289      0.40557998
       6934.3803      0.26522672
       6935.3317      0.23054784
       6936.2831      0.29928490
       6937.2345      0.31866831
       6938.1859      0.22759931
       6939.1373      0.24375834
       6940.0887      0.32116719
       6941.0401      0.22106556
       6941.9915      0.21054608
       6942.9429      0.17301102
       6943.8943      0.24481829
       6944.8457      0.29189684
       6945.7971      0.28759719
       6946.7485      0.15174329
       6947.6999      0.15671087
       6948.6513      0.21126676
       6949.6027      0.18517702
       6950.5540      0.22819557
       6951.5054      0.24753648
       6952.4568      0.24432040
       6953.4082      0.23565125
       6954.3596      0.10486619
       6955.3110      0.30526729
       6956.2624      0.29582596
       6957.2138      0.25762913
       6958.1652      0.33746965
       6959.1166      0.22618177
       6960.0680    -0.021027251
       6961.0194     0.070551696
       6961.9708      0.15126897
       6962.9222      0.32207430
       6963.8736      0.31708868
       6964.8250   -0.0025303712
       6965.7764     0.013012183
       6966.7278     -0.80725079
       6967.6792    -0.019472313
       6968.6306     0.091070965
       6969.5820      0.25756281
       6970.5334      0.11640853
       6971.4848      0.77078632
       6972.4362      0.70238111
       6973.3876      0.10790381
       6974.3390      0.49709874
       6975.2904     -0.29362300
       6976.2418     -0.29043365
       6977.1932      0.10183268
       6978.1446      0.16719196
       6979.0960     0.065974433
       6980.0474      0.33120337
       6980.9988      0.41563688
       6981.9502      0.36572469
       6982.9016      0.24980897
       6983.8530      0.52004569
       6984.8044      0.61304912
       6985.7558      0.54764339
       6986.7072    -0.035090324
       6987.6585     0.064775979
       6988.6099      0.27670707
       6989.5613    -0.058921103
       6990.5127      0.15513007
       6991.4641      0.33488149
       6992.4155      0.21954688
       6993.3669      0.23902851
       6994.3183      0.36783178
       6995.2697      0.29444562
       6996.2211      0.23119891
       6997.1725      0.26923342
       6998.1239      0.40979187
       6999.0753      0.22892731
       7000.0267      0.23508468
       7000.9781     0.072627996
       7001.9295      0.16321349
       7002.8809      0.44773350
       7003.8323      0.28323306
       7004.7837      0.25606452
       7005.7351      0.22713685
       7006.6865      0.24381558
       7007.6379      0.29275911
       7008.5893      0.39507099
       7009.5407      0.30524125
       7010.4921      0.28717397
       7011.4435      0.85612083
       7012.3949       1.1386270
       7013.3463     -0.24040539
       7014.2977      0.21906962
       7015.2491   -0.0091919872
       7016.2005    -0.024406740
       7017.1519    -0.091428249
       7018.1033     -0.18981385
       7019.0547       1.8302190
       7020.0061       1.0439460
       7020.9575       1.6207070
       7021.9089       1.6306644
       7022.8603       2.4113673
       7023.8116       1.4495474
       7024.7630      0.18547255
       7025.7144      0.88408498
       7026.6658      0.95704310
       7027.6172      0.35892462
       7028.5686      0.28108158
       7029.5200     0.095085524
       7030.4714     0.076283186
       7031.4228      0.45802828
       7032.3742      0.46685119
       7033.3256     0.077026643
       7034.2770      0.24743678
       7035.2284     0.056563520
       7036.1798  -0.00046687143
       7037.1312      0.27593508
       7038.0826      0.39734271
       7039.0340      0.44432774
       7039.9854      0.32858636
       7040.9368      0.20384012
       7041.8882      0.38717447
       7042.8396      0.25699461
       7043.7910      0.68909557
       7044.7424      0.57194423
       7045.6938      0.15812826
       7046.6452    0.0010953479
       7047.5966      0.21026791
       7048.5480     0.017368707
       7049.4994    -0.047628487
       7050.4508      0.32112931
       7051.4022      0.29913194
       7052.3536      0.24799915
       7053.3050      0.28994551
       7054.2564      0.41256992
       7055.2078      0.31680965
       7056.1592      0.13156717
       7057.1106      0.18084714
       7058.0620      0.54636452
       7059.0134      0.37159746
       7059.9647     -0.35910273
       7060.9161     -0.59224541
       7061.8675      0.51143905
       7062.8189      0.69225563
       7063.7703     -0.40591652
       7064.7217     -0.21413473
       7065.6731      0.71030820
       7066.6245      0.62588968
       7067.5759      0.35552688
       7068.5273      0.42235925
       7069.4787      0.20814851
       7070.4301      0.27081721
       7071.3815      0.12674350
       7072.3329      0.25854160
       7073.2843     -0.41011975
       7074.2357     -0.92449570
       7075.1871      -1.5654119
       7076.1385     -0.38300086
       7077.0899      0.28296105
       7078.0413      0.10503771
       7078.9927   -0.0015678088
       7079.9441      0.22436679
       7080.8955      0.39746622
       7081.8469      0.36857028
       7082.7983      0.15917326
       7083.7497      0.19683206
       7084.7011      0.48293031
       7085.6525      0.39394198
       7086.6039      0.15995165
       7087.5553     -0.13536648
       7088.5067      0.10256122
       7089.4581      0.79130155
       7090.4095     -0.12650439
       7091.3609     -0.29837830
       7092.3123      0.38919734
       7093.2637      0.30702577
       7094.2151      0.29021524
       7095.1665     0.052014538
       7096.1179      0.33512071
       7097.0692      0.24734827
       7098.0206      0.18377884
       7098.9720      0.18057124
       7099.9234      0.21302642
       7100.8748      0.33651137
       7101.8262      0.35647978
       7102.7776      0.22931927
       7103.7290      0.33049164
       7104.6804      0.21860743
       7105.6318      -1.7335103
       7106.5832      -2.9566420
       7107.5346      -2.5745559
       7108.4860     -0.58133446
       7109.4374     0.073353676
       7110.3888      0.23645399
       7111.3402      0.48147151
       7112.2916      0.28639044
       7113.2430      0.18063741
       7114.1944      0.33157452
       7115.1458      0.35325040
       7116.0972      0.67310589
       7117.0486     -0.72362909
       7118.0000      0.12272494
       7118.9514       1.0254391
       7119.9028      0.38098581
       7120.8542      0.28502807
       7121.8056     -0.67182395
       7122.7570      0.42383202
       7123.7084      0.43458929
       7124.6598      0.36087000
       7125.6112      0.40231606
       7126.5626      0.30773531
       7127.5140      0.17350746
       7128.4654      0.56857840
       7129.4168      0.25761544
       7130.3682      0.26439528
       7131.3196      0.15313487
       7132.2710      0.27237867
       7133.2223      0.29545695
       7134.1737      0.40687873
       7135.1251      0.11763966
       7136.0765      0.25659201
       7137.0279      0.34039498
       7137.9793      0.42416060
       7138.9307      0.55537602
       7139.8821      0.58004907
       7140.8335      0.38837227
       7141.7849      0.16616174
       7142.7363      0.80414589
       7143.6877     -0.17384433
       7144.6391     -0.11366428
       7145.5905     -0.17944434
       7146.5419      0.35842130
       7147.4933      0.51738868
       7148.4447      0.30543663
       7149.3961     0.042249269
       7150.3475      0.49931583
       7151.2989     -0.15062259
       7152.2503    -0.043345817
       7153.2017      0.69574811
       7154.1531     -0.10818229
       7155.1045     0.026167268
       7156.0559     -0.19849715
       7157.0073      0.24329683
       7157.9587      0.38039892
       7158.9101      0.40230291
       7159.8615      0.43653997
       7160.8129      0.26865570
       7161.7643      0.29427022
       7162.7157      0.25360900
       7163.6671      0.33230478
       7164.6185      0.40695117
       7165.5699      0.35987554
       7166.5213      0.33956834
       7167.4727      0.26322377
       7168.4241      0.20008614
       7169.3755      0.42274694
       7170.3268      0.49648242
       7171.2782      0.36336706
       7172.2296      0.38297305
       7173.1810      0.41716005
       7174.1324      0.41210298
       7175.0838      0.52519318
       7176.0352      0.38780985
       7176.9866      0.32591002
       7177.9380      0.43981833
       7178.8894      0.50510469
       7179.8408      0.54593323
       7180.7922      0.17744665
       7181.7436      0.23160591
       7182.6950      0.36430761
       7183.6464      0.39980133
       7184.5978      0.26742977
       7185.5492      0.52155665
       7186.5006      0.44571627
       7187.4520      0.39948520
       7188.4034      0.33311699
       7189.3548      0.36153282
       7190.3062      0.62840986
       7191.2576      0.55643369
       7192.2090      0.70784711
       7193.1604      0.97753168
       7194.1118      0.26189239
       7195.0632      0.35133444
       7196.0146      0.66298255
       7196.9660      0.59126749
       7197.9174      0.52054541
       7198.8688      0.30310434
       7199.8202      0.28910766
       7200.7716      0.27611478
       7201.7230      0.35162000
       7202.6744      0.25784435
       7203.6258      0.11626336
       7204.5772      0.35042125
       7205.5286      0.38917720
       7206.4799      0.60506690
       7207.4313      0.58808573
       7208.3827      0.27667848
       7209.3341      0.28610437
       7210.2855      0.52368946
       7211.2369      0.35462971
       7212.1883      0.35585709
       7213.1397      0.34281998
       7214.0911      0.27757062
       7215.0425      0.33950634
       7215.9939      0.29063485
       7216.9453      0.39887156
       7217.8967      0.33090260
       7218.8481      0.26736914
       7219.7995      0.44808986
       7220.7509      0.29564269
       7221.7023      0.42798289
       7222.6537      0.47257465
       7223.6051      0.38792185
       7224.5565      0.31984759
       7225.5079      0.48323785
       7226.4593      0.75505492
       7227.4107      0.44493470
       7228.3621      0.39917161
       7229.3135      0.26051577
       7230.2649      0.33274190
       7231.2163      0.36235830
       7232.1677      0.29271665
       7233.1191      0.25191714
       7234.0705      0.11820902
       7235.0219      0.31498480
       7235.9733      0.25816922
       7236.9247      0.14083612
       7237.8761      0.28935331
       7238.8275      0.49582174
       7239.7789      0.46079758
       7240.7303      0.29871302
       7241.6817      0.53557823
       7242.6330      0.61305466
       7243.5844      0.45581547
       7244.5358      0.45285389
       7245.4872      0.39997368
       7246.4386      0.34729907
       7247.3900      0.40576383
       7248.3414      0.37602967
       7249.2928      0.44560883
       7250.2442      0.48195958
       7251.1956      0.37248768
       7252.1470      0.43606384
       7253.0984      0.44055797
       7254.0498      0.42019739
       7255.0012      0.27731147
       7255.9526      0.45830221
       7256.9040      0.49386782
       7257.8554      0.41672601
       7258.8068      0.26103922
       7259.7582      0.24446382
       7260.7096      0.42825198
       7261.6610      0.27340208
       7262.6124      0.23820920
       7263.5638      0.45186978
       7264.5152      0.46928993
       7265.4666      0.36958255
       7266.4180      0.36466274
       7267.3694      0.38130891
       7268.3208      0.38149691
       7269.2722      0.46350249
       7270.2236      0.33735115
       7271.1750      0.44382513
       7272.1264      0.31004670
       7273.0778      0.48501701
       7274.0292      0.43786102
       7274.9806      0.33413884
       7275.9320      0.41717346
       7276.8834      0.47047074
       7277.8348      0.64238804
       7278.7862      0.40070679
       7279.7375      0.31525521
       7280.6889      0.57656634
       7281.6403      0.39230671
       7282.5917      0.18001994
