# wavelength flux
       2800.3928     0.092175845
       2801.3551     0.046459896
       2802.3175    -0.074004923
       2803.2798  -0.00054984368
       2804.2422     0.069475664
       2805.2046     0.064547006
       2806.1669     0.025345478
       2807.1293     0.036503970
       2808.0916     0.022794892
       2809.0540     0.077447699
       2810.0164     0.022406880
       2810.9787      0.12097295
       2811.9411      0.14557738
       2812.9034     0.076024184
       2813.8658     0.063508080
       2814.8282    -0.019079728
       2815.7905     0.054417674
       2816.7529   0.00086077641
       2817.7153     0.036895772
       2818.6776    -0.062708003
       2819.6400      0.16180947
       2820.6023      0.14806349
       2821.5647     0.026960685
       2822.5271     -0.11021635
       2823.4894      0.11139983
       2824.4518      0.12555278
       2825.4141    -0.038062652
       2826.3765   -0.0060616750
       2827.3389      0.16300270
       2828.3012      0.10387391
       2829.2636      0.14105850
       2830.2259    -0.053054911
       2831.1883     0.026535365
       2832.1507      0.16425970
       2833.1130      0.10180164
       2834.0754      0.10691211
       2835.0377      0.20490717
       2836.0001     0.014912478
       2836.9625     -0.14169187
       2837.9248     0.012883373
       2838.8872     0.010025434
       2839.8495     0.093982290
       2840.8119    0.0055381233
       2841.7743     0.025287254
       2842.7366    -0.075151694
       2843.6990     0.042355340
       2844.6613    -0.042116331
       2845.6237    -0.067106530
       2846.5861      0.14173284
       2847.5484     0.097625118
       2848.5108      0.18709132
       2849.4731     0.041150578
       2850.4355     0.013506090
       2851.3979      0.11699214
       2852.3602     0.039502909
       2853.3226     0.012420440
       2854.2849     0.010060826
       2855.2473     -0.14167502
       2856.2097      0.14109411
       2857.1720      0.13250222
       2858.1344    -0.031943276
       2859.0967     0.049389131
       2860.0591     0.087473373
       2861.0215     0.085981569
       2861.9838     0.070778522
       2862.9462     0.077861054
       2863.9085     0.091618640
       2864.8709     0.036976075
       2865.8333     0.044307226
       2866.7956    0.0024293456
       2867.7580     0.028500901
       2868.7203     0.066075296
       2869.6827    -0.043148846
       2870.6451     0.063134036
       2871.6074     0.028897298
       2872.5698      0.11783192
       2873.5322     0.057341122
       2874.4945    -0.013767228
       2875.4569     0.035671584
       2876.4192     0.070744062
       2877.3816    -0.033719050
       2878.3440      0.10143912
       2879.3063     0.090242367
       2880.2687      0.16849763
       2881.2310      0.12394614
       2882.1934     0.065994462
       2883.1558     0.042919812
       2884.1181     0.052661561
       2885.0805     0.083157449
       2886.0428     0.062165316
       2887.0052      0.10805210
       2887.9676    -0.054499242
       2888.9299    -0.056415629
       2889.8923     0.096466626
       2890.8546     0.040346485
       2891.8170    0.0017757113
       2892.7794     0.092563908
       2893.7417     0.061803953
       2894.7041     0.030201905
       2895.6664      0.11216716
       2896.6288     0.081510765
       2897.5912  -0.00046993876
       2898.5535      0.13164206
       2899.5159     0.039845191
       2900.4782     0.035441210
       2901.4406     0.045492033
       2902.4030     0.084405458
       2903.3653     0.056473504
       2904.3277     0.024659916
       2905.2900     0.060285797
       2906.2524      0.11907953
       2907.2148     0.031726760
       2908.1771      0.21759023
       2909.1395      0.18046500
       2910.1018    -0.043605545
       2911.0642     0.063342146
       2912.0266    -0.075279544
       2912.9889     0.069618667
       2913.9513      0.24158740
       2914.9136    -0.083184841
       2915.8760     0.017189002
       2916.8384     0.072161656
       2917.8007     0.094459902
       2918.7631   -0.0040228146
       2919.7254    -0.029631410
       2920.6878     0.081795546
       2921.6502      0.10277586
       2922.6125      0.13017615
       2923.5749     0.028745398
       2924.5372      0.27291712
       2925.4996      0.14233667
       2926.4620    0.0086242615
       2927.4243      0.14485904
       2928.3867   -0.0060081373
       2929.3490      0.10602772
       2930.3114     0.093751293
       2931.2738     0.029032575
       2932.2361    -0.053077374
       2933.1985     0.071159186
       2934.1609    -0.078437458
       2935.1232    -0.095010091
       2936.0856      0.23452747
       2937.0479     0.037542458
       2938.0103    -0.044827912
       2938.9727      0.11872186
       2939.9350     0.047023272
       2940.8974     0.036221736
       2941.8597    -0.029205479
       2942.8221     0.030075964
       2943.7845     0.054544736
       2944.7468      0.13987169
       2945.7092    -0.018870435
       2946.6715     0.077450047
       2947.6339     0.065090074
       2948.5963     0.063999446
       2949.5586     0.042556524
       2950.5210    -0.076563388
       2951.4833    0.0045300737
       2952.4457      0.11232961
       2953.4081      0.12498278
       2954.3704     0.024805974
       2955.3328      0.13414355
       2956.2951      0.12055467
       2957.2575   -0.0069810239
       2958.2199     0.022949749
       2959.1822     0.060136668
       2960.1446   0.00085770260
       2961.1069   -0.0013028267
       2962.0693     0.077749773
       2963.0317     0.016258256
       2963.9940     0.019827407
       2964.9564     0.035009915
       2965.9187     0.055958720
       2966.8811     0.036065185
       2967.8435     0.041282798
       2968.8058      0.11168980
       2969.7682     0.057504479
       2970.7305      0.10992708
       2971.6929     0.065180484
       2972.6553    0.0059728082
       2973.6176     0.035366834
       2974.5800      0.11380398
       2975.5423      0.11934819
       2976.5047     0.079808135
       2977.4671     0.077251758
       2978.4294      0.11264629
       2979.3918      0.12540561
       2980.3541    -0.062198642
       2981.3165     0.066680052
       2982.2789      0.10601418
       2983.2412     0.097498817
       2984.2036      0.15264814
       2985.1659      0.20834901
       2986.1283     0.089203620
       2987.0907      0.13919630
       2988.0530      0.10592002
       2989.0154    -0.010067795
       2989.9778     0.089942350
       2990.9401     0.060173355
       2991.9025     0.074246935
       2992.8648     0.017574723
       2993.8272     0.058354495
       2994.7896     0.072365524
       2995.7519     0.070108481
       2996.7143   -0.0096573905
       2997.6766     0.027595464
       2998.6390     0.057074508
       2999.6014     0.026370561
       3000.5637     0.024601447
       3001.5261     0.080768627
       3002.4884     0.064691296
       3003.4508     0.056446968
       3004.4132     0.011603429
       3005.3755    -0.012493089
       3006.3379     0.028836541
       3007.3002      0.14344066
       3008.2626     0.090868485
       3009.2250     0.048016273
       3010.1873     0.046749219
       3011.1497     0.083426767
       3012.1120     0.075993356
       3013.0744     0.053896406
       3014.0368     0.041639100
       3014.9991     0.055140219
       3015.9615      0.11232698
       3016.9238      0.16839485
       3017.8862     0.018363664
       3018.8486     0.096406667
       3019.8109     0.057172616
       3020.7733     0.057996709
       3021.7356     0.066125635
       3022.6980      0.14044842
       3023.6604     0.042432374
       3024.6227     0.074881057
       3025.5851     0.057281588
       3026.5474     0.055201516
       3027.5098     0.083380042
       3028.4722      0.10541751
       3029.4345   -0.0050758571
       3030.3969     0.011780892
       3031.3592     0.076552213
       3032.3216     0.040951826
       3033.2840     0.076662523
       3034.2463    -0.020128196
       3035.2087      0.12747263
       3036.1710      0.12907099
       3037.1334     0.095454068
       3038.0958     0.098577262
       3039.0581     0.094022244
       3040.0205      0.11289297
       3040.9828     0.070360897
       3041.9452     0.094814021
       3042.9076     0.054753171
       3043.8699     0.048793613
       3044.8323   0.00078583564
       3045.7946    0.0055499581
       3046.7570      0.10402172
       3047.7194     0.082398497
       3048.6817     0.079109195
       3049.6441     0.027135587
       3050.6065     0.062787314
       3051.5688     0.069986415
       3052.5312     0.028738711
       3053.4935    -0.014462472
       3054.4559     0.087581217
       3055.4183     0.070748654
       3056.3806     0.087242374
       3057.3430      0.10956217
       3058.3053     0.059722802
       3059.2677   -0.0043365104
       3060.2301    -0.025860554
       3061.1924      0.10980060
       3062.1548     0.031019136
       3063.1171     0.077871889
       3064.0795      0.12006122
       3065.0419     0.060180558
       3066.0042    -0.018601799
       3066.9666     0.074801554
       3067.9289    0.0069431795
       3068.8913     0.037678945
       3069.8537     0.090964973
       3070.8160      0.11302941
       3071.7784     0.013576854
       3072.7407     0.096310919
       3073.7031     0.089698227
       3074.6655     0.086508674
       3075.6278     0.023875479
       3076.5902     0.087094113
       3077.5525     0.037327166
       3078.5149     0.065310146
       3079.4773    -0.022991200
       3080.4396     0.089868538
       3081.4020      0.12048877
       3082.3643     0.099975521
       3083.3267      0.11972437
       3084.2891     0.079415818
       3085.2514     0.044994358
       3086.2138     0.093506910
       3087.1761     0.025831441
       3088.1385     0.012810226
       3089.1009     0.099520604
       3090.0632      0.10387921
       3091.0256     0.093289094
       3091.9879   -0.0040987396
       3092.9503     0.020891579
       3093.9127    -0.013790634
       3094.8750     0.060746634
       3095.8374     0.055161841
       3096.7997      0.10179490
       3097.7621      0.11107650
       3098.7245     0.099012171
       3099.6868      0.14862849
       3100.6492     0.052942870
       3101.6115     0.091611467
       3102.5739     0.049747480
       3103.5363      0.18039788
       3104.4986     0.068931907
       3105.4610    0.0017604271
       3106.4234     0.090813100
       3107.3857      0.10231576
       3108.3481      0.11195632
       3109.3104     0.050344004
       3110.2728     0.063599345
       3111.2352     0.047887476
       3112.1975      0.12096800
       3113.1599      0.12637596
       3114.1222    -0.065943257
       3115.0846      0.10926367
       3116.0470     0.026877375
       3117.0093     0.051270098
       3117.9717     0.031524514
       3118.9340      0.12355925
       3119.8964      0.11158541
       3120.8588      0.10089391
       3121.8211     0.076677374
       3122.7835      0.11482229
       3123.7458     0.048706671
       3124.7082      0.12345491
       3125.6706     0.026670691
       3126.6329     0.030392948
       3127.5953     0.050385174
       3128.5576     0.059557580
       3129.5200     0.066987048
       3130.4824     0.056800125
       3131.4447     0.070742808
       3132.4071     0.058077653
       3133.3694    0.0041584181
       3134.3318      0.12179233
       3135.2942      0.11510222
       3136.2565     0.043743170
       3137.2189     0.071437500
       3138.1812      0.10246550
       3139.1436      0.10864595
       3140.1060     0.043744486
       3141.0683     0.089880966
       3142.0307     0.073505817
       3142.9930     0.070741764
       3143.9554      0.10562196
       3144.9178     0.068034561
       3145.8801     0.022754676
       3146.8425     0.021922758
       3147.8048      0.12542228
       3148.7672     0.038919431
       3149.7296    0.0087696523
       3150.6919     0.079244896
       3151.6543      0.11678957
       3152.6166     0.057601319
       3153.5790     -0.12081600
       3154.5414     0.079997673
       3155.5037      0.13643307
       3156.4661     0.091024328
       3157.4284     0.078885448
       3158.3908      0.11692634
       3159.3532     0.071986978
       3160.3155      0.18698336
       3161.2779     0.049748859
       3162.2402    0.0061109068
       3163.2026    -0.016611327
       3164.1650     0.097061792
       3165.1273    0.0084836550
       3166.0897    0.0010679836
       3167.0521     0.031686355
       3168.0144   -0.0091607728
       3168.9768      0.15072047
       3169.9391     0.032500791
       3170.9015     0.081258753
       3171.8639     0.087054030
       3172.8262     0.060830240
       3173.7886     0.039867290
       3174.7509      0.14599309
       3175.7133      0.15093510
       3176.6757     0.083852445
       3177.6380     0.044288039
       3178.6004     0.038249088
       3179.5627     0.034117806
       3180.5251      0.13340390
       3181.4875      0.11079981
       3182.4498     0.050626127
       3183.4122     0.067569993
       3184.3745     0.026416328
       3185.3369      0.10406412
       3186.2993     0.018890835
       3187.2616     0.058605997
       3188.2240     0.068126218
       3189.1863      0.16562122
       3190.1487     0.095719992
       3191.1111    -0.030208363
       3192.0734      0.10382933
       3193.0358     0.083032250
       3193.9981     0.070934515
       3194.9605      0.11690124
       3195.9229     0.096220145
       3196.8852     0.044681795
       3197.8476     0.069760236
       3198.8099     0.081701152
       3199.7723     0.095681441
       3200.7347     0.013997670
       3201.6970     0.098033278
       3202.6594     0.032180085
       3203.6217      0.10513892
       3204.5841     0.050806982
       3205.5465     0.048305706
       3206.5088     0.063434511
       3207.4712      0.12370469
       3208.4335      0.14705898
       3209.3959     0.063527354
       3210.3583     0.070000977
       3211.3206     0.060780533
       3212.2830     0.072913710
       3213.2453     0.015199973
       3214.2077     0.081549990
       3215.1701     0.053003018
       3216.1324     0.047036128
       3217.0948     0.060503820
       3218.0571     0.038947693
       3219.0195     0.056059619
       3219.9819     0.063959251
       3220.9442      0.11655428
       3221.9066     0.092672325
       3222.8690      0.11807343
       3223.8313      0.15434135
       3224.7937     0.023411083
       3225.7560     0.019439434
       3226.7184     0.081000542
       3227.6808     0.070830666
       3228.6431    -0.026349867
       3229.6055     0.053537740
       3230.5678     0.038433666
       3231.5302     0.026611262
       3232.4926     0.055598640
       3233.4549     0.091631753
       3234.4173     0.066403002
       3235.3796  -0.00032531872
       3236.3420    -0.069980079
       3237.3044    -0.010326353
       3238.2667   -0.0040308854
       3239.2291     0.014209477
       3240.1914     0.072001927
       3241.1538    0.0073896021
       3242.1162     0.093531984
       3243.0785     0.094991822
       3244.0409      0.12676446
       3245.0032      0.10587720
       3245.9656     0.046918988
       3246.9280     0.059329341
       3247.8903     0.067296961
       3248.8527     0.067900548
       3249.8150      0.10410100
       3250.7774     0.061960950
       3251.7398    -0.027497379
       3252.7021    -0.017029123
       3253.6645    0.0018237618
       3254.6268     0.055054031
       3255.5892     0.070504867
       3256.5516      0.13898302
       3257.5139     0.020821504
       3258.4763      0.12295020
       3259.4386      0.13890767
       3260.4010      0.13179464
       3261.3634      0.14303377
       3262.3257     0.059794089
       3263.2881     0.075937113
       3264.2504    0.0070177592
       3265.2128   -0.0064872710
       3266.1752     0.089072430
       3267.1375      0.10678109
       3268.0999     0.063216116
       3269.0622     0.041787587
       3270.0246     0.037188215
       3270.9870     0.069954431
       3271.9493      0.12659270
       3272.9117     0.062615353
       3273.8740      0.11091466
       3274.8364      0.16048099
       3275.7988     0.058679767
       3276.7611      0.10859047
       3277.7235     0.090586671
       3278.6858     0.060451632
       3279.6482      0.17638442
       3280.6106     0.041532907
       3281.5729   -0.0048954107
       3282.5353     0.083494061
       3283.4977     0.071005626
       3284.4600     0.096171942
       3285.4224      0.11749016
       3286.3847   -0.0049838439
       3287.3471     0.066115138
       3288.3095      0.10757517
       3289.2718     0.066503710
       3290.2342      0.11233103
       3291.1965     0.037917486
       3292.1589      0.11451875
       3293.1213      0.10043665
       3294.0836     0.078383782
       3295.0460      0.12768974
       3296.0083      0.11309016
       3296.9707     0.091187955
       3297.9331     0.058790762
       3298.8954     0.096979426
       3299.8578     0.045744532
       3300.8201      0.11428835
       3301.7825     0.049002930
       3302.7449     0.076103189
       3303.7072      0.11441087
       3304.6696     0.051087783
       3305.6319     0.062649783
       3306.5943      0.14362410
       3307.5567      0.16138774
       3308.5190      0.15629050
       3309.4814      0.15369135
       3310.4437     0.013063264
       3311.4061     0.065418157
       3312.3685   0.00056458447
       3313.3308     0.094780047
       3314.2932      0.16038657
       3315.2555     0.023309939
       3316.2179      0.10133219
       3317.1803     0.086165729
       3318.1426      0.10547941
       3319.1050      0.13497912
       3320.0673     0.019871388
       3321.0297     0.054418969
       3321.9921     0.065372281
       3322.9544      0.10661511
       3323.9168     0.049552023
       3324.8791    -0.026112365
       3325.8415     0.069940533
       3326.8039      0.14365557
       3327.7662     0.087354744
       3328.7286     0.055879488
       3329.6909     0.099537402
       3330.6533     0.019586395
       3331.6157      0.12916742
       3332.5780      0.15262020
       3333.5404     0.068198743
       3334.5027      0.14197898
       3335.4651     0.050234286
       3336.4275      0.12207738
       3337.3898     0.041888046
       3338.3522     0.078585426
       3339.3146     0.062158585
       3340.2769     0.030914389
       3341.2393     0.097388746
       3342.2016      0.11656355
       3343.1640     0.065606849
       3344.1264      0.10784774
       3345.0887     0.062679341
       3346.0511     0.083359217
       3347.0134     0.097678662
       3347.9758      0.10828720
       3348.9382      0.10712377
       3349.9005     0.098128872
       3350.8629      0.13952237
       3351.8252    0.0041866945
       3352.7876     0.093333724
       3353.7500      0.11031097
       3354.7123      0.14711841
       3355.6747     0.086695962
       3356.6370     0.080221311
       3357.5994     0.080152904
       3358.5618     0.061838962
       3359.5241     0.071003664
       3360.4865     0.088774146
       3361.4488     0.081578183
       3362.4112      0.11573499
       3363.3736     0.056456668
       3364.3359      0.11535797
       3365.2983      0.12787733
       3366.2606     0.078717027
       3367.2230     0.049680682
       3368.1854     0.073206149
       3369.1477     0.063094896
       3370.1101     0.095313717
       3371.0724     0.042103892
       3372.0348      0.13393686
       3372.9972     0.097716581
       3373.9595     0.038717018
       3374.9219   -0.0075230746
       3375.8842     0.060817182
       3376.8466     0.096132443
       3377.8090     0.081255024
       3378.7713     0.096526022
       3379.7337      0.13967571
       3380.6960      0.14736145
       3381.6584      0.11073422
       3382.6208     0.055335440
       3383.5831      0.12927162
       3384.5455      0.10996477
       3385.5078      0.11743105
       3386.4702     0.073704528
       3387.4326      0.10076655
       3388.3949      0.11638303
       3389.3573      0.16030179
       3390.3196      0.11458642
       3391.2820      0.11917169
       3392.2444     0.082588332
       3393.2067     0.043283138
       3394.1691      0.10030995
       3395.1314      0.13004817
       3396.0938     0.091098709
       3397.0562      0.10536730
       3398.0185      0.14161648
       3398.9809     0.045127610
       3399.9433     0.030829488
       3400.9056      0.10347457
       3401.8680      0.10286010
       3402.8303     0.093104695
       3403.7927     0.065866801
       3404.7551      0.10929642
       3405.7174     0.075317573
       3406.6798     0.058819129
       3407.6421     0.068553157
       3408.6045     0.037838502
       3409.5669     0.067884663
       3410.5292      0.15299705
       3411.4916      0.10716772
       3412.4539      0.16773866
       3413.4163     0.056731784
       3414.3787      0.11443311
       3415.3410     0.041985910
       3416.3034     0.064223376
       3417.2657     0.097496800
       3418.2281     0.059645970
       3419.1905     0.083296103
       3420.1528     0.076299540
       3421.1152     0.075899871
       3422.0775     0.031442211
       3423.0399     0.098111570
       3424.0023     0.067922227
       3424.9646      0.13209599
       3425.9270      0.17303161
       3426.8893      0.12561187
       3427.8517      0.13966167
       3428.8141      0.11446151
       3429.7764      0.10413178
       3430.7388     0.086947165
       3431.7011      0.16676104
       3432.6635      0.11011225
       3433.6259     0.077620312
       3434.5882     0.061049510
       3435.5506      0.12926281
       3436.5129      0.16038294
       3437.4753      0.11956192
       3438.4377      0.14510775
       3439.4000     0.065539080
       3440.3624     0.032186892
       3441.3247     0.075055862
       3442.2871     0.047733211
       3443.2495     0.090443180
       3444.2118     0.090001297
       3445.1742     0.051510067
       3446.1365     0.095101064
       3447.0989     0.070900868
       3448.0613     0.077956259
       3449.0236     0.049804051
       3449.9860      0.10675128
       3450.9483     0.085666954
       3451.9107      0.11000125
       3452.8731     0.071008807
       3453.8354      0.10639526
       3454.7978     0.080639597
       3455.7602     0.093873646
       3456.7225      0.11006050
       3457.6849     0.078812009
       3458.6472     0.080978667
       3459.6096     0.077303309
       3460.5720     0.077332164
       3461.5343     0.060070230
       3462.4967     0.030485793
       3463.4590     0.072284316
       3464.4214      0.10598349
       3465.3838     0.075957611
       3466.3461     0.086109124
       3467.3085      0.11176555
       3468.2708     0.073401911
       3469.2332      0.12796931
       3470.1956      0.10560600
       3471.1579     0.050297478
       3472.1203     0.087816497
       3473.0826     0.077868385
       3474.0450     0.078599420
       3475.0074     0.057648692
       3475.9697      0.15871781
       3476.9321      0.14864736
       3477.8944      0.13135553
       3478.8568      0.10254389
       3479.8192     0.050910809
       3480.7815      0.12856417
       3481.7439     0.074242002
       3482.7062      0.10502117
       3483.6686      0.10255997
       3484.6310      0.11698420
       3485.5933     0.075819633
       3486.5557      0.10023650
       3487.5180     0.039763924
       3488.4804      0.15930316
       3489.4428     0.068823112
       3490.4051      0.10895935
       3491.3675     0.067460183
       3492.3298     0.066374759
       3493.2922     0.066763581
       3494.2546     0.092234930
       3495.2169      0.11912706
       3496.1793     0.084938446
       3497.1416     0.060366682
       3498.1040      0.14705416
       3499.0664     0.062026935
       3500.0287     0.081093536
       3500.9911     0.089443548
       3501.9534     0.089360212
       3502.9158      0.11049779
       3503.8782     0.074677003
       3504.8405     0.099031457
       3505.8029     0.052970590
       3506.7652     0.060174886
       3507.7276      0.11129073
       3508.6900      0.10526422
       3509.6523     0.048383545
       3510.6147     0.061376241
       3511.5770     0.046252095
       3512.5394      0.12220900
       3513.5018     0.034254502
       3514.4641     0.055768800
       3515.4265      0.10198389
       3516.3889     0.065992606
       3517.3512      0.14125834
       3518.3136     0.081942853
       3519.2759     0.072626672
       3520.2383      0.12311945
       3521.2007     0.069618036
       3522.1630     0.076342723
       3523.1254      0.12182264
       3524.0877     0.068963012
       3525.0501     0.079542067
       3526.0125      0.12746202
       3526.9748      0.10803885
       3527.9372      0.11984412
       3528.8995      0.11419623
       3529.8619      0.10281590
       3530.8243      0.11155433
       3531.7866     0.098522621
       3532.7490      0.13216171
       3533.7113     0.084131569
       3534.6737      0.11621804
       3535.6361     0.096366535
       3536.5984     0.094254151
       3537.5608      0.10242485
       3538.5231      0.13486145
       3539.4855     0.080422301
       3540.4479     0.099801686
       3541.4102      0.14156232
       3542.3726      0.14137557
       3543.3349     0.099094412
       3544.2973      0.11839438
       3545.2597      0.12203218
       3546.2220      0.13337275
       3547.1844     0.086362817
       3548.1467     0.062139265
       3549.1091     0.083931891
       3550.0715     0.099782400
       3551.0338     0.083045366
       3551.9962      0.11376109
       3552.9585     0.096371069
       3553.9209     0.079629472
       3554.8833     0.094230728
       3555.8456      0.10213907
       3556.8080     0.067516686
       3557.7703      0.10392884
       3558.7327     0.075075298
       3559.6951     0.091960574
       3560.6574     0.077765335
       3561.6198     0.070640150
       3562.5821     0.084042210
       3563.5445      0.12545939
       3564.5069      0.13315171
       3565.4692      0.11492060
       3566.4316      0.15835196
       3567.3939      0.13010645
       3568.3563     0.062591940
       3569.3187     0.067602064
       3570.2810     0.065716618
       3571.2434     0.082493264
       3572.2058     0.077035973
       3573.1681     0.081570539
       3574.1305     0.063159731
       3575.0928      0.10433891
       3576.0552      0.12813848
       3577.0176      0.15165753
       3577.9799     0.094615934
       3578.9423     0.080187884
       3579.9046      0.11339815
       3580.8670      0.10899125
       3581.8294     0.030078580
       3582.7917     0.099871777
       3583.7541     0.058451321
       3584.7164      0.11976350
       3585.6788      0.11591511
       3586.6412      0.10021946
       3587.6035     0.098178484
       3588.5659      0.13593974
       3589.5282     0.030349960
       3590.4906      0.11367764
       3591.4530      0.13923551
       3592.4153      0.10796843
       3593.3777      0.10735802
       3594.3400     0.095517197
       3595.3024      0.10476636
       3596.2648     0.034226909
       3597.2271      0.16316050
       3598.1895      0.12182575
       3599.1518     0.059095153
       3600.1142      0.16600664
       3601.0766      0.17233209
       3602.0389      0.10347262
       3603.0013      0.10234778
       3603.9636     0.084110759
       3604.9260     0.082550692
       3605.8884      0.11259435
       3606.8507      0.14124434
       3607.8131      0.14598919
       3608.7754      0.11116287
       3609.7378     0.068498727
       3610.7002    0.0092493271
       3611.6625     0.044845949
       3612.6249      0.11438584
       3613.5872      0.12154272
       3614.5496     0.090486006
       3615.5120     0.058949161
       3616.4743      0.13256260
       3617.4367      0.11895893
       3618.3990     0.052247593
       3619.3614      0.13797267
       3620.3238     0.099597320
       3621.2861      0.13936221
       3622.2485      0.14627566
       3623.2108     0.082472381
       3624.1732     0.093059339
       3625.1356      0.12299797
       3626.0979     0.087970293
       3627.0603      0.10141410
       3628.0226      0.13410614
       3628.9850      0.18540879
       3629.9474      0.10928682
       3630.9097     0.078342347
       3631.8721      0.10217587
       3632.8345      0.16449536
       3633.7968     0.076705897
       3634.7592      0.12906805
       3635.7215      0.16012347
       3636.6839      0.10606850
       3637.6463      0.15049353
       3638.6086     0.014936615
       3639.5710     0.084378762
       3640.5333     0.062662991
       3641.4957     0.094328598
       3642.4581     0.088022629
       3643.4204      0.10794124
       3644.3828      0.18702076
       3645.3451     0.077315851
       3646.3075     0.064028580
       3647.2699      0.12519380
       3648.2322     0.078628198
       3649.1946     0.081885620
       3650.1569     0.095656991
       3651.1193      0.13707777
       3652.0817     0.065855296
       3653.0440      0.13568286
       3654.0064     0.082282690
       3654.9687      0.10734031
       3655.9311      0.14026117
       3656.8935      0.13196408
       3657.8558      0.15710485
       3658.8182      0.17733700
       3659.7805     0.079956419
       3660.7429     0.062324056
       3661.7053     0.072992933
       3662.6676      0.12184436
       3663.6300     0.096361738
       3664.5923     0.077243817
       3665.5547     0.084063005
       3666.5171     0.091216303
       3667.4794      0.11709435
       3668.4418      0.14835267
       3669.4041      0.15462926
       3670.3665      0.10666548
       3671.3289      0.11251050
       3672.2912     0.066466323
       3673.2536      0.15816575
       3674.2159      0.10227074
       3675.1783      0.14264369
       3676.1407      0.16285531
       3677.1030      0.13869223
       3678.0654      0.14005520
       3679.0277      0.11020325
       3679.9901     0.019357336
       3680.9525     0.081813218
       3681.9148     0.056163014
       3682.8772      0.13499118
       3683.8395      0.15250506
       3684.8019      0.13668749
       3685.7643      0.15372543
       3686.7266     0.098486710
       3687.6890      0.11198466
       3688.6514      0.12172194
       3689.6137      0.14823206
       3690.5761      0.14559238
       3691.5384      0.13445357
       3692.5008      0.10188995
       3693.4632      0.13317148
       3694.4255      0.14922592
       3695.3879     0.098330120
       3696.3502     0.076264236
       3697.3126     0.040698614
       3698.2750      0.12372699
       3699.2373      0.15106746
       3700.1997     0.050146405
       3701.1620      0.12649088
       3702.1244      0.16272705
       3703.0868      0.13732060
       3704.0491      0.12546061
       3705.0115     0.087617118
       3705.9738      0.14577864
       3706.9362      0.12009531
       3707.8986     0.087214981
       3708.8609      0.14175869
       3709.8233      0.16143215
       3710.7856     0.084666785
       3711.7480      0.17104273
       3712.7104      0.12575024
       3713.6727      0.14091128
       3714.6351      0.13880715
       3715.5974      0.10160655
       3716.5598      0.16536423
       3717.5222      0.10351013
       3718.4845      0.17486704
       3719.4469      0.15413231
       3720.4092      0.13462006
       3721.3716      0.10828465
       3722.3340      0.15368902
       3723.2963      0.17149659
       3724.2587      0.15842461
       3725.2210      0.20944446
       3726.1834      0.28956855
       3727.1458      0.27967143
       3728.1081      0.31251210
       3729.0705      0.29471928
       3730.0328      0.32353174
       3730.9952      0.22308019
       3731.9576      0.21128158
       3732.9199      0.12181577
       3733.8823     0.063293038
       3734.8446     0.071869351
       3735.8070     0.087648006
       3736.7694      0.15246045
       3737.7317      0.14289359
       3738.6941      0.11687068
       3739.6564     0.093680045
       3740.6188      0.15029091
       3741.5812      0.13686128
       3742.5435      0.17830349
       3743.5059      0.19544147
       3744.4682      0.14704318
       3745.4306      0.13826823
       3746.3930      0.12407670
       3747.3553      0.10154489
       3748.3177      0.11381159
       3749.2801     0.052244589
       3750.2424      0.12761900
       3751.2048      0.17163240
       3752.1671      0.21019378
       3753.1295      0.16784434
       3754.0919      0.18231546
       3755.0542      0.17859650
       3756.0166      0.12202574
       3756.9789      0.14122134
       3757.9413      0.15796848
       3758.9037      0.14382466
       3759.8660      0.13417858
       3760.8284     0.093246637
       3761.7907      0.15307121
       3762.7531      0.14257846
       3763.7155      0.17468145
       3764.6778      0.17413487
       3765.6402      0.15182776
       3766.6025      0.13603570
       3767.5649      0.14417802
       3768.5273      0.13104349
       3769.4896      0.11536284
       3770.4520      0.14358312
       3771.4143      0.13754632
       3772.3767      0.16399159
       3773.3391      0.15879509
       3774.3014      0.16904862
       3775.2638      0.18941508
       3776.2261      0.14632492
       3777.1885      0.18322253
       3778.1509      0.19758645
       3779.1132      0.15626511
       3780.0756      0.18414378
       3781.0379      0.21369020
       3782.0003      0.19263923
       3782.9627      0.17282603
       3783.9250      0.19216868
       3784.8874      0.21705433
       3785.8497      0.20096859
       3786.8121      0.15572873
       3787.7745      0.19141967
       3788.7368      0.16725666
       3789.6992      0.13557498
       3790.6615      0.13847341
       3791.6239      0.18115187
       3792.5863      0.18206382
       3793.5486      0.14945631
       3794.5110      0.15876106
       3795.4733      0.18391241
       3796.4357      0.13304943
       3797.3981      0.10756889
       3798.3604      0.21016048
       3799.3228      0.11200110
       3800.2851      0.15810229
       3801.2475      0.20096742
       3802.2099      0.18162145
       3803.1722      0.22349152
       3804.1346      0.18996210
       3805.0969      0.15745094
       3806.0593      0.21236709
       3807.0217      0.13109983
       3807.9840      0.23021593
       3808.9464      0.20607657
       3809.9088      0.20830467
       3810.8711      0.24241755
       3811.8335      0.21686687
       3812.7958      0.22869848
       3813.7582      0.17576483
       3814.7206      0.24023789
       3815.6829      0.24480474
       3816.6453      0.24983515
       3817.6076      0.24178090
       3818.5700      0.16770304
       3819.5324      0.18774785
       3820.4947      0.31676994
       3821.4571      0.22158502
       3822.4194      0.26992421
       3823.3818      0.21206720
       3824.3442      0.19212053
       3825.3065      0.17766883
       3826.2689      0.16275717
       3827.2312      0.20166459
       3828.1936      0.12655777
       3829.1560      0.12063130
       3830.1183      0.14712572
       3831.0807      0.15028403
       3832.0430      0.15762494
       3833.0054      0.12233371
       3833.9678      0.14570718
       3834.9301      0.10927337
       3835.8925      0.15159019
       3836.8548     0.090303011
       3837.8172      0.16320504
       3838.7796      0.17740051
       3839.7419      0.17930728
       3840.7043      0.19668444
       3841.6666      0.14967906
       3842.6290      0.23712501
       3843.5914      0.19926984
       3844.5537      0.16959099
       3845.5161      0.20088994
       3846.4784      0.25563002
       3847.4408      0.24165851
       3848.4032      0.29635671
       3849.3655      0.24962272
       3850.3279      0.26943389
       3851.2902      0.19184275
       3852.2526      0.18264549
       3853.2150      0.16305241
       3854.1773      0.22130901
       3855.1397      0.19915203
       3856.1020      0.24145199
       3857.0644      0.16353477
       3858.0268      0.15526688
       3858.9891      0.19051815
       3859.9515      0.20179370
       3860.9138      0.19453919
       3861.8762      0.22426399
       3862.8386      0.23109578
       3863.8009      0.27051826
       3864.7633      0.24164028
       3865.7257      0.24634577
       3866.6880      0.26201203
       3867.6504      0.22370352
       3868.6127      0.32917349
       3869.5751      0.27364016
       3870.5375      0.24604686
       3871.4998      0.17780185
       3872.4622      0.25831370
       3873.4245      0.23006713
       3874.3869      0.21368743
       3875.3493      0.22005996
       3876.3116      0.26671518
       3877.2740      0.20036790
       3878.2363      0.18981346
       3879.1987      0.24221155
       3880.1611      0.20902168
       3881.1234      0.12744391
       3882.0858      0.17843247
       3883.0481      0.13228036
       3884.0105      0.18039561
       3884.9729      0.14179382
       3885.9352      0.14958688
       3886.8976      0.21355835
       3887.8599      0.14971039
       3888.8223      0.14817840
       3889.7847      0.16640738
       3890.7470      0.12140121
       3891.7094      0.17674877
       3892.6717      0.22262909
       3893.6341      0.21357552
       3894.5965      0.21930637
       3895.5588      0.17277535
       3896.5212      0.15058196
       3897.4835      0.20623405
       3898.4459      0.21420727
       3899.4083      0.21464845
       3900.3706      0.17934499
       3901.3330      0.27696135
       3902.2953      0.14792050
       3903.2577      0.20418284
       3904.2201      0.19462476
       3905.1824      0.22248997
       3906.1448      0.25683313
       3907.1071      0.25982435
       3908.0695      0.23983893
       3909.0319      0.25142153
       3909.9942      0.28186200
       3910.9566      0.27150810
       3911.9189      0.24153063
       3912.8813      0.26102127
       3913.8437      0.23599913
       3914.8060      0.28994827
       3915.7684      0.20984469
       3916.7307      0.20744790
       3917.6931      0.22185578
       3918.6555      0.23374078
       3919.6178      0.22003403
       3920.5802      0.27067284
       3921.5425      0.24341889
       3922.5049      0.19916642
       3923.4673      0.24545244
       3924.4296      0.27921323
       3925.3920      0.25145036
       3926.3544      0.18552385
       3927.3167      0.15630455
       3928.2791      0.18286753
       3929.2414      0.13382628
       3930.2038      0.14552371
       3931.1662      0.16974751
       3932.1285      0.15266783
       3933.0909      0.16423286
       3934.0532      0.17816959
       3935.0156      0.21184691
       3935.9780      0.17321789
       3936.9403      0.20123937
       3937.9027      0.19399963
       3938.8650      0.17889524
       3939.8274      0.21712585
       3940.7898      0.19463023
       3941.7521      0.21145556
       3942.7145      0.22990280
       3943.6768      0.22514541
       3944.6392      0.23329843
       3945.6016      0.25184936
       3946.5639      0.20979879
       3947.5263      0.24821834
       3948.4886      0.20126921
       3949.4510      0.22725988
       3950.4134      0.29342774
       3951.3757      0.23744139
       3952.3381      0.26529478
       3953.3004      0.24354114
       3954.2628      0.18467455
       3955.2252      0.25965857
       3956.1875      0.24916466
       3957.1499      0.22448755
       3958.1122      0.18815338
       3959.0746      0.16785753
       3960.0370      0.19866925
       3960.9993      0.15210574
       3961.9617      0.13879713
       3962.9240      0.16694896
       3963.8864      0.13895569
       3964.8488      0.12470609
       3965.8111      0.12233177
       3966.7735      0.15359051
       3967.7358      0.14937481
       3968.6982     0.099643171
       3969.6606      0.15813024
       3970.6229      0.15231419
       3971.5853      0.16521363
       3972.5476      0.23846979
       3973.5100      0.19336771
       3974.4724      0.21438943
       3975.4347      0.22405983
       3976.3971      0.24812558
       3977.3594      0.27354380
       3978.3218      0.25321346
       3979.2842      0.29656493
       3980.2465      0.20348446
       3981.2089      0.28615125
       3982.1713      0.29249294
       3983.1336      0.28339395
       3984.0960      0.25307170
       3985.0583      0.22656166
       3986.0207      0.28760152
       3986.9831      0.20527752
       3987.9454      0.26295331
       3988.9078      0.29169338
       3989.8701      0.32784205
       3990.8325      0.25585167
       3991.7949      0.27495718
       3992.7572      0.26072282
       3993.7196      0.24661243
       3994.6819      0.26720273
       3995.6443      0.28095902
       3996.6067      0.29036620
       3997.5690      0.28380232
       3998.5314      0.30962093
       3999.4937      0.26732343
       4000.4561      0.30616395
       4001.4185      0.29973175
       4002.3808      0.34838473
       4003.3432      0.27195806
       4004.3055      0.28520806
       4005.2679      0.34097050
       4006.2303      0.39563155
       4007.1926      0.27128922
       4008.1550      0.30532880
       4009.1173      0.30794619
       4010.0797      0.32090455
       4011.0421      0.22646278
       4012.0044      0.30266357
       4012.9668      0.29841733
       4013.9291      0.26121599
       4014.8915      0.26981992
       4015.8539      0.32572673
       4016.8162      0.34245486
       4017.7786      0.27508095
       4018.7409      0.25652961
       4019.7033      0.31013087
       4020.6657      0.26208129
       4021.6280      0.23997189
       4022.5904      0.26560579
       4023.5527      0.30772658
       4024.5151      0.27251343
       4025.4775      0.27538487
       4026.4398      0.32602817
       4027.4022      0.26865361
       4028.3645      0.26305336
       4029.3269      0.28618263
       4030.2893      0.26776566
       4031.2516      0.28185481
       4032.2140      0.34484749
       4033.1763      0.33352816
       4034.1387      0.28793014
       4035.1011      0.30416138
       4036.0634      0.28601084
       4037.0258      0.27828229
       4037.9881      0.28924996
       4038.9505      0.25149328
       4039.9129      0.29075640
       4040.8752      0.33711189
       4041.8376      0.29032413
       4042.8000      0.25393304
       4043.7623      0.33217928
       4044.7247      0.30584987
       4045.6870      0.31494029
       4046.6494      0.34840387
       4047.6118      0.28496871
       4048.5741      0.26098097
       4049.5365      0.24594399
       4050.4988      0.25550778
       4051.4612      0.27105332
       4052.4236      0.28524751
       4053.3859      0.30277984
       4054.3483      0.33867608
       4055.3106      0.23690867
       4056.2730      0.28779711
       4057.2354      0.32618755
       4058.1977      0.33881006
       4059.1601      0.26506391
       4060.1224      0.26078414
       4061.0848      0.27098040
       4062.0472      0.27329687
       4063.0095      0.26607825
       4063.9719      0.30513841
       4064.9342      0.28665921
       4065.8966      0.27628533
       4066.8590      0.24918274
       4067.8213      0.26647871
       4068.7837      0.25421416
       4069.7460      0.23317158
       4070.7084      0.28006186
       4071.6708      0.21833932
       4072.6331      0.22722760
       4073.5955      0.28410756
       4074.5578      0.28642188
       4075.5202      0.36416973
       4076.4826      0.34364562
       4077.4449      0.29129350
       4078.4073      0.28827156
       4079.3696      0.27564789
       4080.3320      0.29408549
       4081.2944      0.31352309
       4082.2567      0.27543434
       4083.2191      0.28630148
       4084.1814      0.27998975
       4085.1438      0.35312083
       4086.1062      0.25048235
       4087.0685      0.28576059
       4088.0309      0.27687599
       4088.9932      0.32780069
       4089.9556      0.25569522
       4090.9180      0.24358310
       4091.8803      0.22752609
       4092.8427      0.23383877
       4093.8050      0.23453083
       4094.7674      0.20199134
       4095.7298      0.23911897
       4096.6921      0.24134890
       4097.6545      0.18609554
       4098.6169      0.27236301
       4099.5792      0.25841677
       4100.5416      0.27219266
       4101.5039      0.27562181
       4102.4663      0.32258501
       4103.4287      0.32561033
       4104.3910      0.29545682
       4105.3534      0.22901697
       4106.3157      0.24368214
       4107.2781      0.32353486
       4108.2405      0.28628778
       4109.2028      0.26629879
       4110.1652      0.30880296
       4111.1275      0.38154072
       4112.0899      0.25484813
       4113.0523      0.26491561
       4114.0146      0.31157138
       4114.9770      0.30982943
       4115.9393      0.28755515
       4116.9017      0.34280169
       4117.8641      0.31704022
       4118.8264      0.31596089
       4119.7888      0.29996418
       4120.7511      0.31408204
       4121.7135      0.30240232
       4122.6759      0.29369888
       4123.6382      0.30735265
       4124.6006      0.37059777
       4125.5629      0.27870925
       4126.5253      0.34891304
       4127.4877      0.29783274
       4128.4500      0.35149426
       4129.4124      0.38935335
       4130.3747      0.35458637
       4131.3371      0.33739784
       4132.2995      0.31609061
       4133.2618      0.26905073
       4134.2242      0.33246303
       4135.1865      0.30564290
       4136.1489      0.28025537
       4137.1113      0.28205551
       4138.0736      0.38950299
       4139.0360      0.33848931
       4139.9983      0.32647404
       4140.9607      0.27699555
       4141.9231      0.27802933
       4142.8854      0.31839103
       4143.8478      0.29694193
       4144.8101      0.31619989
       4145.7725      0.32960482
       4146.7349      0.36899731
       4147.6972      0.28901736
       4148.6596      0.32650064
       4149.6219      0.30871860
       4150.5843      0.21421765
       4151.5467      0.28920934
       4152.5090      0.29186229
       4153.4714      0.29304886
       4154.4337      0.34823321
       4155.3961      0.31648449
       4156.3585      0.34191060
       4157.3208      0.35969223
       4158.2832      0.30188861
       4159.2456      0.31745764
       4160.2079      0.38775754
       4161.1703      0.26706100
       4162.1326      0.34456055
       4163.0950      0.39844403
       4164.0574      0.33803876
       4165.0197      0.30684322
       4165.9821      0.29042388
       4166.9444      0.31185853
       4167.9068      0.30937304
       4168.8692      0.36054338
       4169.8315      0.34400389
       4170.7939      0.28235249
       4171.7562      0.27807488
       4172.7186      0.25777104
       4173.6810      0.32168665
       4174.6433      0.32633418
       4175.6057      0.33709282
       4176.5680      0.29333114
       4177.5304      0.26576345
       4178.4928      0.26909829
       4179.4551      0.29551783
       4180.4175      0.34320362
       4181.3798      0.36569323
       4182.3422      0.33975081
       4183.3046      0.31076805
       4184.2669      0.35599050
       4185.2293      0.33940502
       4186.1916      0.35879119
       4187.1540      0.28704671
       4188.1164      0.28281823
       4189.0787      0.29860846
       4190.0411      0.36253942
       4191.0034      0.36076645
       4191.9658      0.28786497
       4192.9282      0.33833772
       4193.8905      0.29850271
       4194.8529      0.32801037
       4195.8152      0.36006234
       4196.7776      0.34045692
       4197.7400      0.37476468
       4198.7023      0.39704258
       4199.6647      0.35415234
       4200.6270      0.36763542
       4201.5894      0.35063408
       4202.5518      0.34717851
       4203.5141      0.28719133
       4204.4765      0.32963937
       4205.4388      0.28294208
       4206.4012      0.37177121
       4207.3636      0.33993248
       4208.3259      0.39782960
       4209.2883      0.40066237
       4210.2506      0.37484130
       4211.2130      0.36431546
       4212.1754      0.37727958
       4213.1377      0.33848443
       4214.1001      0.25706328
       4215.0625      0.33786904
       4216.0248      0.31504558
       4216.9872      0.34281297
       4217.9495      0.30312336
       4218.9119      0.29720496
       4219.8743      0.25159958
       4220.8366      0.32557539
       4221.7990      0.30700234
       4222.7613      0.31759638
       4223.7237      0.36171171
       4224.6861      0.35241798
       4225.6484      0.28918066
       4226.6108      0.35657313
       4227.5731      0.32676499
       4228.5355      0.28924562
       4229.4979      0.33383166
       4230.4602      0.35964659
       4231.4226      0.35021436
       4232.3849      0.32571924
       4233.3473      0.32091741
       4234.3097      0.31450842
       4235.2720      0.27379637
       4236.2344      0.38270982
       4237.1967      0.34969148
       4238.1591      0.26071392
       4239.1215      0.31132618
       4240.0838      0.34012744
       4241.0462      0.30064775
       4242.0085      0.35282701
       4242.9709      0.35835688
       4243.9333      0.37086312
       4244.8956      0.30061917
       4245.8580      0.37782688
       4246.8203      0.30476687
       4247.7827      0.31765678
       4248.7451      0.32793160
       4249.7074      0.32540384
       4250.6698      0.39062729
       4251.6321      0.29902664
       4252.5945      0.35274303
       4253.5569      0.37141917
       4254.5192      0.42091877
       4255.4816      0.34685411
       4256.4439      0.29536739
       4257.4063      0.35186902
       4258.3687      0.31959824
       4259.3310      0.32650667
       4260.2934      0.31846903
       4261.2557      0.31825827
       4262.2181      0.26985635
       4263.1805      0.28269461
       4264.1428      0.28126563
       4265.1052      0.31835058
       4266.0675      0.33232776
       4267.0299      0.39942004
       4267.9923      0.35717764
       4268.9546      0.33344017
       4269.9170      0.30038224
       4270.8793      0.34589145
       4271.8417      0.26723395
       4272.8041      0.31072431
       4273.7664      0.33072627
       4274.7288      0.38671895
       4275.6912      0.33588249
       4276.6535      0.34402912
       4277.6159      0.34127710
       4278.5782      0.33637305
       4279.5406      0.30434799
       4280.5030      0.27723758
       4281.4653      0.25514677
       4282.4277      0.34344116
       4283.3900      0.32590959
       4284.3524      0.30189119
       4285.3148      0.28668453
       4286.2771      0.33676523
       4287.2395      0.26965788
       4288.2018      0.27426748
       4289.1642      0.21502363
       4290.1266      0.24230228
       4291.0889      0.25790295
       4292.0513      0.26265287
       4293.0136      0.31866914
       4293.9760      0.29234585
       4294.9384      0.36183021
       4295.9007      0.31577621
       4296.8631      0.28885197
       4297.8254      0.27648863
       4298.7878      0.30559363
       4299.7502      0.31261058
       4300.7125      0.33397941
       4301.6749      0.37602661
       4302.6372      0.28673154
       4303.5996      0.28505772
       4304.5620      0.26422383
       4305.5243      0.34083591
       4306.4867      0.32049546
       4307.4490      0.30225922
       4308.4114      0.35919075
       4309.3738      0.32890906
       4310.3361      0.33143082
       4311.2985      0.33052222
       4312.2608      0.26542586
       4313.2232      0.30278677
       4314.1856      0.28190203
       4315.1479      0.26402582
       4316.1103      0.30076500
       4317.0726      0.30809977
       4318.0350      0.37306979
       4318.9974      0.38050588
       4319.9597      0.32822319
       4320.9221      0.29000785
       4321.8844      0.28261606
       4322.8468      0.31806605
       4323.8092      0.32633533
       4324.7715      0.33448236
       4325.7339      0.34032489
       4326.6962      0.22880583
       4327.6586      0.28580266
       4328.6210      0.29066742
       4329.5833      0.32529935
       4330.5457      0.25869262
       4331.5081      0.24184549
       4332.4704      0.30161964
       4333.4328      0.32606279
       4334.3951      0.30617866
       4335.3575      0.36637178
       4336.3199      0.35275950
       4337.2822      0.29867610
       4338.2446      0.29474743
       4339.2069      0.36264910
       4340.1693      0.32123000
       4341.1317      0.31783872
       4342.0940      0.36979324
       4343.0564      0.35757573
       4344.0187      0.33582250
       4344.9811      0.34861264
       4345.9435      0.35535749
       4346.9058      0.35975288
       4347.8682      0.40224594
       4348.8305      0.37371850
       4349.7929      0.42411898
       4350.7553      0.39526284
       4351.7176      0.33963790
       4352.6800      0.35301588
       4353.6423      0.33679441
       4354.6047      0.34774168
       4355.5671      0.35083814
       4356.5294      0.30987481
       4357.4918      0.36888471
       4358.4541      0.35645586
       4359.4165      0.34829904
       4360.3789      0.40333878
       4361.3412      0.33391040
       4362.3036      0.41214458
       4363.2659      0.39908285
       4364.2283      0.36305869
       4365.1907      0.37897319
       4366.1530      0.35158020
       4367.1154      0.32852549
       4368.0777      0.33599016
       4369.0401      0.35514077
       4370.0025      0.32599097
       4370.9648      0.34215745
       4371.9272      0.30171846
       4372.8895      0.32075057
       4373.8519      0.29754864
       4374.8143      0.30137092
       4375.7766      0.27101872
       4376.7390      0.29963636
       4377.7013      0.38659534
       4378.6637      0.33117253
       4379.6261      0.33015615
       4380.5884      0.40095456
       4381.5508      0.36577745
       4382.5131      0.34573738
       4383.4755      0.38075756
       4384.4379      0.39250435
       4385.4002      0.36287813
       4386.3626      0.38261940
       4387.3249      0.33120056
       4388.2873      0.31155173
       4389.2497      0.32565356
       4390.2120      0.35436204
       4391.1744      0.34754927
       4392.1368      0.37571507
       4393.0991      0.35291831
       4394.0615      0.35087667
       4395.0238      0.37792548
       4395.9862      0.43357721
       4396.9486      0.37494720
       4397.9109      0.37092908
       4398.8733      0.36405797
       4399.8356      0.36623316
       4400.7980      0.34922633
       4401.7604      0.38282587
       4402.7227      0.35662420
       4403.6851      0.42349855
       4404.6474      0.41723301
       4405.6098      0.34467289
       4406.5722      0.38855794
       4407.5345      0.34921676
       4408.4969      0.33200768
       4409.4592      0.35029240
       4410.4216      0.41295381
       4411.3840      0.43272596
       4412.3463      0.39227145
       4413.3087      0.35933110
       4414.2710      0.40261755
       4415.2334      0.36383396
       4416.1958      0.41180763
       4417.1581      0.38330485
       4418.1205      0.38217890
       4419.0828      0.36820361
       4420.0452      0.34715648
       4421.0076      0.38163280
       4421.9699      0.40768402
       4422.9323      0.40578481
       4423.8946      0.41878144
       4424.8570      0.42862988
       4425.8194      0.44170823
       4426.7817      0.37218476
       4427.7441      0.42526167
       4428.7064      0.38192072
       4429.6688      0.37182906
       4430.6312      0.33824489
       4431.5935      0.39502475
       4432.5559      0.35034948
       4433.5182      0.36886975
       4434.4806      0.35242530
       4435.4430      0.38888676
       4436.4053      0.37343137
       4437.3677      0.41561089
       4438.3300      0.37565865
       4439.2924      0.36163905
       4440.2548      0.39574616
       4441.2171      0.40696151
       4442.1795      0.35780000
       4443.1418      0.37622138
       4444.1042      0.36773972
       4445.0666      0.34541925
       4446.0289      0.33511935
       4446.9913      0.35243954
       4447.9537      0.37714622
       4448.9160      0.36216343
       4449.8784      0.38819733
       4450.8407      0.39269638
       4451.8031      0.44771540
       4452.7655      0.31418785
       4453.7278      0.39294759
       4454.6902      0.41040415
       4455.6525      0.42475222
       4456.6149      0.40947428
       4457.5773      0.33720142
       4458.5396      0.34665584
       4459.5020      0.38769978
       4460.4643      0.45372946
       4461.4267      0.41005632
       4462.3891      0.36318627
       4463.3514      0.33824051
       4464.3138      0.43566076
       4465.2761      0.43647255
       4466.2385      0.41812469
       4467.2009      0.40857968
       4468.1632      0.35064997
       4469.1256      0.35428385
       4470.0879      0.39650637
       4471.0503      0.34701945
       4472.0127      0.38842692
       4472.9750      0.45858874
       4473.9374      0.37217997
       4474.8997      0.35086673
       4475.8621      0.36106417
       4476.8245      0.38471280
       4477.7868      0.34243609
       4478.7492      0.45391497
       4479.7115      0.38730915
       4480.6739      0.47318050
       4481.6363      0.36371465
       4482.5986      0.40106086
       4483.5610      0.40168297
       4484.5233      0.38127565
       4485.4857      0.43216189
       4486.4481      0.41344194
       4487.4104      0.42444856
       4488.3728      0.43901498
       4489.3351      0.43590230
       4490.2975      0.39975505
       4491.2599      0.40616276
       4492.2222      0.43659946
       4493.1846      0.42962284
       4494.1469      0.44228283
       4495.1093      0.41073967
       4496.0717      0.45301205
       4497.0340      0.45093826
       4497.9964      0.37444810
       4498.9587      0.39202584
       4499.9211      0.42353876
       4500.8835      0.36700710
       4501.8458      0.34083364
       4502.8082      0.42825658
       4503.7705      0.36255219
       4504.7329      0.41048348
       4505.6953      0.40864041
       4506.6576      0.39758265
       4507.6200      0.35421588
       4508.5824      0.33556025
       4509.5447      0.35384939
       4510.5071      0.35151889
       4511.4694      0.40263007
       4512.4318      0.44669351
       4513.3942      0.44273166
       4514.3565      0.35356911
       4515.3189      0.39211315
       4516.2812      0.32319987
       4517.2436      0.33272321
       4518.2060      0.40048845
       4519.1683      0.46238435
       4520.1307      0.41782312
       4521.0930      0.44148211
       4522.0554      0.38835792
       4523.0178      0.37914485
       4523.9801      0.35565659
       4524.9425      0.40263347
       4525.9048      0.44575535
       4526.8672      0.40478032
       4527.8296      0.38105037
       4528.7919      0.37113509
       4529.7543      0.37514843
       4530.7166      0.37737251
       4531.6790      0.33488000
       4532.6414      0.38321988
       4533.6037      0.35683461
       4534.5661      0.31842743
       4535.5284      0.36214188
       4536.4908      0.48281104
       4537.4532      0.46746003
       4538.4155      0.36618593
       4539.3779      0.43573080
       4540.3402      0.43316564
       4541.3026      0.39854684
       4542.2650      0.36395806
       4543.2273      0.33742334
       4544.1897      0.40435099
       4545.1520      0.37145153
       4546.1144      0.36864985
       4547.0768      0.36120292
       4548.0391      0.41588984
       4549.0015      0.46654846
       4549.9638      0.42461960
       4550.9262      0.36251599
       4551.8886      0.40806052
       4552.8509      0.42877087
       4553.8133      0.41839258
       4554.7756      0.38808378
       4555.7380      0.42009257
       4556.7004      0.45465496
       4557.6627      0.36358153
       4558.6251      0.37143374
       4559.5874      0.32905879
       4560.5498      0.38511180
       4561.5122      0.35892464
       4562.4745      0.36384649
       4563.4369      0.33022372
       4564.3993      0.39376090
       4565.3616      0.42575562
       4566.3240      0.43561257
       4567.2863      0.44563799
       4568.2487      0.40827999
       4569.2111      0.41132660
       4570.1734      0.49191021
       4571.1358      0.44274566
       4572.0981      0.40042501
       4573.0605      0.44394726
       4574.0229      0.35094519
       4574.9852      0.44121987
       4575.9476      0.37047143
       4576.9099      0.44111898
       4577.8723      0.40106691
       4578.8347      0.40038331
       4579.7970      0.37316129
       4580.7594      0.39464407
       4581.7217      0.39706774
       4582.6841      0.43745802
       4583.6465      0.43059792
       4584.6088      0.49283185
       4585.5712      0.50751403
       4586.5335      0.41504884
       4587.4959      0.43574794
       4588.4583      0.43804982
       4589.4206      0.47598863
       4590.3830      0.32703006
       4591.3453      0.40673089
       4592.3077      0.40072549
       4593.2701      0.40890400
       4594.2324      0.48701157
       4595.1948      0.41825175
       4596.1571      0.42413658
       4597.1195      0.42577091
       4598.0819      0.38024524
       4599.0442      0.43355572
       4600.0066      0.40845787
       4600.9689      0.39496229
       4601.9313      0.54119188
       4602.8937      0.41973014
       4603.8560      0.45904682
       4604.8184      0.42860317
       4605.7807      0.45354105
       4606.7431      0.47569394
       4607.7055      0.41858493
       4608.6678      0.43387230
       4609.6302      0.39471081
       4610.5925      0.46443211
       4611.5549      0.51574999
       4612.5173      0.49962862
       4613.4796      0.44351335
       4614.4420      0.43882172
       4615.4043      0.43584032
       4616.3667      0.41980179
       4617.3291      0.42870268
       4618.2914      0.44116736
       4619.2538      0.50857376
       4620.2161      0.40775190
       4621.1785      0.40125270
       4622.1409      0.33358825
       4623.1032      0.41171530
       4624.0656      0.43466248
       4625.0280      0.39891569
       4625.9903      0.38023242
       4626.9527      0.40912928
       4627.9150      0.42335812
       4628.8774      0.46538337
       4629.8398      0.46426746
       4630.8021      0.40637183
       4631.7645      0.41067114
       4632.7268      0.42892705
       4633.6892      0.45352382
       4634.6516      0.31793310
       4635.6139      0.44236254
       4636.5763      0.45380253
       4637.5386      0.43285038
       4638.5010      0.38108815
       4639.4634      0.38731061
       4640.4257      0.35395279
       4641.3881      0.42145398
       4642.3504      0.41727522
       4643.3128      0.42875423
       4644.2752      0.50761282
       4645.2375      0.44352738
       4646.1999      0.39346881
       4647.1622      0.42282580
       4648.1246      0.39224313
       4649.0870      0.43023636
       4650.0493      0.45101378
       4651.0117      0.40644166
       4651.9740      0.42280900
       4652.9364      0.42890161
       4653.8988      0.35352945
       4654.8611      0.36085674
       4655.8235      0.38581917
       4656.7858      0.39383942
       4657.7482      0.41372366
       4658.7106      0.41040689
       4659.6729      0.39823192
       4660.6353      0.36402505
       4661.5976      0.38727869
       4662.5600      0.40270708
       4663.5224      0.40473265
       4664.4847      0.35901366
       4665.4471      0.41535410
       4666.4094      0.40282849
       4667.3718      0.45323499
       4668.3342      0.43233652
       4669.2965      0.39029036
       4670.2589      0.40900543
       4671.2212      0.39213821
       4672.1836      0.39580178
       4673.1460      0.35891776
       4674.1083      0.44117498
       4675.0707      0.42227045
       4676.0330      0.39163102
       4676.9954      0.42511874
       4677.9578      0.34676663
       4678.9201      0.42580763
       4679.8825      0.37571729
       4680.8449      0.39967107
       4681.8072      0.42101175
       4682.7696      0.31557590
       4683.7319      0.37643947
       4684.6943      0.36866276
       4685.6567      0.40632447
       4686.6190      0.44733045
       4687.5814      0.42142381
       4688.5437      0.44570894
       4689.5061      0.36636099
       4690.4685      0.38238007
       4691.4308      0.39456067
       4692.3932      0.36607191
       4693.3555      0.40041965
       4694.3179      0.38122709
       4695.2803      0.44398805
       4696.2426      0.44996371
       4697.2050      0.40386858
       4698.1673      0.37378141
       4699.1297      0.42779584
       4700.0921      0.40791554
       4701.0544      0.39803342
       4702.0168      0.41531472
       4702.9791      0.40710692
       4703.9415      0.36722312
       4704.9039      0.40462666
       4705.8662      0.41222937
       4706.8286      0.39842930
       4707.7909      0.41976272
       4708.7533      0.36422409
       4709.7157      0.42717606
       4710.6780      0.42681595
       4711.6404      0.38069155
       4712.6027      0.40163553
       4713.5651      0.38913655
       4714.5275      0.38506864
       4715.4898      0.33228125
       4716.4522      0.34586814
       4717.4145      0.34835480
       4718.3769      0.33169793
       4719.3393      0.39192581
       4720.3016      0.37884506
       4721.2640      0.40591410
       4722.2263      0.39355846
       4723.1887      0.42830664
       4724.1511      0.43062247
       4725.1134      0.39268408
       4726.0758      0.42767923
       4727.0381      0.37978296
       4728.0005      0.38875746
       4728.9629      0.34753451
       4729.9252      0.41972018
       4730.8876      0.37632421
       4731.8499      0.44486207
       4732.8123      0.42994762
       4733.7747      0.41148137
       4734.7370      0.31710594
       4735.6994      0.38731692
       4736.6617      0.40380969
       4737.6241      0.38043290
       4738.5865      0.39230044
       4739.5488      0.39973563
       4740.5112      0.39551389
       4741.4736      0.34612457
       4742.4359      0.37367344
       4743.3983      0.48805812
       4744.3606      0.40841519
       4745.3230      0.39276875
       4746.2854      0.40012949
       4747.2477      0.43675187
       4748.2101      0.36097559
       4749.1724      0.38517440
       4750.1348      0.39601625
       4751.0972      0.42455469
       4752.0595      0.44814710
       4753.0219      0.43599556
       4753.9842      0.39501464
       4754.9466      0.44932572
       4755.9090      0.44976638
       4756.8713      0.39154169
       4757.8337      0.38685565
       4758.7960      0.36115328
       4759.7584      0.36825828
       4760.7208      0.36974557
       4761.6831      0.39255509
       4762.6455      0.40797666
       4763.6078      0.36176127
       4764.5702      0.39428295
       4765.5326      0.45629752
       4766.4949      0.48004350
       4767.4573      0.49720049
       4768.4196      0.49458483
       4769.3820      0.45509614
       4770.3444      0.40502388
       4771.3067      0.40032016
       4772.2691      0.41200132
       4773.2314      0.41871986
       4774.1938      0.40579706
       4775.1562      0.41418587
       4776.1185      0.45317833
       4777.0809      0.43920802
       4778.0432      0.47525223
       4779.0056      0.45091441
       4779.9680      0.40322437
       4780.9303      0.51131948
       4781.8927      0.49472098
       4782.8550      0.49537241
       4783.8174      0.38432677
       4784.7798      0.41485080
       4785.7421      0.44126870
       4786.7045      0.38949224
       4787.6668      0.38827756
       4788.6292      0.40696178
       4789.5916      0.44963346
       4790.5539      0.42852719
       4791.5163      0.40934487
       4792.4786      0.41833630
       4793.4410      0.37226572
       4794.4034      0.38227766
       4795.3657      0.46029547
       4796.3281      0.43248799
       4797.2905      0.44195427
       4798.2528      0.39295528
       4799.2152      0.30996442
       4800.1775      0.35747833
       4801.1399      0.42626541
       4802.1023      0.39678533
       4803.0646      0.43438510
       4804.0270      0.38129241
       4804.9893      0.44431174
       4805.9517      0.37538865
       4806.9141      0.40673109
       4807.8764      0.43211461
       4808.8388      0.49488139
       4809.8011      0.44161947
       4810.7635      0.34689184
       4811.7259      0.38355543
       4812.6882      0.44692124
       4813.6506      0.39315767
       4814.6129      0.41593900
       4815.5753      0.36642356
       4816.5377      0.28236670
       4817.5000      0.39848540
       4818.4624      0.38296468
       4819.4247      0.37859658
       4820.3871      0.44028809
       4821.3495      0.42556372
       4822.3118      0.35150310
       4823.2742      0.37963930
       4824.2365      0.39560382
       4825.1989      0.34961297
       4826.1613      0.41669721
       4827.1236      0.54536069
       4828.0860      0.54952606
       4829.0483      0.57499226
       4830.0107      0.48969200
       4830.9731      0.50883836
       4831.9354      0.45124776
       4832.8978      0.43137379
       4833.8601      0.35411265
       4834.8225      0.40813653
       4835.7849      0.34490522
       4836.7472      0.36261558
       4837.7096      0.33877709
       4838.6719      0.38447079
       4839.6343      0.31876663
       4840.5967      0.41522883
       4841.5590      0.39937472
       4842.5214      0.43067425
       4843.4837      0.40586927
       4844.4461      0.41209106
       4845.4085      0.44753780
       4846.3708      0.42606929
       4847.3332      0.38689379
       4848.2955      0.37432205
       4849.2579      0.43285178
       4850.2203      0.41534769
       4851.1826      0.36988991
       4852.1450      0.28423953
       4853.1073      0.42950027
       4854.0697      0.35021533
       4855.0321      0.40493590
       4855.9944      0.30777445
       4856.9568      0.34068642
       4857.9192      0.35859874
       4858.8815      0.40042542
       4859.8439      0.38857105
       4860.8062      0.42354563
       4861.7686      0.38690045
       4862.7310      0.37667776
       4863.6933      0.38649966
       4864.6557      0.44034197
       4865.6180      0.42083964
       4866.5804      0.50446008
       4867.5428      0.36809072
       4868.5051      0.39246170
       4869.4675      0.42162854
       4870.4298      0.39035653
       4871.3922      0.30334352
       4872.3546      0.39158337
       4873.3169      0.50715511
       4874.2793      0.55957828
       4875.2416      0.59491331
       4876.2040      0.48785712
       4877.1664      0.39827226
       4878.1287      0.38968137
       4879.0911      0.43348568
       4880.0534      0.39414959
       4881.0158      0.40098392
       4881.9782      0.32975031
       4882.9405      0.26002749
       4883.9029      0.27890524
       4884.8652      0.34570176
       4885.8276      0.39998405
       4886.7900      0.40068987
       4887.7523      0.34634772
       4888.7147      0.32818660
       4889.6770      0.37445248
       4890.6394      0.36412552
       4891.6018      0.37336279
       4892.5641      0.44132842
       4893.5265      0.36625414
       4894.4888      0.28644402
       4895.4512      0.32372537
       4896.4136      0.45110693
       4897.3759      0.44355770
       4898.3383      0.35618505
       4899.3006      0.42015801
       4900.2630      0.37995638
       4901.2254      0.26064965
       4902.1877      0.35604965
       4903.1501      0.39766839
       4904.1124      0.34646498
       4905.0748      0.43614916
       4906.0372      0.41691220
       4906.9995      0.39218706
       4907.9619      0.33238311
       4908.9242      0.41492785
       4909.8866      0.46340771
