# wavelength flux
       2171.6522     0.033135624
       2172.4001     0.095955739
       2173.1480     0.056788972
       2173.8959     0.069981263
       2174.6438    -0.044149168
       2175.3916    -0.058987161
       2176.1395     0.051624535
       2176.8874     0.023433058
       2177.6353     0.041311638
       2178.3832     0.065164692
       2179.1311     0.039155586
       2179.8790     0.035760517
       2180.6269     0.055731782
       2181.3748     0.029238346
       2182.1226    -0.035417040
       2182.8705     0.036738356
       2183.6184      0.14326949
       2184.3663     0.032767246
       2185.1142    0.0083921537
       2185.8621    -0.048527185
       2186.6100   0.00053644838
       2187.3579     0.026202124
       2188.1058     0.057811332
       2188.8537     0.043775152
       2189.6015   -0.0053057556
       2190.3494     0.042310411
       2191.0973     0.093426230
       2191.8452     0.087376984
       2192.5931    -0.045817561
       2193.3410   -0.0051432796
       2194.0889    -0.036768605
       2194.8368     0.034370761
       2195.5847     0.079659234
       2196.3325     0.039983843
       2197.0804     0.017929807
       2197.8283     0.021976488
       2198.5762   -0.0087582328
       2199.3241     0.038253520
       2200.0720    -0.066741812
       2200.8199   0.00036506085
       2201.5678     0.030982405
       2202.3157    -0.051198222
       2203.0635    -0.016032716
       2203.8114    -0.069136647
       2204.5593    -0.021133866
       2205.3072    0.0013229749
       2206.0551     0.023296689
       2206.8030    0.0068629971
       2207.5509     0.095820046
       2208.2988    -0.056415607
       2209.0467    -0.026255196
       2209.7945   -0.0053970981
       2210.5424     0.032252354
       2211.2903    -0.014426272
       2212.0382     0.049490664
       2212.7861     0.053316562
       2213.5340    -0.031313864
       2214.2819    -0.036856917
       2215.0298     0.022331675
       2215.7777     0.054260047
       2216.5255     0.081394882
       2217.2734    0.0036963921
       2218.0213      0.12183285
       2218.7692     0.037645583
       2219.5171     0.042560184
       2220.2650   0.00010983275
       2221.0129     0.075243209
       2221.7608     0.084493781
       2222.5087      0.12280914
       2223.2565      0.13329657
       2224.0044     0.042246826
       2224.7523    -0.035146764
       2225.5002     0.086159493
       2226.2481     0.050385849
       2226.9960     0.083267492
       2227.7439     0.060258335
       2228.4918     0.016489715
       2229.2397     0.013833925
       2229.9875     0.042318689
       2230.7354    -0.028525136
       2231.4833     0.054061238
       2232.2312     0.021459267
       2232.9791     0.066688324
       2233.7270    0.0027433967
       2234.4749     0.036125069
       2235.2228    -0.030124317
       2235.9707    -0.015438843
       2236.7185     0.018809861
       2237.4664    -0.029691236
       2238.2143    -0.014973111
       2238.9622     0.047330707
       2239.7101     0.030350406
       2240.4580    -0.038844565
       2241.2059     0.027120564
       2241.9538     0.036824590
       2242.7017    0.0074869047
       2243.4496     0.084403092
       2244.1974    -0.011940527
       2244.9453     0.053906229
       2245.6932   -0.0043924571
       2246.4411    0.0079786383
       2247.1890     0.027285016
       2247.9369   -0.0020199632
       2248.6848    0.0072549289
       2249.4327     0.084476223
       2250.1806    -0.047074061
       2250.9284      0.11255863
       2251.6763     0.057428395
       2252.4242     0.025734583
       2253.1721     0.011046369
       2253.9200    -0.018230017
       2254.6679     0.075568387
       2255.4158     0.050300188
       2256.1637     0.025886346
       2256.9116     0.010500266
       2257.6594     0.052183775
       2258.4073      0.10024168
       2259.1552     0.060249807
       2259.9031     0.023282376
       2260.6510     0.056951106
       2261.3989     0.034523067
       2262.1468    -0.026400018
       2262.8947    -0.032205526
       2263.6426  -0.00077914489
       2264.3904     0.058858732
       2265.1383      0.11436732
       2265.8862    -0.025716010
       2266.6341    -0.027997053
       2267.3820   -0.0096681238
       2268.1299     0.022161138
       2268.8778     0.015543315
       2269.6257     0.049880817
       2270.3736     0.083846494
       2271.1214     0.040051393
       2271.8693    -0.018048916
       2272.6172     0.016034070
       2273.3651     0.058423133
       2274.1130    -0.052891020
       2274.8609     0.014178635
       2275.6088     0.016259393
       2276.3567     0.078496288
       2277.1046     0.091198609
       2277.8524     0.093122351
       2278.6003     0.019126539
       2279.3482     0.045302698
       2280.0961     0.045523227
       2280.8440     0.080092001
       2281.5919     0.072908824
       2282.3398     0.062231571
       2283.0877     0.045163063
       2283.8356     0.012163477
       2284.5834     0.099693517
       2285.3313     0.036270634
       2286.0792     0.026395001
       2286.8271     0.051646578
       2287.5750     0.056022771
       2288.3229     0.043183729
       2289.0708   -0.0021241771
       2289.8187    0.0050777729
       2290.5666     0.025354903
       2291.3145     0.063328587
       2292.0623     0.023608395
       2292.8102     0.051197084
       2293.5581     0.080807219
       2294.3060     0.026522226
       2295.0539    0.0050944816
       2295.8018    0.0087127694
       2296.5497    -0.021869746
       2297.2976     0.010047740
       2298.0455     0.023188064
       2298.7933    0.0050623202
       2299.5412   -0.0029364451
       2300.2891     0.023497608
       2301.0370     0.014165138
       2301.7849      0.13077464
       2302.5328     0.014468471
       2303.2807    -0.010366209
       2304.0286     0.012381314
       2304.7765   -0.0096073536
       2305.5243     0.047435121
       2306.2722     0.037082484
       2307.0201     0.039521487
       2307.7680     0.084553002
       2308.5159     0.034768734
       2309.2638   -0.0083016718
       2310.0117     0.061909337
       2310.7596     0.031430320
       2311.5075     0.069080842
       2312.2553    -0.010770298
       2313.0032   -0.0088368468
       2313.7511    -0.029064865
       2314.4990     0.049133671
       2315.2469     0.013624516
       2315.9948     0.012047230
       2316.7427     0.041268277
       2317.4906     0.029764877
       2318.2385     0.028257606
       2318.9863     0.062428326
       2319.7342    -0.018673200
       2320.4821     0.027841901
       2321.2300     0.021626217
       2321.9779     0.049470289
       2322.7258     0.042186825
       2323.4737    -0.024669025
       2324.2216   -0.0043519188
       2324.9695     0.051330973
       2325.7173     0.037154432
       2326.4652    -0.013542787
       2327.2131     0.029158117
       2327.9610     0.044708397
       2328.7089     0.034673352
       2329.4568     0.010913648
       2330.2047     0.058463583
       2330.9526    0.0023639166
       2331.7005     0.023546719
       2332.4483     0.029188304
       2333.1962     0.020153703
       2333.9441   -0.0024056394
       2334.6920     0.037434887
       2335.4399    0.0074137233
       2336.1878     0.031879196
       2336.9357    -0.023992036
       2337.6836     0.026429444
       2338.4315     0.028718190
       2339.1793     0.062877677
       2339.9272     0.034113909
       2340.6751     0.025511401
       2341.4230      0.12010061
       2342.1709     0.029294449
       2342.9188     0.072932226
       2343.6667     0.065536732
       2344.4146     0.060986320
       2345.1625     0.028532416
       2345.9104    0.0062890205
       2346.6582     0.024692360
       2347.4061     0.043120426
       2348.1540     0.044646026
       2348.9019     0.063594047
       2349.6498     0.020872306
       2350.3977     0.019064929
       2351.1456    0.0043728466
       2351.8935     0.044286615
       2352.6414     0.038018637
       2353.3892    -0.021427044
       2354.1371     0.032661971
       2354.8850     0.019283085
       2355.6329     0.023503527
       2356.3808     0.041715404
       2357.1287     0.038318798
       2357.8766     0.023819406
       2358.6245    0.0032397492
       2359.3724     0.016605100
       2360.1202   -0.0054911213
       2360.8681     0.011434094
       2361.6160     0.026506209
       2362.3639    -0.011854756
       2363.1118    -0.010098075
       2363.8597    -0.018381392
       2364.6076    -0.036111051
       2365.3555     0.012995120
       2366.1034     0.020869726
       2366.8512   -0.0083200231
       2367.5991     0.017635422
       2368.3470   -0.0070863995
       2369.0949     0.018934255
       2369.8428     0.025797636
       2370.5907     0.014756694
       2371.3386    -0.015365075
       2372.0865    0.0020511427
       2372.8344     0.028936363
       2373.5822     0.039782435
       2374.3301     0.026934581
       2375.0780     0.051100933
       2375.8259     0.041082577
       2376.5738     0.035869757
       2377.3217     0.042440724
       2378.0696     0.042870464
       2378.8175    0.0057237414
       2379.5654     0.036652859
       2380.3132     0.042517288
       2381.0611    0.0084753632
       2381.8090     0.049648511
       2382.5569     0.019394339
       2383.3048     0.022151268
       2384.0527     0.035883722
       2384.8006    -0.012180339
       2385.5485    0.0064675791
       2386.2964     0.019001240
       2387.0442     0.045854933
       2387.7921     0.014329371
       2388.5400     0.015213580
       2389.2879    0.0054052852
       2390.0358    0.0083150505
       2390.7837     0.022457012
       2391.5316     0.010806760
       2392.2795     0.018555565
       2393.0274   -0.0072349452
       2393.7753    0.0057469696
       2394.5231    -0.010749806
       2395.2710    0.0069142130
       2396.0189   -0.0018753054
       2396.7668    -0.028585972
       2397.5147     0.026176346
       2398.2626     0.039740578
       2399.0105     0.013605774
       2399.7584     0.032835585
       2400.5063     0.020105102
       2401.2541     0.033142988
       2402.0020   -0.0077619379
       2402.7499     0.032593972
       2403.4978    -0.013498381
       2404.2457     0.029464651
       2404.9936   -0.0023889259
       2405.7415  -0.00017424925
       2406.4894     0.018432779
       2407.2373     0.043624631
       2407.9851     0.036603284
       2408.7330     0.036662555
       2409.4809   -0.0056993943
       2410.2288    -0.012928705
       2410.9767   -0.0047960875
       2411.7246     0.033115783
       2412.4725     0.045674526
       2413.2204     0.026394271
       2413.9683    0.0033199761
       2414.7161  -0.00032435232
       2415.4640     0.022778079
       2416.2119    -0.031452266
       2416.9598     0.018418983
       2417.7077     0.031047201
       2418.4556     0.049823109
       2419.2035     0.049105670
       2419.9514     0.022469439
       2420.6993     0.055400432
       2421.4471     0.072262316
       2422.1950     0.031637625
       2422.9429    0.0098131502
       2423.6908    -0.012156464
       2424.4387    0.0048795787
       2425.1866     0.030973661
       2425.9345    -0.015775034
       2426.6824    -0.042013676
       2427.4303   -0.0048528629
       2428.1781     0.022734411
       2428.9260    0.0044037046
       2429.6739    0.0060488784
       2430.4218    -0.010893106
       2431.1697    0.0096792670
       2431.9176     0.015734141
       2432.6655     0.029340893
       2433.4134     0.038981314
       2434.1613     0.038110483
       2434.9091     0.022643580
       2435.6570     0.024238301
       2436.4049   -0.0017163147
       2437.1528     0.036230613
       2437.9007   -0.0014839895
       2438.6486     0.025319080
       2439.3965    0.0028071091
       2440.1444     0.029786486
       2440.8923     0.024489728
       2441.6401     0.023130449
       2442.3880     0.014465101
       2443.1359   -0.0044255602
       2443.8838     0.012677537
       2444.6317   0.00017592950
       2445.3796   -0.0042085105
       2446.1275     0.034836805
       2446.8754     0.017851677
       2447.6233     0.016387915
       2448.3712    0.0095468140
       2449.1190   -0.0038717168
       2449.8669    -0.015973059
       2450.6148     0.014605840
       2451.3627   -0.0052082889
       2452.1106     0.018281384
       2452.8585    0.0087922420
       2453.6064     0.026397060
       2454.3543     0.012205483
       2455.1022     0.023526367
       2455.8500   -0.0044133790
       2456.5979    -0.010342508
       2457.3458     0.012187676
       2458.0937    0.0033590168
       2458.8416     0.024680042
       2459.5895    -0.012864936
       2460.3374     0.020018784
       2461.0853   -0.0039567097
       2461.8332     0.028318111
       2462.5810     0.028631917
       2463.3289     0.012240996
       2464.0768     0.012581653
       2464.8247    0.0048352214
       2465.5726     0.034024771
       2466.3205    -0.031056932
       2467.0684     0.026082920
       2467.8163     0.030024040
       2468.5642  -0.00093108080
       2469.3120     0.028141079
       2470.0599   -0.0018970938
       2470.8078     0.050420120
       2471.5557     0.016914930
       2472.3036     0.018085377
       2473.0515    -0.035422840
       2473.7994     0.029126725
       2474.5473     0.019491493
       2475.2952    0.0065198567
       2476.0430     0.011908824
       2476.7909     0.011848050
       2477.5388    -0.024034272
       2478.2867   -0.0069792866
       2479.0346   -0.0074222978
       2479.7825     0.035568689
       2480.5304     0.021838111
       2481.2783     0.037350371
       2482.0262     0.018265657
       2482.7740     0.033138666
       2483.5219     0.025590935
       2484.2698     0.020357862
       2485.0177     0.025182688
       2485.7656     0.034718649
       2486.5135     0.020803034
       2487.2614     0.010519647
       2488.0093    -0.014561365
       2488.7572     0.011056715
       2489.5050     0.022572283
       2490.2529     0.014184495
       2491.0008    0.0081691039
       2491.7487    -0.017232126
       2492.4966   7.6744673e-05
       2493.2445   -0.0062334002
       2493.9924    -0.012292774
       2494.7403    -0.011072728
       2495.4882    0.0047821124
       2496.2360     0.025257990
       2496.9839     0.016771930
       2497.7318    0.0010472853
       2498.4797     0.013014580
       2499.2276    -0.021462144
       2499.9755    0.0034144982
       2500.7234    0.0098190258
       2501.4713     0.034415429
       2502.2192    0.0075603939
       2502.9671     0.015039565
       2503.7149    0.0022635330
       2504.4628     0.016154090
       2505.2107    -0.015400632
       2505.9586     0.031520836
       2506.7065   -0.0076876507
       2507.4544     0.026629424
       2508.2023   -0.0036995237
       2508.9502    0.0054018276
       2509.6981     0.038296241
       2510.4459     0.029334856
       2511.1938    0.0066189262
       2511.9417   0.00035157582
       2512.6896   -0.0010775432
       2513.4375     0.028318426
       2514.1854     0.033362600
       2514.9333     0.026193300
       2515.6812    0.0061700429
       2516.4291   -0.0040895694
       2517.1769  -0.00065827909
       2517.9248     0.046070267
       2518.6727     0.011727201
       2519.4206   -0.0017761716
       2520.1685     0.014455705
       2520.9164    0.0075504317
       2521.6643     0.013888021
       2522.4122    -0.010118759
       2523.1601    0.0042063665
       2523.9079    0.0080811758
       2524.6558   -0.0027421596
       2525.4037     0.032517028
       2526.1516    -0.016555964
       2526.8995     0.022365854
       2527.6474   -0.0045611638
       2528.3953     0.041286030
       2529.1432     0.016993996
       2529.8911     0.021527206
       2530.6389     0.035540452
       2531.3868     0.034974825
       2532.1347     0.041403297
       2532.8826   0.00045976930
       2533.6305     0.020760054
       2534.3784   -0.0017472681
       2535.1263     0.037832167
       2535.8742   -0.0058631843
       2536.6221    0.0068060132
       2537.3699   -0.0025341854
       2538.1178     0.066313060
       2538.8657     0.025050243
       2539.6136     0.031534949
       2540.3615    -0.011746434
       2541.1094     0.023561486
       2541.8573    0.0064633566
       2542.6052    -0.046158289
       2543.3531   -0.0071783657
       2544.1009     0.011867486
       2544.8488    -0.036727990
       2545.5967   -0.0064938848
       2546.3446     0.012588563
       2547.0925     0.027041366
       2547.8404     0.015210665
       2548.5883     0.038268197
       2549.3362     0.010672675
       2550.0841     0.029483611
       2550.8320    0.0054071679
       2551.5798    0.0044453399
       2552.3277    -0.011851884
       2553.0756    -0.011183093
       2553.8235     0.012738171
       2554.5714   -0.0076936610
       2555.3193   -0.0066598318
       2556.0672   -0.0075303458
       2556.8151     0.012757702
       2557.5630   -0.0027118225
       2558.3108    -0.025937906
       2559.0587   -0.0072781041
       2559.8066     0.039541139
       2560.5545     0.052604261
       2561.3024   -0.0045939755
       2562.0503     0.017455884
       2562.7982  -0.00066409519
       2563.5461    0.0070572068
       2564.2940   -0.0042949828
       2565.0418   -0.0070446500
       2565.7897     0.012070998
       2566.5376    0.0022254852
       2567.2855     0.021728139
       2568.0334     0.019831344
       2568.7813    -0.012405038
       2569.5292    -0.013933286
       2570.2771   -0.0026062027
       2571.0250   -0.0022294628
       2571.7728     0.013420493
       2572.5207     0.031847555
       2573.2686    0.0056388084
       2574.0165    0.0018619453
       2574.7644     0.012763408
       2575.5123   -0.0028229847
       2576.2602  -0.00057827639
       2577.0081     0.016538303
       2577.7560   -0.0046839781
       2578.5038    -0.019704492
       2579.2517    0.0054501447
       2579.9996    0.0078668879
       2580.7475     0.018653273
       2581.4954     0.018953945
       2582.2433     0.016534524
       2582.9912    0.0033880619
       2583.7391     0.022375346
       2584.4870     0.043883135
       2585.2348     0.019645481
       2585.9827     0.022083007
       2586.7306     0.030632770
       2587.4785     0.015283781
       2588.2264   -0.0017753721
       2588.9743    0.0013892387
       2589.7222     0.020903889
       2590.4701   -0.0029920889
       2591.2180  -5.8464532e-05
       2591.9658   -0.0015827802
       2592.7137     0.015982377
       2593.4616   -0.0031370535
       2594.2095     0.016746926
       2594.9574   -0.0056436170
       2595.7053    0.0084672488
       2596.4532    0.0037492462
       2597.2011    -0.010183661
       2597.9490    -0.015277217
       2598.6968    0.0051355975
       2599.4447    0.0067175860
       2600.1926   0.00069575460
       2600.9405     0.011429828
       2601.6884     0.015082790
       2602.4363    -0.017215369
       2603.1842    -0.019643927
       2603.9321     0.019427575
       2604.6800    -0.021517423
       2605.4279     0.023119783
       2606.1757    0.0068003713
       2606.9236    -0.028614207
       2607.6715    0.0032263045
       2608.4194  -0.00023223107
       2609.1673   -0.0066049275
       2609.9152     0.034761297
       2610.6631     0.017155649
       2611.4110    0.0033074806
       2612.1589    -0.021954082
       2612.9067    -0.012379540
       2613.6546     0.020968592
       2614.4025    0.0014505585
       2615.1504     0.011133166
       2615.8983   0.00094718427
       2616.6462    -0.018043885
       2617.3941   -0.0026326174
       2618.1420    0.0097970032
       2618.8899    -0.016550862
       2619.6377   -0.0072193634
       2620.3856     0.010680475
       2621.1335   -0.0019013485
       2621.8814   -0.0014973296
       2622.6293    0.0089788488
       2623.3772     0.011154299
       2624.1251    0.0084617712
       2624.8730    -0.020552519
       2625.6209   -0.0088558089
       2626.3687    0.0075982416
       2627.1166   0.00096944725
       2627.8645    -0.013786712
       2628.6124    -0.016936216
       2629.3603     0.020672985
       2630.1082     0.021221144
       2630.8561     0.038849760
       2631.6040     0.044334365
       2632.3519   -0.0061539415
       2633.0997     0.011438294
       2633.8476   -0.0040900411
       2634.5955   0.00062736445
       2635.3434     0.019077055
       2636.0913     0.026392671
       2636.8392     0.019345582
       2637.5871    -0.017776288
       2638.3350     0.014988372
       2639.0829     0.029085891
       2639.8307     0.018067250
       2640.5786     0.014244246
       2641.3265     0.010655061
       2642.0744     0.015822744
       2642.8223     0.017889677
       2643.5702     0.034743541
       2644.3181     0.012865526
       2645.0660    0.0082703189
       2645.8139    -0.021421090
       2646.5617   -0.0048370684
       2647.3096     0.023401918
       2648.0575     0.024582892
       2648.8054     0.011830540
       2649.5533     0.013099944
       2650.3012     0.042331827
       2651.0491     0.015985842
       2651.7970     0.038328730
       2652.5449   -0.0089988794
       2653.2928   -0.0089412903
       2654.0406   0.00044952355
       2654.7885    0.0042303972
       2655.5364    0.0063066662
       2656.2843    0.0066576475
       2657.0322   -0.0093369554
       2657.7801     0.034977275
       2658.5280     0.018732363
       2659.2759     0.015611653
       2660.0238     0.012495010
       2660.7716     0.018205282
       2661.5195     0.013346352
       2662.2674     0.025478534
       2663.0153     0.035850395
       2663.7632     0.022013921
       2664.5111    -0.021285826
       2665.2590   -0.0057202327
       2666.0069    0.0067315453
       2666.7548    0.0085028762
       2667.5026     0.012346575
       2668.2505   -0.0018157695
       2668.9984    0.0041092725
       2669.7463   -0.0067860685
       2670.4942   -0.0016242350
       2671.2421     0.013220009
       2671.9900    -0.016284921
       2672.7379    0.0060198637
       2673.4858   -0.0055192729
       2674.2336     0.024966410
       2674.9815     0.039464477
       2675.7294     0.015791258
       2676.4773     0.025714165
       2677.2252   -0.0082008602
       2677.9731     0.041035005
       2678.7210     0.037248612
       2679.4689     0.031670200
       2680.2168   -0.0046545935
       2680.9646    -0.011493496
       2681.7125    0.0042179147
       2682.4604   -0.0061077554
       2683.2083   -0.0096218569
       2683.9562     0.042164777
       2684.7041     0.010031286
       2685.4520     0.028823828
       2686.1999     0.028793851
       2686.9478     0.020838216
       2687.6956     0.019111958
       2688.4435     0.014587902
       2689.1914   0.00095023468
       2689.9393    0.0063971525
       2690.6872     0.015489477
       2691.4351    -0.023877993
       2692.1830    -0.016042782
       2692.9309     0.016766621
       2693.6788     0.011510166
       2694.4266     0.019932341
       2695.1745   -0.0033667443
       2695.9224     0.022266694
       2696.6703    -0.021848264
       2697.4182    -0.012770057
       2698.1661     0.013608940
       2698.9140    0.0088170983
       2699.6619     0.028746959
       2700.4098    0.0094754062
       2701.1576    0.0084024761
       2701.9055   -0.0015181667
       2702.6534    0.0058166743
       2703.4013     0.023258888
       2704.1492   -0.0025168216
       2704.8971    -0.023774152
       2705.6450    0.0066053001
       2706.3929     0.010792355
       2707.1408     0.038635371
       2707.8887    0.0059329286
       2708.6365     0.016117077
       2709.3844     0.020501330
       2710.1323     0.036817115
       2710.8802     0.026265500
       2711.6281    0.0058890131
       2712.3760    -0.013484557
       2713.1239    -0.011093764
       2713.8718   -0.0032148387
       2714.6197     0.021464938
       2715.3675    0.0056270113
       2716.1154     0.045482373
       2716.8633     0.030010707
       2717.6112  -0.00047559074
       2718.3591     0.019890241
       2719.1070    -0.020660064
       2719.8549    -0.018246134
       2720.6028    -0.017868511
       2721.3507     0.032374100
       2722.0985   0.00048524982
       2722.8464   -0.0094064773
       2723.5943     0.022980351
       2724.3422     0.037209922
       2725.0901    0.0092063519
       2725.8380     0.027926539
       2726.5859     0.012249622
       2727.3338     0.038654735
       2728.0817    0.0013332925
       2728.8295   0.00098282892
       2729.5774     0.012951674
       2730.3253     0.042187941
       2731.0732     0.022083196
       2731.8211    -0.014861538
       2732.5690    0.0071258208
       2733.3169     0.017692737
       2734.0648   -0.0037031387
       2734.8127     0.033656745
       2735.5605     0.010222959
       2736.3084     0.021202839
       2737.0563     0.015938122
       2737.8042    0.0033581839
       2738.5521    0.0068614830
       2739.3000    -0.012973797
       2740.0479    0.0078804079
       2740.7958     0.015515446
       2741.5437     0.017394786
       2742.2915    0.0016815651
       2743.0394   -0.0048362685
       2743.7873    0.0055105732
       2744.5352     0.031524793
       2745.2831     0.017689274
       2746.0310     0.030360450
       2746.7789     0.014710164
       2747.5268    0.0060143713
       2748.2747   0.00066050510
       2749.0225     0.018015222
       2749.7704     0.033819395
       2750.5183    0.0085109106
       2751.2662     0.021858757
       2752.0141    0.0010245918
       2752.7620    -0.017868286
       2753.5099    -0.023936019
       2754.2578    0.0094963824
       2755.0057    0.0097837587
       2755.7536     0.019196597
       2756.5014     0.023388709
       2757.2493     0.015845337
       2757.9972    0.0067243296
       2758.7451     0.026504110
       2759.4930   -0.0011411224
       2760.2409     0.013139344
       2760.9888   -0.0092530344
       2761.7367   -0.0084067016
       2762.4846   -0.0057135877
       2763.2324     0.021928702
       2763.9803     0.019790078
       2764.7282     0.020673747
       2765.4761     0.021768875
       2766.2240     0.031418507
       2766.9719     0.017466787
       2767.7198   -0.0057960081
       2768.4677    0.0019430775
       2769.2156     0.023747834
       2769.9634    0.0028601704
       2770.7113     0.014838321
       2771.4592     0.010494512
       2772.2071     0.010690850
       2772.9550   -0.0039978934
       2773.7029    0.0089397078
       2774.4508     0.028610597
       2775.1987     0.016141864
       2775.9466    0.0080719792
       2776.6944   0.00064515716
       2777.4423    0.0016094591
       2778.1902    0.0065884677
       2778.9381  -0.00071398585
       2779.6860    0.0081055494
       2780.4339    0.0050121900
       2781.1818   -0.0042696777
       2781.9297    -0.019696950
       2782.6776    0.0032845555
       2783.4254     0.030745822
       2784.1733     0.018140590
       2784.9212     0.044810743
       2785.6691     0.012698900
       2786.4170     0.028830381
       2787.1649     0.013799497
       2787.9128     0.037267485
       2788.6607     0.045802699
       2789.4086     0.030787428
       2790.1564   0.00069301850
       2790.9043    -0.022343735
       2791.6522    0.0016636862
       2792.4001     0.040878746
       2793.1480     0.016196783
       2793.8959  -0.00081169773
       2794.6438    0.0029074294
       2795.3917     0.012044091
       2796.1396     0.017204614
       2796.8874     0.017158888
       2797.6353     0.021513122
       2798.3832   -0.0067265253
       2799.1311     0.022811809
       2799.8790     0.029600679
       2800.6269   0.00071884390
       2801.3748     0.029624496
       2802.1227     0.018991859
       2802.8706  -0.00095859304
       2803.6184     0.017839813
       2804.3663    -0.049071741
       2805.1142   -0.0012299714
       2805.8621     0.016909648
       2806.6100     0.033904578
       2807.3579    -0.010003985
       2808.1058     0.017795937
       2808.8537     0.012873680
       2809.6016     0.020627092
       2810.3495     0.015603218
       2811.0973     0.036605382
       2811.8452    0.0070528594
       2812.5931   -0.0056996769
       2813.3410     0.022038460
       2814.0889    -0.013311252
       2814.8368    0.0080616817
       2815.5847     0.022670939
       2816.3326     0.010536222
       2817.0805    -0.010983755
       2817.8283   -0.0087463446
       2818.5762    -0.020888149
       2819.3241    0.0066997619
       2820.0720     0.036529656
       2820.8199    -0.014997839
       2821.5678    0.0068701869
       2822.3157     0.026217663
       2823.0636     0.010124565
       2823.8115   -0.0042344031
       2824.5593   -0.0079485654
       2825.3072    -0.011025698
       2826.0551  -0.00077684861
       2826.8030     0.015501552
       2827.5509     0.015967436
       2828.2988   -0.0037968901
       2829.0467     0.029392186
       2829.7946     0.029005009
       2830.5425     0.014040404
       2831.2903    -0.018543920
       2832.0382   -0.0025678953
       2832.7861     0.011506329
       2833.5340     0.021236433
       2834.2819     0.011087221
       2835.0298    -0.012609631
       2835.7777     0.018360345
       2836.5256     0.045348754
       2837.2735    -0.010628887
       2838.0213   -0.0018720319
       2838.7692    -0.026284857
       2839.5171     0.014683734
       2840.2650     0.012120964
       2841.0129     0.024555388
       2841.7608     0.016789247
       2842.5087     0.054215449
       2843.2566     0.025040146
       2844.0045     0.052413241
       2844.7523   5.7395827e-05
       2845.5002    0.0083018695
       2846.2481   -0.0095887702
       2846.9960     0.011859425
       2847.7439    -0.017359947
       2848.4918     0.026351768
       2849.2397     0.022342973
       2849.9876   -0.0076654532
       2850.7355     0.015039248
       2851.4833    0.0073116143
       2852.2312     0.019417017
       2852.9791    0.0010890108
       2853.7270   -0.0060594553
       2854.4749    -0.020068282
       2855.2228    0.0098138773
       2855.9707   -0.0015145694
       2856.7186     0.013408303
       2857.4665    0.0038134256
       2858.2143     0.020270554
       2858.9622    0.0078371404
       2859.7101    -0.012142521
       2860.4580    0.0065262806
       2861.2059     0.022492794
       2861.9538     0.035055923
       2862.7017     0.013954138
       2863.4496     0.032501875
       2864.1975   -0.0046756993
       2864.9454   0.00079330548
       2865.6932     0.012037542
       2866.4411    0.0044115910
       2867.1890   -0.0058837238
       2867.9369   -0.0019954365
       2868.6848   -0.0078874119
       2869.4327    -0.026173796
       2870.1806    -0.012938098
       2870.9285   -0.0081676333
       2871.6764     0.011661422
       2872.4242    0.0091789493
       2873.1721    0.0052325314
       2873.9200  -0.00040761976
       2874.6679    0.0091979320
       2875.4158     0.017222550
       2876.1637   -0.0018185494
       2876.9116     0.018538519
       2877.6595     0.017235639
       2878.4074    -0.015034891
       2879.1552    0.0027514155
       2879.9031     0.014771675
       2880.6510     0.020731487
       2881.3989    0.0095137294
       2882.1468    -0.018334168
       2882.8947    0.0067814715
       2883.6426   -0.0092737041
       2884.3905   -0.0086048668
       2885.1384     0.014426784
       2885.8862     0.022383577
       2886.6341     0.020112848
       2887.3820     0.021210603
       2888.1299     0.018194163
       2888.8778    -0.013388486
       2889.6257    -0.019508778
       2890.3736     0.043651512
       2891.1215     0.044448657
       2891.8694     0.036151724
       2892.6172    0.0027114553
       2893.3651     0.016913096
       2894.1130     0.021609025
       2894.8609     0.015136904
       2895.6088     0.013523742
       2896.3567     0.015856230
       2897.1046     0.012819994
       2897.8525     0.029929304
       2898.6004     0.043884189
       2899.3482     0.030410269
       2900.0961     0.037653021
       2900.8440    0.0078504919
       2901.5919   0.00038759919
       2902.3398    0.0066795458
       2903.0877     0.024058902
       2903.8356     0.010353794
       2904.5835   -0.0087497101
       2905.3314    -0.012632442
       2906.0792   0.00043376343
       2906.8271    0.0036578531
       2907.5750     0.070285403
       2908.3229     0.018454959
       2909.0708    0.0049040866
       2909.8187     0.016064041
       2910.5666     0.029669690
       2911.3145     0.014630602
       2912.0624     0.015665897
       2912.8103     0.011822301
       2913.5581   -0.0048894270
       2914.3060   -0.0073942512
       2915.0539    0.0054650891
       2915.8018     0.017376175
       2916.5497     0.019467211
       2917.2976     0.032541367
       2918.0455     0.021521651
       2918.7934     0.029109283
       2919.5413     0.015559565
       2920.2891   -0.0046892025
       2921.0370    -0.010429455
       2921.7849     0.015859465
       2922.5328   -0.0025318532
       2923.2807   -0.0028425897
       2924.0286     0.021247037
       2924.7765     0.050062377
       2925.5244     0.018191441
       2926.2723   -0.0079575154
       2927.0201     0.013720574
       2927.7680    0.0023179669
       2928.5159     0.029461886
       2929.2638    0.0072647341
       2930.0117     0.025884527
       2930.7596     0.050336051
       2931.5075     0.034607161
       2932.2554    0.0058775868
       2933.0033     0.038620340
       2933.7511     0.025099421
       2934.4990     0.014623938
       2935.2469     0.026424788
       2935.9948     0.013403845
       2936.7427   -0.0036421815
       2937.4906     0.021747481
       2938.2385   -0.0084595069
       2938.9864    0.0034862266
       2939.7343   -0.0087886765
       2940.4821    -0.034370826
       2941.2300     0.014320571
       2941.9779    0.0087441459
       2942.7258    -0.012649103
       2943.4737    -0.011079365
       2944.2216     0.021689898
       2944.9695  -0.00074933926
       2945.7174     0.013123890
       2946.4653     0.016044748
       2947.2131    0.0087964268
       2947.9610   0.00011563670
       2948.7089     0.041860874
       2949.4568     0.044306152
       2950.2047     0.028018945
       2950.9526    0.0080194025
       2951.7005    -0.012463180
       2952.4484     0.020523625
       2953.1963     0.010695678
       2953.9441     0.012570026
       2954.6920     0.025628333
       2955.4399     0.013350436
       2956.1878  -0.00045778843
       2956.9357     0.029883061
       2957.6836     0.032117387
       2958.4315    0.0075897132
       2959.1794    0.0059163820
       2959.9273    0.0069576684
       2960.6751     0.037219885
       2961.4230     0.025540205
       2962.1709     0.011708231
       2962.9188     0.024529992
       2963.6667    0.0041410266
       2964.4146     0.017221255
       2965.1625    0.0089171825
       2965.9104     0.015367744
       2966.6583     0.043569989
       2967.4062     0.012572671
       2968.1540     0.013739345
       2968.9019   -0.0085276254
       2969.6498   -0.0053097005
       2970.3977   0.00048187804
       2971.1456   -0.0047878635
       2971.8935     0.014533878
       2972.6414     0.010758303
       2973.3893    0.0093884288
       2974.1372     0.017190039
       2974.8850     0.054906671
       2975.6329     0.030198908
       2976.3808     0.022112794
       2977.1287     0.025552814
       2977.8766     0.017438626
       2978.6245    0.0083309517
       2979.3724   -0.0019363815
       2980.1203     0.026792283
       2980.8682    0.0092432869
       2981.6160     0.038051474
       2982.3639    -0.022763140
       2983.1118    0.0058925997
       2983.8597    0.0065473197
       2984.6076     0.025860208
       2985.3555  -0.00052661141
       2986.1034     0.043211515
       2986.8513     0.026950643
       2987.5992    0.0032352784
       2988.3470     0.020977626
       2989.0949     0.049157723
       2989.8428     0.015969494
       2990.5907     0.017515751
       2991.3386     0.038046955
       2992.0865     0.043919223
       2992.8344     0.023964246
       2993.5823     0.014577106
       2994.3302     0.020558854
       2995.0780     0.028437091
       2995.8259     0.029291191
       2996.5738     0.016020166
       2997.3217     0.029159327
       2998.0696    0.0084309949
       2998.8175   -0.0026737551
       2999.5654   0.00037494029
       3000.3133     0.042397788
       3001.0612     0.041510792
       3001.8090    0.0054637319
       3002.5569     0.011291516
       3003.3048    0.0011214065
       3004.0527    0.0021828115
       3004.8006     0.031351326
       3005.5485     0.031228348
       3006.2964     0.040053693
       3007.0443   -0.0047611258
       3007.7922   -0.0039552239
       3008.5400    -0.025473768
       3009.2879   -0.0044956712
       3010.0358   -0.0026149124
       3010.7837    0.0089375006
       3011.5316     0.020491742
       3012.2795    -0.014094898
       3013.0274    -0.026415001
       3013.7753     0.010200464
       3014.5232     0.018019817
       3015.2711     0.031566217
       3016.0189     0.026568664
       3016.7668  -0.00047098851
       3017.5147    -0.019352765
       3018.2626    -0.024856053
       3019.0105    -0.012263563
       3019.7584     0.029328682
       3020.5063     0.019483576
       3021.2542    0.0077953614
       3022.0021     0.016738004
       3022.7499     0.050694218
       3023.4978  -0.00013135478
       3024.2457   -0.0072426397
       3024.9936  -0.00024424905
       3025.7415     0.014315704
       3026.4894    0.0079453353
       3027.2373     0.020361918
       3027.9852    -0.015494911
       3028.7331    -0.021639245
       3029.4809   -0.0015618887
       3030.2288    -0.011875873
       3030.9767     0.017647182
       3031.7246     0.076745926
       3032.4725     0.017554168
       3033.2204    -0.012689880
       3033.9683     0.022356065
       3034.7162     0.011749737
       3035.4641     0.027920102
       3036.2119     0.047507585
       3036.9598     0.021866141
       3037.7077   -0.0030282848
       3038.4556    0.0022354892
       3039.2035    0.0017038028
       3039.9514    0.0046433341
       3040.6993    0.0018558675
       3041.4472    0.0077868887
       3042.1951   -0.0039952831
       3042.9429     0.025964306
       3043.6908  -0.00094311118
       3044.4387    -0.031476272
       3045.1866     0.031647429
       3045.9345     0.017408943
       3046.6824     0.012088632
       3047.4303     0.054968086
       3048.1782     0.035830381
       3048.9261     0.021700241
       3049.6739     0.029141012
       3050.4218     0.028649831
       3051.1697     0.028107659
       3051.9176     0.019803143
       3052.6655     0.021609884
       3053.4134     0.025001185
       3054.1613     0.021511676
       3054.9092    -0.030305943
       3055.6571    0.0057583500
       3056.4049   -0.0010026021
       3057.1528   -0.0056918930
       3057.9007   -0.0060510389
       3058.6486    0.0045633481
       3059.3965     0.025424353
       3060.1444     0.042291689
       3060.8923     0.029452369
       3061.6402   -0.0015689792
       3062.3881     0.010869614
       3063.1359   -0.0061111225
       3063.8838     0.024323515
       3064.6317    0.0064518228
       3065.3796     0.025397833
       3066.1275   0.00089899151
       3066.8754    0.0074664209
       3067.6233    0.0093466066
       3068.3712  -0.00059206647
       3069.1191     0.017316865
       3069.8670     0.034015326
       3070.6148    0.0091785593
       3071.3627    0.0037049017
       3072.1106     0.043099633
       3072.8585    -0.019006710
       3073.6064     0.030334805
       3074.3543     0.039841781
       3075.1022     0.013094459
       3075.8501    -0.037990021
       3076.5980   -0.0039733407
       3077.3458     0.022006922
       3078.0937     0.025251965
       3078.8416     0.017144899
       3079.5895     0.014033428
       3080.3374   -0.0028855049
       3081.0853     0.028540643
       3081.8332     0.041994921
       3082.5811     0.036462398
       3083.3290     0.010937817
       3084.0768    0.0078660104
       3084.8247     0.040397819
       3085.5726    0.0097211255
       3086.3205     0.014068892
       3087.0684   -0.0017690599
       3087.8163     0.046964192
       3088.5642     0.015602329
       3089.3121   -0.0060906109
       3090.0600     0.044523105
       3090.8078     0.026426936
       3091.5557    0.0047459418
       3092.3036     0.019676217
       3093.0515     0.046248012
       3093.7994     0.011329636
       3094.5473     0.017591430
       3095.2952     0.037145873
       3096.0431    0.0062207243
       3096.7910     0.039857078
       3097.5388     0.031641861
       3098.2867     0.050765426
       3099.0346     0.024300405
       3099.7825     0.014933201
       3100.5304    0.0085678552
       3101.2783    -0.017615521
       3102.0262     0.025138658
       3102.7741    0.0083488085
       3103.5220    0.0048666950
       3104.2698     0.035642235
       3105.0177     0.016153004
       3105.7656    0.0083491065
       3106.5135     0.022138613
       3107.2614    0.0014189193
       3108.0093     0.012396329
       3108.7572    0.0077830722
       3109.5051     0.016557765
       3110.2530    -0.019752348
       3111.0008     0.026260717
       3111.7487     0.015290762
       3112.4966     0.037233127
       3113.2445     0.032650626
       3113.9924     0.022134972
       3114.7403     0.034486004
       3115.4882     0.011088788
       3116.2361     0.026336787
       3116.9840  -0.00031500877
       3117.7319    0.0024768190
       3118.4797    0.0011869329
       3119.2276     0.014452210
       3119.9755     0.018650973
       3120.7234   -0.0021141682
       3121.4713    -0.026077077
       3122.2192     0.017624205
       3122.9671    0.0082300756
       3123.7150    0.0062121006
       3124.4629    -0.010606651
       3125.2107    0.0062176998
       3125.9586     0.011308610
       3126.7065     0.015033204
       3127.4544     0.037368893
       3128.2023     0.017461917
       3128.9502     0.011854471
       3129.6981     0.024358789
       3130.4460    0.0055768826
       3131.1939    0.0090170866
       3131.9417    0.0062835418
       3132.6896     0.038404943
       3133.4375     0.025696251
       3134.1854     0.019021394
       3134.9333     0.030633436
       3135.6812  -0.00042025220
       3136.4291    -0.015586866
       3137.1770     0.026241045
       3137.9249    0.0083587655
       3138.6727     0.019025914
       3139.4206     0.014026110
       3140.1685     0.031278334
       3140.9164    -0.027003166
       3141.6643   -0.0095279167
       3142.4122     0.023386981
       3143.1601     0.039257763
       3143.9080   -0.0010760500
       3144.6559     0.016129464
       3145.4037     0.025044581
       3146.1516     0.028653594
       3146.8995     0.040445704
       3147.6474     0.017188180
       3148.3953     0.025222274
       3149.1432     0.045576026
       3149.8911     0.028653465
       3150.6390     0.022244052
       3151.3869   -0.0061831101
       3152.1347    0.0048207578
       3152.8826     0.025198715
       3153.6305     0.014862460
       3154.3784     0.029799952
       3155.1263   -0.0029287102
       3155.8742   0.00091248225
       3156.6221    -0.011092932
       3157.3700    0.0057397035
       3158.1179   -0.0045938753
       3158.8657  -0.00057917543
       3159.6136     0.021521381
       3160.3615    0.0086614943
       3161.1094    0.0053336259
       3161.8573    0.0070527369
       3162.6052   -0.0096766011
       3163.3531     0.019545437
       3164.1010     0.026963767
       3164.8489     0.025680921
       3165.5967     0.016103163
       3166.3446     0.035703304
       3167.0925    0.0062313468
       3167.8404     0.018267234
       3168.5883     0.025815159
       3169.3362     0.028047108
       3170.0841     0.031669202
       3170.8320     0.022637913
       3171.5799     0.042543498
       3172.3278     0.046528867
       3173.0756     0.017649781
       3173.8235     0.035154458
       3174.5714    -0.019922331
       3175.3193     0.019296963
       3176.0672     0.026623401
       3176.8151     0.013899836
       3177.5630     0.019184324
       3178.3109     0.019367498
       3179.0588    -0.014669923
       3179.8066   -0.0020922475
       3180.5545     0.042745732
       3181.3024    0.0085253351
       3182.0503   -0.0030105148
       3182.7982     0.024031347
       3183.5461     0.010259542
       3184.2940     0.016650266
       3185.0419     0.039561792
       3185.7898    0.0028709593
       3186.5376    0.0061340340
       3187.2855     0.038134971
       3188.0334   0.00077328368
       3188.7813    0.0049640032
       3189.5292   0.00060387403
       3190.2771     0.014928201
       3191.0250     0.046054040
       3191.7729    0.0096910839
       3192.5208     0.019578430
       3193.2686     0.024704707
       3194.0165    0.0046938690
       3194.7644     0.018059366
       3195.5123     0.027687660
       3196.2602    0.0093149705
       3197.0081    -0.012417260
       3197.7560   -0.0085526458
       3198.5039     0.014768532
       3199.2518   -0.0019424940
       3199.9996    -0.023288581
       3200.7475    0.0083314893
       3201.4954     0.033401217
       3202.2433     0.011732847
       3202.9912     0.019572858
       3203.7391     0.010962722
       3204.4870     0.022452776
       3205.2349     0.033979591
       3205.9828    0.0085028397
       3206.7306     0.014038600
       3207.4785    -0.027518233
       3208.2264     0.013903812
       3208.9743   -0.0052076428
       3209.7222     0.014358432
       3210.4701     0.020571213
       3211.2180    0.0038501598
       3211.9659     0.010069657
       3212.7138    0.0089398721
       3213.4616    0.0036560675
       3214.2095     0.058982249
       3214.9574     0.016524845
       3215.7053   -0.0030763472
       3216.4532    0.0041180607
       3217.2011    0.0054934381
       3217.9490     0.016521487
       3218.6969     0.026817074
       3219.4448    -0.011846989
       3220.1926    -0.014069051
       3220.9405    -0.010391630
       3221.6884    0.0024923263
       3222.4363    0.0039380334
       3223.1842     0.013705092
       3223.9321     0.033709882
       3224.6800     0.026177414
       3225.4279   -0.0017513385
       3226.1758   0.00031011856
       3226.9237     0.018162411
       3227.6715     0.050726869
       3228.4194     0.021856255
       3229.1673     0.026850988
       3229.9152     0.035488907
       3230.6631   0.00093395769
       3231.4110    0.0094532735
       3232.1589    0.0044680258
       3232.9068   -0.0020309586
       3233.6547    0.0014910377
       3234.4025   -0.0072887398
       3235.1504     0.024095810
       3235.8983     0.011466598
       3236.6462     0.037216289
       3237.3941     0.047855548
       3238.1420    0.0069760616
       3238.8899     0.031130918
       3239.6378     0.022717163
       3240.3857     0.019714292
       3241.1335     0.019802053
       3241.8814     0.018934361
       3242.6293   -0.0017658345
       3243.3772     0.032136525
       3244.1251     0.016519752
       3244.8730   4.5843914e-05
       3245.6209     0.020857117
       3246.3688     0.026516581
       3247.1167    -0.010141761
       3247.8645    0.0094428517
       3248.6124     0.015035675
       3249.3603     0.020391550
       3250.1082     0.043906483
       3250.8561     0.035247898
       3251.6040     0.026227716
       3252.3519   0.00069401496
       3253.0998     0.010551003
       3253.8477     0.054960766
       3254.5955     0.034372114
       3255.3434     0.059356140
       3256.0913     0.024954211
       3256.8392     0.014936365
       3257.5871    0.0028671771
       3258.3350    -0.011917952
       3259.0829    0.0014329183
       3259.8308    0.0036216720
       3260.5787     0.011023709
       3261.3265  -0.00030573002
       3262.0744     0.022573148
       3262.8223     0.029527928
       3263.5702    0.0070110947
       3264.3181     0.039322178
       3265.0660    0.0037110164
       3265.8139   -0.0025605958
       3266.5618     0.019528401
       3267.3097     0.027910155
       3268.0575     0.043329164
       3268.8054     0.014407333
       3269.5533     0.018924429
       3270.3012   -0.0048909251
       3271.0491     0.022400099
       3271.7970   -0.0086663811
       3272.5449    0.0065244561
       3273.2928     0.012423498
       3274.0407     0.040548618
       3274.7886     0.044799179
       3275.5364     0.043946032
       3276.2843  -0.00080684659
       3277.0322   -0.0034718679
       3277.7801     0.036166680
       3278.5280     0.050436269
       3279.2759   -0.0086175897
       3280.0238     0.013280763
       3280.7717   -0.0033148972
       3281.5196     0.041022849
       3282.2674     0.057029058
       3283.0153     0.019119671
       3283.7632    -0.014561067
       3284.5111    -0.019148670
       3285.2590    0.0075510026
       3286.0069    0.0025685446
       3286.7548     0.018794664
       3287.5027     0.045481165
       3288.2506     0.015615460
       3288.9984     0.025181122
       3289.7463   -0.0087982157
       3290.4942    0.0011385094
       3291.2421     0.013007374
       3291.9900     0.040236010
       3292.7379     0.040599265
       3293.4858    0.0028914908
       3294.2337     0.021026721
       3294.9816     0.042188542
       3295.7294     0.011904722
       3296.4773    0.0087645652
       3297.2252    0.0049098743
       3297.9731     0.021945094
       3298.7210     0.028243707
       3299.4689     0.076752195
       3300.2168     0.043993521
       3300.9647     0.012104502
       3301.7126     0.032984495
       3302.4604     0.029611305
       3303.2083     0.013778546
       3303.9562     0.010040392
       3304.7041    0.0053951836
       3305.4520     0.057963694
       3306.1999     0.039839763
       3306.9478   -0.0030714934
       3307.6957     0.011462473
       3308.4436     0.047084654
       3309.1914   -0.0046694744
       3309.9393   -0.0047252581
       3310.6872     0.022750890
       3311.4351     0.017403210
       3312.1830     0.023753216
       3312.9309     0.030830838
       3313.6788     0.024575316
       3314.4267    -0.013350756
       3315.1746   -0.0074279418
       3315.9224     0.016512399
       3316.6703     0.023954378
       3317.4182     0.028660602
       3318.1661     0.021425130
       3318.9140     0.051390741
       3319.6619     0.030666796
       3320.4098     0.029555772
       3321.1577     0.012897686
       3321.9056     0.015001728
       3322.6534     0.028925511
       3323.4013     0.037405148
       3324.1492   0.00022524065
       3324.8971    -0.010712033
       3325.6450   -0.0045598487
       3326.3929    0.0012194955
       3327.1408   -0.0054105822
       3327.8887     0.014496696
       3328.6366     0.023923639
       3329.3845    0.0033278870
       3330.1323     0.051192257
       3330.8802     0.036065473
       3331.6281     0.014442885
       3332.3760    0.0030266495
       3333.1239     0.032544983
       3333.8718     0.060841333
       3334.6197     0.033783382
       3335.3676     0.041229882
       3336.1155     0.042891761
       3336.8633     0.054867211
       3337.6112     0.026169285
       3338.3591    0.0024298514
       3339.1070   -0.0070140172
       3339.8549     0.034339298
       3340.6028     0.017840684
       3341.3507     0.022209952
       3342.0986     0.058748219
       3342.8465     0.018494636
       3343.5943   0.00091253494
       3344.3422     0.034741961
       3345.0901   -0.0065009616
       3345.8380     0.016031529
       3346.5859   -0.0062050122
       3347.3338     0.033269009
       3348.0817     0.026325356
       3348.8296     0.025950080
       3349.5775   -0.0087560359
       3350.3253    -0.017968960
       3351.0732     0.030358907
       3351.8211     0.081791877
       3352.5690     0.017267228
       3353.3169     0.010397361
       3354.0648     0.010099102
       3354.8127     0.019782279
       3355.5606    0.0065913074
       3356.3085    0.0019820215
       3357.0563    0.0032899543
       3357.8042   -0.0047769865
       3358.5521    -0.010592013
       3359.3000    -0.030591198
       3360.0479  -0.00066074586
       3360.7958     0.030391149
       3361.5437     0.038563242
       3362.2916     0.030873277
       3363.0395    -0.021308096
       3363.7873     0.012396334
       3364.5352    -0.021035022
       3365.2831     0.013730850
       3366.0310     0.033036543
       3366.7789    0.0061456022
       3367.5268    -0.024631506
       3368.2747     0.029974947
       3369.0226     0.046224798
       3369.7705     0.022914731
       3370.5183    0.0065198814
       3371.2662    -0.011820250
       3372.0141   0.00095987079
       3372.7620    -0.024689360
       3373.5099    -0.011023552
       3374.2578   -0.0020861729
       3375.0057   -0.0029483281
       3375.7536    -0.018633761
       3376.5015    -0.010839772
       3377.2494     0.011196235
       3377.9972     0.046046489
       3378.7451     0.042935104
       3379.4930     0.064125018
       3380.2409     0.051398688
       3380.9888     0.085605157
       3381.7367     0.043550996
       3382.4846     0.010931192
       3383.2325    -0.011663829
       3383.9804    0.0024064066
       3384.7282     0.011934311
       3385.4761     0.032391653
       3386.2240     0.035808989
       3386.9719     0.025570982
       3387.7198   -0.0022191858
       3388.4677   -0.0062026525
       3389.2156     0.019211629
       3389.9635   -0.0071786988
       3390.7114     0.011239977
       3391.4592     0.025015638
       3392.2071    0.0091828002
       3392.9550    0.0090398225
       3393.7029     0.050616634
       3394.4508     0.039064122
       3395.1987     0.038674755
       3395.9466     0.026460868
       3396.6945     0.017786381
       3397.4424   -0.0060679050
       3398.1902    0.0022296996
       3398.9381   -0.0046041946
       3399.6860    -0.011357056
       3400.4339     0.022546524
       3401.1818     0.040583839
       3401.9297    0.0081099610
       3402.6776     0.028655597
       3403.4255     0.042355804
       3404.1734     0.023519724
       3404.9212     0.014390424
       3405.6691    0.0025951623
       3406.4170    -0.010786961
       3407.1649     0.023979718
       3407.9128     0.044227627
       3408.6607     0.032417580
       3409.4086     0.030538581
       3410.1565   -0.0059344291
       3410.9044   0.00096472283
       3411.6522     0.010049350
       3412.4001     0.022194040
       3413.1480     0.042233666
       3413.8959    -0.019779392
       3414.6438     0.012519991
       3415.3917     0.043796447
       3416.1396     0.022634789
       3416.8875     0.010910443
       3417.6354   -0.0067477326
       3418.3832    -0.023899436
       3419.1311    0.0020279045
       3419.8790     0.026309413
       3420.6269    0.0083162764
       3421.3748    -0.014064155
       3422.1227     0.011941126
       3422.8706   -0.0023583665
       3423.6185     0.016319966
       3424.3664     0.021840148
       3425.1142     0.039823746
       3425.8621     0.065180117
       3426.6100     0.034225413
       3427.3579     0.035660889
       3428.1058     0.038047904
       3428.8537     0.031602365
       3429.6016     0.027606111
       3430.3495     0.033991389
       3431.0974     0.034198408
       3431.8453     0.021697028
       3432.5931   -0.0044916823
       3433.3410     0.033511265
       3434.0889     0.025070808
       3434.8368     0.067519099
       3435.5847     0.046855065
       3436.3326     0.022148801
       3437.0805    0.0010833389
       3437.8284     0.021351657
       3438.5763     0.015213571
       3439.3241     0.024599921
       3440.0720   -0.0079200855
       3440.8199   -0.0042704803
       3441.5678     0.016919914
       3442.3157     0.045293819
       3443.0636     0.046352275
       3443.8115     0.020674309
       3444.5594     0.014798198
       3445.3073     0.021876931
       3446.0551   -0.0074702799
       3446.8030     0.045220401
       3447.5509     0.027261014
       3448.2988     0.026254032
       3449.0467     0.029066764
       3449.7946     0.051015780
       3450.5425     0.054445159
       3451.2904     0.033205752
       3452.0383     0.019891557
       3452.7861     0.013049188
       3453.5340     0.019031413
       3454.2819    -0.013230293
       3455.0298     0.027071633
       3455.7777     0.033073522
       3456.5256     0.013747657
       3457.2735     0.046217519
       3458.0214    0.0010259850
       3458.7693   -0.0030161714
       3459.5171     0.044699052
       3460.2650     0.068064120
       3461.0129     0.040809236
       3461.7608     0.021594818
       3462.5087     0.038569850
       3463.2566    -0.017564143
       3464.0045     0.032812077
       3464.7524     0.043485262
       3465.5003     0.023434770
       3466.2481   -0.0029442225
       3466.9960     0.022966950
       3467.7439     0.022619088
       3468.4918     0.014557442
       3469.2397     0.036758624
       3469.9876     0.042360974
       3470.7355     0.038232710
       3471.4834     0.018651864
       3472.2313    0.0077877409
       3472.9791    -0.018001260
       3473.7270    -0.011409013
       3474.4749    -0.032479657
       3475.2228     0.013752588
       3475.9707     0.027143264
       3476.7186     0.053933316
       3477.4665     0.076447169
       3478.2144     0.044048175
       3478.9623     0.054219146
       3479.7101     0.011861792
       3480.4580    -0.011782457
       3481.2059   -0.0013160700
       3481.9538     0.037014126
       3482.7017     0.052761561
       3483.4496     0.051732283
       3484.1975    0.0073336503
       3484.9454     0.029454108
       3485.6933    0.0053364457
       3486.4412    -0.013902286
       3487.1890     0.018365211
       3487.9369     0.034350585
       3488.6848     0.039329528
       3489.4327     0.027105245
       3490.1806     0.030847681
       3490.9285     0.029445760
       3491.6764     0.048936505
       3492.4243     0.044077997
       3493.1722     0.034074151
       3493.9200     0.039825177
       3494.6679     0.047468253
       3495.4158    0.0069102585
       3496.1637    -0.015291941
       3496.9116     0.018995823
       3497.6595   -0.0058924009
       3498.4074   -0.0020747741
       3499.1553     0.013661546
       3499.9032     0.027018098
       3500.6510     0.012693505
       3501.3989     0.033144757
       3502.1468    0.0050746831
       3502.8947   -0.0058979106
       3503.6426     0.013867847
       3504.3905    0.0082190671
       3505.1384     0.027250808
       3505.8863     0.013527159
       3506.6342    0.0075778957
       3507.3820    0.0015678413
       3508.1299     0.035993198
       3508.8778     0.068203571
       3509.6257     0.018623281
       3510.3736    -0.018878180
       3511.1215    0.0084007710
       3511.8694     0.035269196
       3512.6173     0.029235032
       3513.3652     0.033472150
       3514.1130    -0.011256151
       3514.8609  -0.00047828086
       3515.6088   -0.0022697195
       3516.3567  -0.00099855207
       3517.1046     0.027582424
       3517.8525     0.024927181
       3518.6004     0.029278068
       3519.3483     0.039465781
       3520.0962     0.027737063
       3520.8440     0.033106695
       3521.5919     0.018140267
       3522.3398     0.041748702
       3523.0877     0.071593504
       3523.8356     0.019635844
       3524.5835     0.027469422
       3525.3314     0.046798746
       3526.0793    0.0069091597
       3526.8272     0.030661308
       3527.5750     0.048992680
       3528.3229     0.056207417
       3529.0708     0.084628925
       3529.8187     0.060645276
       3530.5666     0.047709222
       3531.3145     0.048893896
       3532.0624    0.0036765506
       3532.8103    0.0036717459
       3533.5582   -0.0012214295
       3534.3061     0.015203931
       3535.0539    0.0038794515
       3535.8018     0.019295890
       3536.5497     0.047875982
       3537.2976     0.039465611
       3538.0455     0.053490367
       3538.7934     0.042786243
       3539.5413     0.032601624
       3540.2892     0.011369701
       3541.0371     0.041388194
       3541.7849     0.057871716
       3542.5328    0.0062797275
       3543.2807     0.043156004
       3544.0286     0.020736351
       3544.7765     0.029476671
       3545.5244     0.051940391
       3546.2723     0.010281222
       3547.0202     0.015210465
       3547.7681     0.019322206
       3548.5159     0.031037505
       3549.2638     0.033371156
       3550.0117    0.0099032661
       3550.7596    -0.019303136
       3551.5075    0.0073958321
       3552.2554     0.013708236
       3553.0033     0.038722259
       3553.7512     0.021168377
       3554.4991    0.0092080297
       3555.2469    0.0067377183
       3555.9948    -0.023117551
       3556.7427     0.026369629
       3557.4906     0.038840808
       3558.2385   0.00021074859
       3558.9864    -0.014420547
       3559.7343  -0.00037440900
       3560.4822    -0.023642596
       3561.2301   -0.0058764577
       3561.9779     0.029151382
       3562.7258    0.0048603482
       3563.4737     0.014003788
       3564.2216     0.059293952
       3564.9695     0.040039636
       3565.7174    -0.016489230
       3566.4653     0.077741648
       3567.2132     0.056674982
       3567.9611     0.019157316
       3568.7089     0.027793715
       3569.4568     0.051957560
       3570.2047     0.032442888
       3570.9526     0.013431289
       3571.7005    -0.014786943
       3572.4484     0.027897113
       3573.1963     0.030388077
       3573.9442     0.032509766
       3574.6921     0.032396097
       3575.4399     0.027020868
       3576.1878   -0.0013531955
       3576.9357     0.016125334
       3577.6836     0.023118703
       3578.4315    0.0086240077
       3579.1794    0.0049019526
       3579.9273     0.016326215
       3580.6752    0.0011196923
       3581.4231    0.0069889914
       3582.1709   -0.0037661650
       3582.9188    -0.025622722
       3583.6667    -0.018530261
       3584.4146    -0.021902256
       3585.1625    -0.015852760
       3585.9104    -0.010946643
       3586.6583    -0.015828565
       3587.4062     0.029326619
       3588.1541     0.050013344
       3588.9020    0.0076618040
       3589.6498   9.6321269e-05
       3590.3977   -0.0057085024
       3591.1456     0.036071134
       3591.8935     0.026119513
       3592.6414     0.034088362
       3593.3893     0.046555930
       3594.1372     0.023926930
       3594.8851     0.027472373
       3595.6330     0.024019902
       3596.3808    -0.017939190
       3597.1287    -0.024882220
       3597.8766    0.0098933161
       3598.6245     0.012676222
       3599.3724     0.014961287
       3600.1203     0.035976242
       3600.8682     0.026030883
       3601.6161     0.015502824
       3602.3640     0.034379283
       3603.1118    -0.010363069
       3603.8597   -0.0046974256
       3604.6076     0.015802675
       3605.3555   -0.0088907810
       3606.1034   -0.0066656414
       3606.8513     0.029546303
       3607.5992     0.016054932
       3608.3471     0.016655967
       3609.0950    -0.014384661
       3609.8428    -0.010762795
       3610.5907     0.020088610
       3611.3386     0.013978168
       3612.0865     0.022111731
       3612.8344     0.045167815
       3613.5823     0.050200414
       3614.3302     0.024007944
       3615.0781   -0.0057907524
       3615.8260    0.0088472822
       3616.5738     0.011452645
       3617.3217     0.015281104
       3618.0696     0.028226952
       3618.8175    0.0011748290
       3619.5654    0.0057620439
       3620.3133   -0.0068769894
       3621.0612    0.0034497813
       3621.8091     0.017586289
       3622.5570   -0.0079730198
       3623.3048     0.019387179
       3624.0527     0.017853070
       3624.8006     0.039168043
       3625.5485     0.048451989
       3626.2964     0.045741304
       3627.0443     0.015586921
       3627.7922     0.057970058
       3628.5401     0.043571880
       3629.2880     0.042372383
       3630.0358     0.056931175
       3630.7837     0.045394062
       3631.5316     0.058948091
       3632.2795     0.053360610
       3633.0274     0.031035413
       3633.7753     0.016720359
       3634.5232   -0.0076462441
       3635.2711     0.019686240
       3636.0190     0.060213726
       3636.7669     0.035318436
       3637.5147    -0.010544951
       3638.2626    -0.021312876
       3639.0105     0.020794275
       3639.7584     0.035385608
       3640.5063     0.022136726
       3641.2542     0.025537251
       3642.0021    0.0067740778
       3642.7500    -0.030987268
       3643.4979     0.037746192
       3644.2457    -0.033877834
       3644.9936    -0.055547238
       3645.7415    -0.028238321
       3646.4894     0.042453190
       3647.2373     0.067779776
       3647.9852     0.051914014
       3648.7331     0.059804998
       3649.4810     0.016920683
       3650.2289     0.037591460
       3650.9767    0.0031481481
       3651.7246     0.011706287
       3652.4725     0.032624248
       3653.2204     0.010242306
       3653.9683    0.0080169278
       3654.7162     0.041509488
       3655.4641     0.042412527
       3656.2120     0.030369082
       3656.9599     0.020737878
       3657.7077     0.029006926
       3658.4556     0.042300064
       3659.2035     0.079288684
       3659.9514     0.076330122
       3660.6993     0.055320034
       3661.4472     0.013457794
       3662.1951    0.0050728554
       3662.9430   -0.0031887290
       3663.6909     0.027880690
       3664.4387     0.010650551
       3665.1866     0.055821281
       3665.9345     0.011308023
       3666.6824    -0.012566854
       3667.4303     0.014684178
       3668.1782     0.044753789
       3668.9261     0.037094793
       3669.6740   -0.0022415685
       3670.4219    -0.010129858
       3671.1697     0.051967226
       3671.9176     0.051012414
       3672.6655     0.041882955
       3673.4134     0.056475756
       3674.1613     0.053094870
       3674.9092    0.0087981828
       3675.6571     0.012905350
       3676.4050     0.048789967
       3677.1529     0.036288302
       3677.9007     0.014768392
       3678.6486     0.014886760
       3679.3965     0.035435577
       3680.1444     0.016744567
       3680.8923     0.028968617
       3681.6402     0.032171843
       3682.3881     0.055918347
       3683.1360     0.034440595
       3683.8839    0.0057418264
       3684.6317   0.00083681745
       3685.3796     0.029090487
       3686.1275     0.028538490
       3686.8754   -0.0055330656
       3687.6233     0.041556060
       3688.3712     0.038801838
       3689.1191     0.017868772
       3689.8670     0.022150493
       3690.6149     0.051133309
       3691.3628     0.032746232
       3692.1106     0.039962990
       3692.8585     0.041431180
       3693.6064     0.016674966
       3694.3543     0.011124694
       3695.1022   -0.0010197398
       3695.8501    -0.028352964
       3696.5980   -0.0056551741
       3697.3459     0.014554822
       3698.0938     0.041185546
       3698.8416     0.032772527
       3699.5895     0.021548840
       3700.3374     0.043559219
       3701.0853     0.060655539
       3701.8332     0.019993244
       3702.5811   -0.0027544424
       3703.3290   -0.0027319653
       3704.0769     0.016995050
       3704.8248    -0.018561853
       3705.5726     0.017215224
       3706.3205     0.045058408
       3707.0684     0.016448080
       3707.8163     0.012708717
       3708.5642     0.011496816
       3709.3121     0.046743179
       3710.0600    0.0093057958
       3710.8079     0.029133861
       3711.5558    0.0054007441
       3712.3036     0.022806191
       3713.0515     0.025660913
       3713.7994     0.036939708
       3714.5473     0.018199874
       3715.2952    0.0029400262
       3716.0431     0.032063151
       3716.7910     0.040071742
       3717.5389     0.046286615
       3718.2868     0.022493491
       3719.0346   -0.0012635772
       3719.7825    0.0093891817
       3720.5304     0.033181999
       3721.2783     0.036985277
       3722.0262     0.058366492
       3722.7741    0.0093751932
       3723.5220   -0.0050385724
       3724.2699     0.017047485
       3725.0178    0.0088441310
       3725.7656   -0.0016848485
       3726.5135   -0.0025800337
       3727.2614     0.066564488
       3728.0093     0.035339501
       3728.7572     0.042937596
       3729.5051     0.045274300
       3730.2530     0.021375227
       3731.0009     0.024120221
       3731.7488     0.036750442
       3732.4966     0.046688734
       3733.2445   -0.0073451450
       3733.9924     0.031116892
       3734.7403    0.0054376319
       3735.4882     0.021319858
       3736.2361     0.040121197
       3736.9840   0.00083425162
       3737.7319     0.059567567
       3738.4798    0.0094757935
       3739.2277    -0.044880397
       3739.9755   -0.0015960418
       3740.7234     0.073257348
       3741.4713     0.059287680
       3742.2192    0.0090687779
       3742.9671   -0.0080179595
       3743.7150     0.032804091
       3744.4629    0.0095676756
       3745.2108    -0.016263067
       3745.9587    -0.025464120
       3746.7065     0.013016338
       3747.4544    0.0040702585
       3748.2023     0.030080529
       3748.9502     0.035319826
       3749.6981     0.018286316
       3750.4460     0.028043781
       3751.1939     0.046439294
       3751.9418    0.0075813339
       3752.6897    0.0054036189
       3753.4375    0.0071661051
       3754.1854     0.052127354
       3754.9333     0.079028866
       3755.6812     0.034130336
       3756.4291    -0.013471224
       3757.1770     0.020536234
       3757.9249     0.011995129
       3758.6728     0.021793384
       3759.4207     0.038697192
       3760.1685     0.044212356
       3760.9164     0.035336015
       3761.6643     0.027410784
       3762.4122     0.030374390
       3763.1601     0.052189542
       3763.9080     0.033871030
       3764.6559     0.014816002
       3765.4038     0.013571559
       3766.1517     0.033592132
       3766.8995     0.018199993
       3767.6474     0.011592814
       3768.3953  -0.00015827385
       3769.1432   0.00019360760
       3769.8911     0.019708426
       3770.6390     0.040601623
       3771.3869     0.030597553
       3772.1348     0.052042206
       3772.8827     0.049522916
       3773.6305     0.012923394
       3774.3784    0.0053200234
       3775.1263     0.039909971
       3775.8742     0.039027931
       3776.6221     0.057507142
       3777.3700     0.039967665
       3778.1179     0.050925625
       3778.8658     0.035528864
       3779.6137     0.026447208
       3780.3615     0.035639762
       3781.1094     0.027063151
       3781.8573     0.025046691
       3782.6052     0.052364568
       3783.3531     0.029534069
       3784.1010  -0.00072023034
       3784.8489     0.033607546
       3785.5968     0.031795205
       3786.3447     0.027091711
       3787.0925     0.021710468
       3787.8404     0.015097186
       3788.5883    -0.015886976
       3789.3362     0.011544568
       3790.0841     0.033737445
       3790.8320    0.0084841300
       3791.5799    -0.011844540
       3792.3278    -0.024173692
       3793.0757    0.0055569733
       3793.8236    0.0097522071
       3794.5714    0.0064468293
       3795.3193   -0.0081221596
       3796.0672   0.00096368989
       3796.8151    -0.018254635
       3797.5630     0.012735165
       3798.3109     0.038878618
       3799.0588     0.013905652
       3799.8067    0.0039007292
       3800.5546    0.0087841198
       3801.3024     0.041912207
       3802.0503     0.028153548
       3802.7982     0.025420410
       3803.5461     0.051502391
       3804.2940     0.035647412
       3805.0419     0.027494565
       3805.7898     0.019496500
       3806.5377    -0.017568573
       3807.2856    0.0081469251
       3808.0334     0.026473228
       3808.7813     0.063301348
       3809.5292     0.051965366
       3810.2771    0.0064409748
       3811.0250   -0.0091738438
       3811.7729    0.0026510012
       3812.5208     0.021449243
       3813.2687    0.0045186063
       3814.0166    -0.013230562
       3814.7644    -0.033856590
       3815.5123    -0.023028785
       3816.2602     0.011371087
       3817.0081     0.024188295
       3817.7560     0.032164251
       3818.5039   -0.0056905767
       3819.2518     0.011661299
       3819.9997  -6.1283819e-05
       3820.7476    -0.016656188
       3821.4954   -0.0014743225
       3822.2433     0.034246367
       4055.2959      0.94839984
       4056.1348      0.89164547
       4056.9736      0.86811312
       4057.8125      0.70550558
       4058.6514      0.76099822
       4059.4902      0.66239159
       4060.3291      0.70304952
       4061.1680      0.66631503
       4062.0069      0.60269125
       4062.8457      0.57656912
       4063.6846      0.61513442
       4064.5235      0.69223742
       4065.3624      0.83482431
       4066.2012      0.71197725
       4067.0401      0.70687133
       4067.8790      0.79543334
       4068.7178      0.81259266
       4069.5567      0.82005328
       4070.3956      0.81631496
       4071.2345      0.85132384
       4072.0733      0.77348101
       4072.9122      0.77531105
       4073.7511      0.83062574
       4074.5900      0.83735800
       4075.4288      0.85533098
       4076.2677      0.75954832
       4077.1066      0.79032681
       4077.9455      0.72917615
       4078.7843      0.27887693
       4079.6232      0.78320154
       4080.4621       1.3426075
       4081.3009      0.91934542
       4082.1398      0.16728730
       4082.9787      0.76321032
       4083.8176      0.78281330
       4084.6564     0.066214638
       4085.4953     -0.12297767
       4086.3342      0.36939740
       4087.1731      0.36305677
       4088.0119      0.44327307
       4088.8508      0.47321448
       4089.6897      0.58171661
       4090.5285      0.57954145
       4091.3674      0.77630902
       4092.2063      0.58545581
       4093.0452      0.61625496
       4093.8840      0.67485752
       4094.7229      0.61757403
       4095.5618      0.79059069
       4096.4007      0.75242707
       4097.2395      0.67742604
       4098.0784      0.68454679
       4098.9173      0.69693541
       4099.7561      0.66407074
       4100.5950      0.53890017
       4101.4339      0.75289403
       4102.2728      0.94098527
       4103.1116      0.84032408
       4103.9505      0.68005471
       4104.7894      0.59467172
       4105.6283      0.67028751
       4106.4671      0.58125527
       4107.3060      0.86900827
       4108.1449      0.86175642
       4108.9838      0.83215607
       4109.8226      0.59515638
       4110.6615      0.65228415
       4111.5004      0.83918111
       4112.3392      0.80745181
       4113.1781      0.76512589
       4114.0170      0.80915717
       4114.8559      0.62357407
       4115.6947      0.65941173
       4116.5336      0.65376736
       4117.3725      0.76609231
       4118.2114      0.57095110
       4119.0502      0.81417324
       4119.8891      0.81061578
       4120.7280      0.89254690
       4121.5668      0.77370848
       4122.4057      0.50467127
       4123.2446      0.74411342
       4124.0835      0.56831699
       4124.9223      0.71889279
       4125.7612      0.79070061
       4126.6001      0.80008806
       4127.4390      0.69920389
       4128.2778      0.64363176
       4129.1167      0.71586693
       4129.9556      0.65998542
       4130.7944      0.60289635
       4131.6333      0.86824456
       4132.4722      0.83528634
       4133.3111      0.69778259
       4134.1499      0.65155360
       4134.9888      0.56688449
       4135.8277      0.85974945
       4136.6666      0.68577524
       4137.5054      0.68092372
       4138.3443      0.75556129
       4139.1832      0.74358684
       4140.0220      0.66612722
       4140.8609      0.67924024
       4141.6998      0.80940911
       4142.5387      0.87949719
       4143.3775      0.66510774
       4144.2164      0.57624107
       4145.0553      0.80632546
       4145.8942      0.65377147
       4146.7330      0.63941451
       4147.5719      0.70964445
       4148.4108      0.69815733
       4149.2497      0.93959576
       4150.0885      0.87836894
       4150.9274      0.85124307
       4151.7663      0.88873961
       4152.6051      0.51631238
       4153.4440      0.75226996
       4154.2829      0.68468429
       4155.1218      0.74181462
       4155.9606      0.77242972
       4156.7995      0.73328707
       4157.6384      0.81293558
       4158.4773      0.76369031
       4159.3161      0.87994424
       4160.1550      0.80289668
       4160.9939      0.67676417
       4161.8327      0.62280699
       4162.6716      0.76156676
       4163.5105      0.85447381
       4164.3494      0.63731148
       4165.1882      0.51160105
       4166.0271      0.74496900
       4166.8660      0.62568185
       4167.7049      0.71232743
       4168.5437      0.65740033
       4169.3826      0.58056433
       4170.2215      0.52535110
       4171.0603      0.64013754
       4171.8992      0.66527382
       4172.7381      0.58564105
       4173.5770      0.72436026
       4174.4158      0.71668488
       4175.2547      0.76431905
       4176.0936      0.61405325
       4176.9325      0.68761115
       4177.7713      0.66803696
       4178.6102      0.71591087
       4179.4491      0.81669278
       4180.2879      0.81097512
       4181.1268      0.82634223
       4181.9657      0.73839840
       4182.8046      0.77937471
       4183.6434      0.71884599
       4184.4823      0.61897441
       4185.3212      0.74443556
       4186.1601      0.79497180
       4186.9989      0.63518755
       4187.8378      0.74974117
       4188.6767      0.71297239
       4189.5156      0.66464948
       4190.3544      0.78720686
       4191.1933      0.67296185
       4192.0322      0.66560373
       4192.8710      0.62484563
       4193.7099      0.79699446
       4194.5488      0.87879389
       4195.3877      0.82202165
       4196.2265      0.80334119
       4197.0654      0.87916583
       4197.9043      0.72868878
       4198.7432      0.80736036
       4199.5820      0.79271911
       4200.4209      0.66646163
       4201.2598      0.53516440
       4202.0986      0.73617880
       4202.9375      0.74174283
       4203.7764      0.82181614
       4204.6153      0.68106412
       4205.4541      0.83843100
       4206.2930      0.79005045
       4207.1319      0.71935845
       4207.9708      0.65295324
       4208.8096      0.80264854
       4209.6485      0.68479599
       4210.4874      0.81723799
       4211.3262      0.77355272
       4212.1651      0.75364318
       4213.0040      0.73404121
       4213.8429      0.72430356
       4214.6817      0.77693336
       4215.5206      0.59953363
       4216.3595      0.57083005
       4217.1984      0.60211110
       4218.0372      0.69112466
       4218.8761      0.73630832
       4219.7150      0.78858006
       4220.5539      0.75833657
       4221.3927      0.79050544
       4222.2316      0.60141205
       4223.0705      0.70788015
       4223.9093      0.74580741
       4224.7482      0.65389077
       4225.5871      0.82410519
       4226.4260      0.74864414
       4227.2648      0.73567245
       4228.1037      0.66364053
       4228.9426      0.73447496
       4229.7815      0.73394394
       4230.6203      0.71200756
       4231.4592      0.76835658
       4232.2981      0.75244162
       4233.1369      0.85575581
       4233.9758      0.88841785
       4234.8147       1.0385920
       4235.6536      0.95201414
       4236.4924      0.91510724
       4237.3313      0.75155936
       4238.1702      0.72970203
       4239.0091      0.96849447
       4239.8479      0.69166080
       4240.6868      0.67954183
       4241.5257      0.74015490
       4242.3645      0.73775986
       4243.2034      0.80910236
       4244.0423      0.87282658
       4244.8812      0.76627148
       4245.7200      0.80920057
       4246.5589      0.85522611
       4247.3978      0.73330070
       4248.2367      0.83069572
       4249.0755      0.68780223
       4249.9144      0.84699606
       4250.7533      0.81784078
       4251.5921      0.69773585
       4252.4310      0.70800937
       4253.2699      0.73363568
       4254.1088      0.78580293
       4254.9476      0.83237068
       4255.7865      0.87124009
       4256.6254      0.87534072
       4257.4643      0.99947172
       4258.3031      0.93242971
       4259.1420      0.98276735
       4259.9809      0.83008486
       4260.8198      0.87765461
       4261.6586       1.0623586
       4262.4975      0.87742284
       4263.3364      0.56419679
       4264.1752      0.57245981
       4265.0141      0.71073653
       4265.8530      0.79688031
       4266.6919      0.72961592
       4267.5307      0.82701177
       4268.3696      0.88700202
       4269.2085      0.73391430
       4270.0474      0.76937070
       4270.8862      0.92498447
       4271.7251      0.77815435
       4272.5640      0.76560714
       4273.4028      0.88386571
       4274.2417      0.80464612
       4275.0806      0.69402654
       4275.9195      0.81758674
       4276.7583      0.83596650
       4277.5972      0.71567723
       4278.4361      0.77502737
       4279.2750      0.87854197
       4280.1138      0.91755522
       4280.9527      0.74084547
       4281.7916      0.78817978
       4282.6304      0.68846735
       4283.4693      0.68473797
       4284.3082      0.71404501
       4285.1471      0.65487484
       4285.9859      0.59721363
       4286.8248      0.99669916
       4287.6637      0.63005607
       4288.5026      0.75802419
       4289.3414      0.69493319
       4290.1803      0.72925667
       4291.0192      0.60060475
       4291.8580      0.66826410
       4292.6969      0.61092415
       4293.5358      0.58638587
       4294.3747      0.73755518
       4295.2135      0.61476293
       4296.0524      0.46297173
       4296.8913      0.67012527
       4297.7302      0.62672629
       4298.5690      0.53121876
       4299.4079      0.50623105
       4300.2468      0.58536756
       4301.0857      0.78389326
       4301.9245      0.57542652
       4302.7634      0.76904989
       4303.6023      0.77713369
       4304.4411      0.69562577
       4305.2800      0.77972367
       4306.1189      0.57220625
       4306.9578      0.80341606
       4307.7966      0.83627450
       4308.6355      0.82439780
       4309.4744      0.98666714
       4310.3133      0.87451222
       4311.1521      0.96810337
       4311.9910      0.89089583
       4312.8299      0.87233765
       4313.6687      0.74760106
       4314.5076      0.74178364
       4315.3465      0.88280377
       4316.1854      0.81959194
       4317.0242      0.83872243
       4317.8631      0.81231625
       4318.7020      0.82843452
       4319.5409      0.89096201
       4320.3797      0.78563566
       4321.2186      0.79165268
       4322.0575      0.76842178
       4322.8963      0.71697359
       4323.7352      0.63944224
       4324.5741      0.56041295
       4325.4130      0.87801015
       4326.2518      0.72116402
       4327.0907      0.77483888
       4327.9296      0.85617124
       4328.7685      0.66420928
       4329.6073      0.70516648
       4330.4462      0.63423135
       4331.2851      0.53798165
       4332.1240      0.65060327
       4332.9628      0.80010562
       4333.8017      0.66485711
       4334.6406      0.74015578
       4335.4794      0.95177113
       4336.3183      0.80427545
       4337.1572      0.93112093
       4337.9961      0.82065005
       4338.8349      0.87439060
       4339.6738      0.64483482
       4340.5127      0.70400516
       4341.3516      0.69160065
       4342.1904      0.69308035
       4343.0293      0.81159437
       4343.8682      0.81865429
       4344.7070      0.83391440
       4345.5459      0.66790505
       4346.3848      0.81769019
       4347.2237      0.80232730
       4348.0625      0.60597151
       4348.9014      0.70429228
       4349.7403      0.91955414
       4350.5792      0.68607265
       4351.4180      0.72013266
       4352.2569      0.86379136
       4353.0958      0.86008464
       4353.9346      0.75714076
       4354.7735      0.86107988
       4355.6124      0.68691375
       4356.4513       1.0489065
       4357.2901       1.1020806
       4358.1290       1.0972806
       4358.9679      0.85683892
       4359.8068      0.91738851
       4360.6456      0.99732360
       4361.4845      0.83455470
       4362.3234      0.88789820
       4363.1622       1.0104670
       4364.0011      0.87680359
       4364.8400      0.79971035
       4365.6789      0.83266203
       4366.5177      0.63367926
       4367.3566      0.70388653
       4368.1955      0.84846692
       4369.0344      0.73649889
       4369.8732      0.81734044
       4370.7121      0.94107338
       4371.5510      0.86252085
       4372.3899      0.81583185
       4373.2287      0.57713039
       4374.0676      0.70752903
       4374.9065      0.75829585
       4375.7453      0.93472452
       4376.5842       1.0372324
       4377.4231      0.68080891
       4378.2620      0.63513302
       4379.1008      0.94695466
       4379.9397      0.65893079
       4380.7786      0.48128844
       4381.6175      0.62255312
       4382.4563      0.66641157
       4383.2952      0.58262462
       4384.1341      0.69726746
       4384.9729      0.79158634
       4385.8118      0.76348495
       4386.6507      0.88701534
       4387.4896      0.77459723
       4388.3284      0.80164280
       4389.1673      0.92243491
       4390.0062      0.87206278
       4390.8451      0.95837239
       4391.6839       1.0130930
       4392.5228      0.95131160
       4393.3617      0.90667359
       4394.2005      0.89670566
       4395.0394       1.0213446
       4395.8783      0.88033572
       4396.7172      0.89749423
       4397.5560      0.81268117
       4398.3949      0.98484946
       4399.2338      0.98344347
       4400.0727      0.80012607
       4400.9115      0.68466519
       4401.7504      0.78029159
       4402.5893      0.66644672
       4403.4281      0.84862339
       4404.2670      0.73875135
       4405.1059      0.78276580
       4405.9448      0.82027272
       4406.7836      0.88219425
       4407.6225      0.97037386
       4408.4614       1.0628226
       4409.3003       1.0974128
       4410.1391      0.81378995
       4410.9780      0.78168034
       4411.8169      0.84146446
       4412.6558       1.0575770
       4413.4946      0.78483655
       4414.3335      0.84389669
       4415.1724      0.88794456
       4416.0112      0.89614462
       4416.8501      0.82389187
       4417.6890      0.87740958
       4418.5279      0.87980966
       4419.3667      0.99967684
       4420.2056      0.78643891
       4421.0445      0.76778696
       4421.8834       1.0077987
       4422.7222      0.96954605
       4423.5611      0.97576696
       4424.4000      0.90733208
       4425.2388      0.69803223
       4426.0777      0.66131920
       4426.9166      0.73149755
       4427.7555       1.0232383
       4428.5943      0.91022613
       4429.4332      0.87343474
       4430.2721      0.85898875
       4431.1110      0.96727390
       4431.9498      0.95662425
       4432.7887       1.0583296
       4433.6276      0.93750543
       4434.4664      0.87111111
       4435.3053      0.87540833
       4436.1442      0.78066706
       4436.9831      0.83828416
       4437.8219      0.92377567
       4438.6608      0.86562812
       4439.4997      0.85392271
       4440.3386      0.76165447
       4441.1774      0.70890550
       4442.0163      0.80035582
       4442.8552      0.95621755
       4443.6941      0.97265921
       4444.5329      0.74338875
       4445.3718      0.75700728
       4446.2107      0.92201748
       4447.0495      0.77990272
       4447.8884      0.91070909
       4448.7273      0.83775887
       4449.5662      0.83401426
       4450.4050      0.84767271
       4451.2439      0.73443198
       4452.0828      0.77158173
       4452.9217      0.90390476
       4453.7605      0.92816915
       4454.5994       1.0235990
       4455.4383      0.89470855
       4456.2771      0.93480562
       4457.1160      0.99800175
       4457.9549      0.91337851
       4458.7938       1.0062168
       4459.6326      0.96182116
       4460.4715      0.99982091
       4461.3104      0.89386566
       4462.1493      0.75889821
       4462.9881       1.0401236
       4463.8270       1.0229599
       4464.6659       1.0321239
       4465.5047       1.1101068
       4466.3436      0.89791136
       4467.1825      0.89711171
       4468.0214      0.86680982
       4468.8602      0.81808766
       4469.6991      0.84327448
       4470.5380       1.0132242
       4471.3769       1.0298477
       4472.2157      0.94911658
       4473.0546      0.93314685
       4473.8935      0.92017172
       4474.7323      0.93875550
       4475.5712      0.98071180
       4476.4101      0.79102458
       4477.2490      0.90453285
       4478.0878      0.88825563
       4478.9267      0.87060313
       4479.7656       1.0020042
       4480.6045      0.93826835
       4481.4433      0.93837232
       4482.2822      0.75889286
       4483.1211      0.84863961
       4483.9600      0.94993628
       4484.7988      0.87657817
       4485.6377       1.0190272
       4486.4766      0.84894884
       4487.3154      0.78247004
       4488.1543      0.80948267
       4488.9932      0.97911660
       4489.8321       1.1632536
       4490.6709      0.89951910
       4491.5098      0.79506830
       4492.3487      0.98347781
       4493.1876       1.0367538
       4494.0264      0.93837081
       4494.8653      0.92912344
       4495.7042      0.94834720
       4496.5430      0.81450567
       4497.3819      0.93531885
       4498.2208      0.68684261
       4499.0597      0.80976358
       4499.8985      0.80595939
       4500.7374      0.59818259
       4501.5763      0.78788044
       4502.4152      0.88851557
       4503.2540      0.85520133
       4504.0929      0.91697395
       4504.9318      0.82110667
       4505.7706      0.83991791
       4506.6095      0.93714030
       4507.4484      0.95337174
       4508.2873      0.87926063
       4509.1261      0.85443164
       4509.9650       1.0185606
       4510.8039       1.0005617
       4511.6428      0.91085355
       4512.4816      0.89323316
       4513.3205      0.96879908
       4514.1594       1.0308005
       4514.9982      0.98670168
       4515.8371       1.0003728
       4516.6760      0.86452870
       4517.5149      0.96648362
       4518.3537      0.86137495
       4519.1926      0.90680274
       4520.0315       1.0484013
       4520.8704      0.82052216
       4521.7092      0.91139555
       4522.5481      0.93404772
       4523.3870      0.99391038
       4524.2259      0.79527819
       4525.0647      0.85717328
       4525.9036      0.90862781
       4526.7425      0.84623596
       4527.5813      0.79645660
       4528.4202      0.92546196
       4529.2591      0.80577467
       4530.0980      0.92090335
       4530.9368      0.83141405
       4531.7757      0.75399003
       4532.6146      0.82422542
       4533.4535      0.89244241
       4534.2923      0.73975615
       4535.1312      0.77623147
       4535.9701      0.82552777
       4536.8089      0.93356639
       4537.6478      0.89837915
       4538.4867      0.78812537
       4539.3256      0.87470439
       4540.1644      0.83635914
       4541.0033      0.86450219
       4541.8422      0.87845980
       4542.6811       1.0576558
       4543.5199       1.0914856
       4544.3588       1.0445822
       4545.1977       1.0290323
       4546.0365      0.85741722
       4546.8754      0.69331882
       4547.7143      0.89609282
       4548.5532      0.94459200
       4549.3920      0.88714664
       4550.2309      0.83953832
       4551.0698      0.85250222
       4551.9087      0.90531500
       4552.7475      0.62461418
       4553.5864      0.77086653
       4554.4253      0.87414605
       4555.2642      0.82636716
       4556.1030      0.81683685
       4556.9419      0.92718028
       4557.7808      0.92120298
       4558.6196      0.90704299
       4559.4585      0.84189817
       4560.2974      0.71943173
       4561.1363      0.86574273
       4561.9751       1.0006214
       4562.8140      0.90710087
       4563.6529       1.0387910
       4564.4918      0.93925283
       4565.3306      0.76372114
       4566.1695      0.93870375
       4567.0084      0.81908876
       4567.8472      0.81155596
       4568.6861       1.0787652
       4569.5250       1.0307606
       4570.3639      0.92925240
       4571.2027      0.88150907
       4572.0416      0.83614496
       4572.8805      0.78878536
       4573.7194      0.81084379
       4574.5582      0.84230898
       4575.3971       1.0239697
       4576.2360      0.98179520
       4577.0748      0.86001183
       4577.9137      0.90702642
       4578.7526      0.95682067
       4579.5915      0.87321312
       4580.4303      0.83849621
       4581.2692      0.87058149
       4582.1081      0.98605977
       4582.9470      0.73524225
       4583.7858      0.80694350
       4584.6247      0.90347088
       4585.4636      0.78104395
       4586.3024      0.86569886
       4587.1413      0.85118451
       4587.9802      0.84835022
       4588.8191      0.95416997
       4589.6579      0.82093814
       4590.4968      0.94507453
       4591.3357      0.94711935
       4592.1746      0.96152521
       4593.0134      0.93638199
       4593.8523       1.0903968
       4594.6912      0.95199287
       4595.5301      0.93625021
       4596.3689      0.99862922
       4597.2078      0.89809809
       4598.0467      0.88577280
       4598.8855      0.90884100
       4599.7244      0.89693198
       4600.5633       1.0079714
       4601.4022      0.95118699
       4602.2410      0.76627114
       4603.0799      0.87095677
       4603.9188      0.88780305
       4604.7577      0.85411502
       4605.5965       1.0419261
       4606.4354       1.0114938
       4607.2743      0.88292686
       4608.1131      0.82989526
       4608.9520      0.92017362
       4609.7909      0.92038484
       4610.6298       1.0203611
       4611.4686      0.87145944
       4612.3075       1.0659048
       4613.1464      0.98782828
       4613.9853      0.86128580
       4614.8241      0.89992640
       4615.6630      0.83232628
       4616.5019      0.98663238
       4617.3407      0.97638127
       4618.1796      0.99211530
       4619.0185      0.79366650
       4619.8574      0.93559915
       4620.6962       1.0810960
       4621.5351       1.0395102
       4622.3740      0.95161974
       4623.2129      0.90426443
       4624.0517      0.89249239
       4624.8906      0.95660045
       4625.7295      0.95162655
       4626.5683      0.97060065
       4627.4072      0.85217508
       4628.2461      0.76564802
       4629.0850       1.1020965
       4629.9238      0.86025126
       4630.7627       1.0409164
       4631.6016      0.89826052
       4632.4405      0.95659297
       4633.2793      0.98679073
       4634.1182      0.96233655
       4634.9571      0.98627541
       4635.7960      0.81828372
       4636.6348      0.87564436
       4637.4737      0.90672065
       4638.3126      0.74790757
       4639.1514      0.73242718
       4639.9903      0.82822132
       4640.8292      0.85468814
       4641.6681      0.91569795
       4642.5069      0.83716855
       4643.3458       1.0719953
       4644.1847      0.93244875
       4645.0236      0.95036435
       4645.8624      0.92574040
       4646.7013      0.92296240
       4647.5402      0.78885195
       4648.3790      0.75644975
       4649.2179      0.79230852
       4650.0568      0.92832362
       4650.8957      0.82331210
       4651.7345      0.83093929
       4652.5734      0.84434951
       4653.4123      0.91028397
       4654.2512      0.87505238
       4655.0900      0.96022939
       4655.9289      0.89054478
       4656.7678      0.84061917
       4657.6066      0.76164514
       4658.4455      0.76652086
       4659.2844       1.0388833
       4660.1233       1.1713223
       4660.9621       1.0648024
       4661.8010      0.84408195
       4662.6399      0.93083021
       4663.4788      0.94039585
       4664.3176      0.88321006
       4665.1565      0.87263678
       4665.9954      0.91830737
       4666.8343      0.86202036
       4667.6731      0.82369167
       4668.5120      0.85191747
       4669.3509      0.79706386
       4670.1897      0.76069462
       4671.0286       1.0365927
       4671.8675      0.88678774
       4672.7064      0.91891591
       4673.5452      0.92112640
       4674.3841      0.95987390
       4675.2230      0.93993834
       4676.0619      0.84982352
       4676.9007      0.96747626
       4677.7396      0.90196897
       4678.5785      0.95836368
       4679.4173      0.88803163
       4680.2562      0.88575123
       4681.0951       1.0241396
       4681.9340      0.93016198
       4682.7728      0.96255632
       4683.6117      0.87208859
       4684.4506      0.95925538
       4685.2895      0.81574706
       4686.1283      0.88705049
       4686.9672      0.79794633
       4687.8061      0.76341570
       4688.6449      0.84297949
       4689.4838      0.92803480
       4690.3227       1.1203676
       4691.1616      0.98713827
       4692.0004       1.1379917
       4692.8393      0.94537610
       4693.6782      0.84440001
       4694.5171      0.80957032
       4695.3559      0.98184776
       4696.1948      0.87651250
       4697.0337      0.79190555
       4697.8725      0.99548348
       4698.7114      0.90682354
       4699.5503      0.96160434
       4700.3892      0.91100842
       4701.2280      0.91211907
       4702.0669      0.96236472
       4702.9058      0.91500751
       4703.7447      0.86809382
       4704.5835      0.82537879
       4705.4224      0.91400337
       4706.2613      0.97481793
       4707.1002      0.89119305
       4707.9390      0.74761317
       4708.7779      0.82193138
       4709.6168      0.93640061
       4710.4556      0.83797932
       4711.2945      0.77879661
       4712.1334      0.90196778
       4712.9723      0.92290134
       4713.8111      0.79530410
       4714.6500      0.97133773
       4715.4889      0.88582881
       4716.3278      0.92438090
       4717.1666      0.95706195
       4718.0055      0.95237007
       4718.8444      0.98668565
       4719.6832      0.93226004
       4720.5221      0.96290003
       4721.3610      0.95174212
       4722.1999      0.99134198
       4723.0387      0.96548023
       4723.8776      0.89039502
       4724.7165      0.95523219
       4725.5554      0.94434535
       4726.3942      0.86289947
       4727.2331       1.0397254
       4728.0720      0.84885942
       4728.9108      0.90259976
       4729.7497      0.95732454
       4730.5886      0.94902410
       4731.4275       1.0759851
       4732.2663      0.97890363
       4733.1052      0.94315138
       4733.9441      0.90090598
       4734.7830      0.94480894
       4735.6218      0.92406692
       4736.4607      0.89243099
       4737.2996      0.90029307
       4738.1384       1.0393573
       4738.9773      0.85833471
       4739.8162      0.87306939
       4740.6551      0.89365162
       4741.4939      0.96023178
       4742.3328      0.89799182
       4743.1717      0.87115614
       4744.0106      0.84553095
       4744.8494      0.93459377
       4745.6883      0.92541044
       4746.5272      0.85205099
       4747.3661      0.94060356
       4748.2049      0.95951108
       4749.0438       1.0016333
       4749.8827       1.0768510
       4750.7215      0.76433503
       4751.5604      0.81927348
       4752.3993      0.93783025
       4753.2382      0.85658056
       4754.0770      0.94193491
       4754.9159       1.0524604
       4755.7548       1.0084638
       4756.5937      0.99856532
       4757.4325       1.0277979
       4758.2714       1.0616360
       4759.1103      0.82716729
       4759.9491      0.85254735
       4760.7880      0.97274174
       4761.6269      0.95799564
       4762.4658       1.0934721
       4763.3046       1.0018382
       4764.1435      0.97000124
       4764.9824      0.95435816
       4765.8213      0.98283338
       4766.6601      0.86778963
       4767.4990      0.90065816
       4768.3379      0.83318457
       4769.1767      0.89563276
       4770.0156      0.85834368
       4770.8545      0.90526344
       4771.6934      0.92745129
       4772.5322      0.92844393
       4773.3711      0.81300565
       4774.2100      0.95755847
       4775.0489       1.2322365
       4775.8877      0.99785209
       4776.7266       1.1391080
       4777.5655       1.0184861
       4778.4044       1.0492664
       4779.2432      0.93242366
       4780.0821      0.80162981
       4780.9210      0.68735861
       4781.7598      0.62029211
       4782.5987      0.61901299
       4783.4376      0.74951788
       4784.2765      0.84671419
       4785.1153      0.72010376
       4785.9542      0.70327706
       4786.7931      0.82434472
       4787.6320      0.86799347
       4788.4708      0.69750758
       4789.3097      0.93317381
       4790.1486      0.88601792
       4790.9874      0.93372507
       4791.8263      0.81123549
       4792.6652      0.84717902
       4793.5041      0.92413965
       4794.3429      0.86119553
       4795.1818      0.79925350
       4796.0207      0.95377970
       4796.8596      0.82824899
       4797.6984      0.85939272
       4798.5373      0.91316104
       4799.3762       1.0032473
       4800.2150      0.96335977
       4801.0539      0.92820866
       4801.8928      0.67881071
       4802.7317      0.77276022
       4803.5705      0.78781063
       4804.4094      0.80973520
       4805.2483      0.81233583
       4806.0872      0.87102318
       4806.9260      0.99671359
       4807.7649      0.98875118
       4808.6038      0.99163682
       4809.4426      0.84435998
       4810.2815      0.82048728
       4811.1204      0.96240141
       4811.9593      0.90078823
       4812.7981      0.98335590
       4813.6370      0.98467091
       4814.4759      0.85753003
       4815.3148      0.94302261
       4816.1536      0.84180066
       4816.9925      0.86277242
       4817.8314      0.95573446
       4818.6703       1.1466482
       4819.5091       1.1784549
       4820.3480      0.97916143
       4821.1869      0.91368244
       4822.0257      0.92614154
       4822.8646      0.97667896
       4823.7035       1.0368069
       4824.5424       1.0195058
       4825.3812      0.98470776
       4826.2201      0.99432501
       4827.0590       1.1340771
       4827.8979      0.91027687
       4828.7367      0.85839094
       4829.5756      0.98430814
       4830.4145      0.99026194
       4831.2533       1.0454584
       4832.0922      0.90481374
       4832.9311       1.0915574
       4833.7700      0.97476277
       4834.6088      0.91460252
       4835.4477      0.99263966
       4836.2866       1.1782887
       4837.1255       1.0260198
       4837.9643      0.90597445
       4838.8032       1.0284642
       4839.6421      0.93139743
       4840.4809       1.0672471
       4841.3198      0.88434014
       4842.1587      0.69232091
       4842.9976      0.86068546
       4843.8364       1.1047217
       4844.6753       1.0017587
       4845.5142      0.90602520
       4846.3531      0.92836098
       4847.1919      0.86047531
       4848.0308      0.91091585
       4848.8697      0.80992804
       4849.7085      0.86214407
       4850.5474      0.81251495
       4851.3863      0.87541977
       4852.2252      0.78044300
       4853.0640      0.88164979
       4853.9029      0.79458827
       4854.7418      0.92615285
       4855.5807      0.93514503
       4856.4195      0.82274686
       4857.2584      0.85073581
       4858.0973      0.75381183
       4858.9362      0.76876713
       4859.7750      0.76314993
       4860.6139      0.79206420
       4861.4528      0.74594415
       4862.2916      0.69689263
       4863.1305      0.84363426
       4863.9694       1.0942359
       4864.8083       1.1868382
       4865.6471       1.2676028
       4866.4860       1.1790602
       4867.3249       1.3466113
       4868.1638       1.3304496
       4869.0026       1.3606092
       4869.8415       1.2875645
       4870.6804       1.1242534
       4871.5192       1.0522532
       4872.3581      0.83315186
       4873.1970      0.90794137
       4874.0359      0.82539040
       4874.8747      0.72758659
       4875.7136      0.79276184
       4876.5525      0.74539980
       4877.3914      0.71184289
       4878.2302      0.84996079
       4879.0691      0.97074537
       4879.9080      0.83046441
       4880.7468      0.95161624
       4881.5857      0.88832978
       4882.4246      0.87766104
       4883.2635      0.89960433
       4884.1023      0.96504230
       4884.9412      0.93218633
       4885.7801      0.94955617
       4886.6190      0.98436213
       4887.4578       1.0056435
       4888.2967       1.0592355
       4889.1356      0.93912022
       4889.9745      0.77904515
       4890.8133      0.94931244
       4891.6522      0.92597240
       4892.4911       1.0292499
       4893.3299      0.84615375
       4894.1688      0.92028129
       4895.0077       1.0760113
       4895.8466      0.90555014
       4896.6854      0.85297521
       4897.5243      0.88162223
       4898.3632      0.90151121
       4899.2021      0.82106506
       4900.0409      0.97364794
       4900.8798      0.92060498
       4901.7187      0.98512823
       4902.5575       1.0547146
       4903.3964       1.0095517
       4904.2353      0.90074164
       4905.0742      0.98237293
       4905.9130      0.99295097
       4906.7519       1.0491903
       4907.5908      0.96046270
       4908.4297      0.89256133
       4909.2685      0.88575958
       4910.1074       1.0580733
       4910.9463      0.92201113
       4911.7851       1.0286732
       4912.6240      0.99320480
       4913.4629      0.95285651
       4914.3018      0.85671300
       4915.1406      0.91930028
       4915.9795       1.0777358
       4916.8184       1.0597778
       4917.6573       1.0302324
       4918.4961      0.92151837
       4919.3350      0.91894480
       4920.1739       1.0227824
       4921.0127      0.89541670
       4921.8516      0.97477784
       4922.6905       1.0055086
       4923.5294      0.95910591
       4924.3682      0.85822049
       4925.2071      0.94773232
       4926.0460      0.91834279
       4926.8849      0.98694776
       4927.7237       1.0444014
       4928.5626      0.91204644
       4929.4015       1.0110329
       4930.2404      0.96749855
       4931.0792       1.0828810
       4931.9181       1.0980776
       4932.7570       1.0365887
       4933.5958       1.0376228
       4934.4347       1.0650950
       4935.2736       1.0381563
       4936.1125       1.1312256
       4936.9513       1.1688265
       4937.7902       1.1800911
       4938.6291      0.96587243
       4939.4680       1.0939475
       4940.3068      0.98484315
       4941.1457       1.0633324
       4941.9846       1.0183146
       4942.8234       1.0503822
       4943.6623      0.96126210
       4944.5012      0.97326373
       4945.3401      0.96513485
       4946.1789      0.98539397
       4947.0178      0.92093041
       4947.8567       1.0738226
       4948.6956      0.94009663
       4949.5344      0.94108627
       4950.3733      0.97380001
       4951.2122       1.1004737
       4952.0510      0.97413227
       4952.8899       1.0386225
       4953.7288       1.0162671
       4954.5677       1.0184718
       4955.4065       1.0049632
       4956.2454       1.1109041
       4957.0843       1.0894282
       4957.9232       1.0034720
       4958.7620       1.0015940
       4959.6009      0.99536745
       4960.4398      0.98767755
       4961.2786       1.1006258
       4962.1175       1.1929498
       4962.9564       1.0787268
       4963.7953       1.0606136
       4964.6341      0.84395868
       4965.4730       1.1694882
       4966.3119       1.1812869
       4967.1508       1.0471472
       4967.9896       1.0859677
       4968.8285       1.0411022
       4969.6674      0.93202170
       4970.5063      0.95055687
       4971.3451       1.0102362
       4972.1840      0.90239291
       4973.0229       1.0650011
       4973.8617       1.0725815
       4974.7006       1.0760877
       4975.5395       1.1975848
       4976.3784      0.94495413
       4977.2172       1.0475993
       4978.0561       1.0762676
       4978.8950       1.0168947
       4979.7339       1.1455554
       4980.5727       1.0667671
       4981.4116      0.98599033
       4982.2505       1.0112640
       4983.0893       1.2743142
       4983.9282       1.0935548
       4984.7671      0.93290738
       4985.6060       1.0239326
       4986.4448      0.89316919
       4987.2837      0.84823635
       4988.1226      0.94883604
       4988.9615       1.0302171
       4989.8003      0.91963180
       4990.6392      0.83042686
       4991.4781      0.77856449
       4992.3169      0.88898424
       4993.1558       1.0150335
       4993.9947       1.0352046
       4994.8336      0.82911531
       4995.6724      0.90583146
       4996.5113       1.0733317
       4997.3502       1.0183825
       4998.1891      0.98320939
       4999.0279      0.95606985
       4999.8668       1.0462637
       5000.7057       1.0033396
       5001.5446       1.0865002
       5002.3834      0.92216169
       5003.2223      0.94511506
       5004.0612       1.0397893
       5004.9000       1.0552642
       5005.7389      0.92714396
       5006.5778      0.89312299
       5007.4167      0.97599813
       5008.2555       1.0458743
       5009.0944       1.0622918
       5009.9333      0.95443512
       5010.7722       1.1370218
       5011.6110       1.2249491
       5012.4499       1.3183724
       5013.2888       1.3802871
       5014.1276       1.3446946
       5014.9665       1.3413507
       5015.8054       1.3907958
       5016.6443       1.2624810
       5017.4831       1.1672855
       5018.3220      0.99196069
       5019.1609       1.0381954
       5019.9998      0.96570403
       5020.8386      0.92064873
       5021.6775      0.97868752
       5022.5164      0.95689845
       5023.3552      0.99991590
       5024.1941      0.94681086
       5025.0330      0.97426413
       5025.8719      0.93848530
       5026.7107       1.0852897
       5027.5496       1.0113333
       5028.3885      0.92639556
       5029.2274       1.0021759
       5030.0662      0.99020075
       5030.9051      0.84217408
       5031.7440       1.0258386
       5032.5828       1.0172583
       5033.4217      0.95198049
       5034.2606      0.82674724
       5035.0995      0.99054922
       5035.9383      0.89491285
       5036.7772       1.0640674
       5037.6161      0.97594157
       5038.4550      0.93499670
       5039.2938      0.93218567
       5040.1327       1.1683958
       5040.9716      0.98667977
       5041.8105       1.0629803
       5042.6493       1.0657940
       5043.4882       1.0088811
       5044.3271       1.0783242
       5045.1659       1.0188879
       5046.0048      0.95761462
       5046.8437      0.95627194
       5047.6826      0.96374465
       5048.5214      0.88760261
       5049.3603      0.88977265
       5050.1992      0.94689244
       5051.0381      0.95419285
       5051.8769      0.97412722
       5052.7158       1.0296234
       5053.5547      0.96211327
       5054.3935      0.90237558
       5055.2324      0.99640212
       5056.0713      0.99993559
       5056.9102      0.99237786
       5057.7490      0.98661472
       5058.5879       1.0459080
       5059.4268       1.1121525
       5060.2657       1.1208328
       5061.1045       1.0582896
       5061.9434      0.91957721
       5062.7823      0.92075832
       5063.6211       1.0704286
       5064.4600       1.0162246
       5065.2989       1.1413744
       5066.1378       1.0420697
       5066.9766       1.1976393
       5067.8155       1.2592788
       5068.6544       1.1454577
       5069.4933      0.65341236
       5070.3321      0.92948843
       5071.1710      0.92931221
       5072.0099      0.92681304
       5072.8487      0.90150882
       5073.6876      0.93692489
       5074.5265      0.95318584
       5075.3654       1.0808573
       5076.2042       1.0241349
       5077.0431       1.0009469
       5077.8820       1.0830460
       5078.7209       1.0410407
       5079.5597       1.0333128
       5080.3986       1.0280641
       5081.2375      0.96533393
       5082.0764       1.0273263
       5082.9152       1.1637878
       5083.7541       1.0607782
       5084.5930      0.96323118
       5085.4318      0.89299305
       5086.2707       1.0168285
       5087.1096      0.96306302
       5087.9485      0.95676832
       5088.7873      0.97566251
       5089.6262      0.94707552
       5090.4651       1.0832123
       5091.3040       1.0268325
       5092.1428       1.1148100
       5092.9817      0.92353020
       5093.8206       1.0603030
       5094.6594       1.0353998
       5095.4983      0.97680342
       5096.3372      0.96578832
       5097.1761      0.78114203
       5098.0149       1.0336523
       5098.8538       1.0743958
       5099.6927      0.92077391
       5100.5316      0.96331832
       5101.3704       1.1661925
       5102.2093       1.1326803
       5103.0482       1.0807105
       5103.8870      0.95960565
       5104.7259       1.1422993
       5105.5648      0.91886166
       5106.4037      0.89210133
       5107.2425      0.98110071
       5108.0814       1.0225606
       5108.9203       1.0853361
       5109.7592      0.98766174
       5110.5980       1.2949539
       5111.4369       1.1523044
       5112.2758       1.2865579
       5113.1147       1.2568136
       5113.9535      0.98082411
       5114.7924       1.0400373
       5115.6313      0.81999020
       5116.4701      0.88595263
       5117.3090      0.90798406
       5118.1479      0.92595694
       5118.9868       1.0147015
       5119.8256       1.0291279
       5120.6645       1.0025295
       5121.5034       1.0690337
       5122.3423       1.0664143
       5123.1811      0.97512063
       5124.0200       1.1447179
       5124.8589       1.0700988
       5125.6977       1.0492624
       5126.5366      0.91459445
       5127.3755       1.1749935
       5128.2144      0.85552232
       5129.0532       1.0501104
       5129.8921      0.82025468
       5130.7310      0.86241546
       5131.5699       1.0168011
       5132.4087       1.2227697
       5133.2476       1.0143579
       5134.0865       1.0307712
       5134.9253      0.94025344
       5135.7642       1.0438394
       5136.6031      0.88357440
       5137.4420      0.73840511
       5138.2808      0.88736427
       5139.1197       1.0225225
       5139.9586      0.99737798
       5140.7975       1.1362226
       5141.6363      0.97187487
       5142.4752       1.0270715
       5143.3141       1.1124952
       5144.1529       1.1602809
       5144.9918       1.0247327
       5145.8307       1.0856459
       5146.6696       1.0285080
       5147.5084       1.0297093
       5148.3473       1.0058020
       5149.1862       1.0395683
       5150.0251      0.95494560
       5150.8639       1.1049196
       5151.7028      0.95472935
       5152.5417      0.90926687
       5153.3806       1.1000097
       5154.2194       1.0754135
       5155.0583       1.0021497
       5155.8972       1.1067230
       5156.7360      0.96374257
       5157.5749       1.0791500
       5158.4138      0.83594677
       5159.2527       1.1912086
       5160.0915       1.0880618
       5160.9304       1.0314598
       5161.7693       1.0802425
       5162.6082       1.0796650
       5163.4470       1.1516613
       5164.2859       1.0640791
       5165.1248       1.1367530
       5165.9636       1.0410439
       5166.8025       1.0631832
       5167.6414       1.1198168
       5168.4803       1.1899145
       5169.3191       1.0870279
       5170.1580       1.1059270
       5170.9969       1.1161849
       5171.8358       1.0739487
       5172.6746       1.0262262
       5173.5135      0.96346147
       5174.3524      0.81321735
       5175.1912      0.99010838
       5176.0301      0.93993784
       5176.8690      0.97701905
       5177.7079      0.97361697
       5178.5467       1.0135060
       5179.3856      0.98281086
       5180.2245       1.1315266
       5181.0634       1.1443907
       5181.9022       1.0955043
       5182.7411      0.98324783
       5183.5800      0.92666204
       5184.4188      0.88553514
       5185.2577      0.89105371
       5186.0966       1.0449975
       5186.9355       1.0734394
       5187.7743      0.97949962
       5188.6132      0.99451442
       5189.4521      0.89294151
       5190.2910      0.94222029
       5191.1298      0.97196721
       5191.9687      0.92560289
       5192.8076      0.81623507
       5193.6465      0.85685181
       5194.4853      0.91610902
       5195.3242      0.94597284
       5196.1631      0.95260095
       5197.0019      0.99872287
       5197.8408       1.1515967
       5198.6797       1.1778529
       5199.5186      0.98275296
       5200.3574       1.0008694
       5201.1963       1.0219550
       5202.0352       1.0011692
       5202.8741       1.0856968
       5203.7129       1.0619823
       5204.5518       1.0823441
       5205.3907       1.0226557
       5206.2295       1.1893318
       5207.0684       1.1881583
       5207.9073       1.2271576
       5208.7462       1.1119199
       5209.5850       1.1234779
       5210.4239       1.1639617
       5211.2628       1.0538279
       5212.1017       1.0315674
       5212.9405       1.1378343
       5213.7794       1.0333398
       5214.6183       1.0184598
       5215.4571       1.0570033
       5216.2960       1.0222943
       5217.1349      0.87188926
       5217.9738      0.88917453
       5218.8126       1.1081677
       5219.6515      0.92610636
       5220.4904      0.98291783
       5221.3293       1.1526513
       5222.1681       1.0735508
       5223.0070      0.97903712
       5223.8459      0.92484319
       5224.6848       1.0536898
       5225.5236       1.0639115
       5226.3625       1.1133915
       5227.2014       1.1366793
       5228.0402       1.1269786
       5228.8791       1.0735166
       5229.7180       1.2259957
       5230.5569       1.1072833
       5231.3957       1.1480472
       5232.2346       1.1901812
       5233.0735       1.1060530
       5233.9124       1.0312726
       5234.7512      0.97362258
       5235.5901       1.0949239
       5236.4290       1.1117172
       5237.2678      0.99108636
       5238.1067      0.94432936
       5238.9456      0.98050578
       5239.7845       1.0541330
       5240.6233       1.2922828
       5241.4622       1.0646041
       5242.3011       1.2813035
       5243.1400       1.2492251
       5243.9788       1.1660590
       5244.8177       1.2609805
       5245.6566       1.2695947
       5246.4954       1.1261053
       5247.3343       1.1427779
       5248.1732       1.2829936
       5249.0121       1.0467897
       5249.8509       1.1834331
       5250.6898       1.1900256
       5251.5287       1.2275862
       5252.3676       1.0867247
       5253.2064       1.2470532
       5254.0453       1.2140564
       5254.8842       1.2114559
       5255.7230      0.98682382
       5256.5619       1.0994531
       5257.4008      0.95489958
       5258.2397       1.1835995
       5259.0785       1.1463140
       5259.9174       1.1524275
       5260.7563       1.0963300
       5261.5952      0.99405851
       5262.4340       1.0815766
       5263.2729       1.1148884
       5264.1118       1.1307248
       5264.9507      0.97883966
       5265.7895       1.1410070
       5266.6284       1.1093460
       5267.4673       1.2980837
       5268.3061       1.3120349
       5269.1450       1.0880981
       5269.9839       1.1508329
       5270.8228       1.1423299
       5271.6616       1.0199237
       5272.5005       1.0451150
       5273.3394       1.1115208
       5274.1783       1.1407614
       5275.0171      0.98706124
       5275.8560      0.94089462
       5276.6949       1.0492649
       5277.5337       1.0341962
       5278.3726       1.0478081
       5279.2115      0.86695949
       5280.0504      0.96778501
       5280.8892       1.0839736
       5281.7281       1.1158419
       5282.5670       1.0588095
       5283.4059      0.98154712
       5284.2447       1.1294621
       5285.0836       1.0211543
       5285.9225       1.1728038
       5286.7613       1.1443142
       5287.6002       1.2188481
       5288.4391       1.0086830
       5289.2780      0.99564101
       5290.1168      0.90933728
       5290.9557      0.94985363
       5291.7946      0.86454905
       5292.6335      0.71601889
       5293.4723      0.65191350
       5294.3112      0.65083263
       5295.1501             NaN
       5295.9889             NaN
       5296.8278             NaN
       5297.6667             NaN
       5298.5056             NaN
       5299.3444             NaN
       5300.1833             NaN
       5301.0222             NaN
       5301.8611             NaN
       5302.6999             NaN
       5303.5388             NaN
       5304.3777             NaN
       5305.2166             NaN
       5306.0554             NaN
       5306.8943             NaN
       5307.7332             NaN
       5308.5720             NaN
       5309.4109             NaN
       5310.2498             NaN
       5311.0887             NaN
       5311.9275             NaN
       5312.7664             NaN
       5313.6053             NaN
       5314.4442             NaN
       5315.2830             NaN
       5316.1219             NaN
       5316.9608             NaN
       5317.7996             NaN
       5318.6385             NaN
       5319.4774             NaN
       5320.3163             NaN
       5321.1551             NaN
       5321.9940             NaN
       5322.8329             NaN
       5323.6718             NaN
       5324.5106             NaN
       5325.3495             NaN
       5326.1884             NaN
       5327.0272             NaN
       5327.8661             NaN
       5328.7050             NaN
       5329.5439             NaN
       5330.3827             NaN
       5331.2216             NaN
       5332.0605             NaN
       5332.8994             NaN
       5333.7382             NaN
       5334.5771             NaN
       5335.4160             NaN
       5336.2549             NaN
       5337.0937             NaN
       5337.9326             NaN
       5338.7715             NaN
       5339.6103             NaN
       5340.4492             NaN
       5341.2881             NaN
       5342.1270             NaN
       5342.9658             NaN
       5343.8047             NaN
       5344.6436             NaN
       5345.4825             NaN
       5346.3213             NaN
       5347.1602             NaN
       5347.9991             NaN
       5348.8379             NaN
       5349.6768             NaN
       5350.5157             NaN
       5351.3546             NaN
       5352.1934             NaN
       5353.0323             NaN
       5353.8712             NaN
       5354.7101             NaN
       5355.5489             NaN
       5356.3878             NaN
       5357.2267             NaN
       5358.0655             NaN
       5358.9044             NaN
       5359.7433             NaN
       5360.5822             NaN
       5361.4210             NaN
       5362.2599             NaN
       5363.0988             NaN
       5363.9377             NaN
       5364.7765             NaN
       5365.6154             NaN
       5366.4543             NaN
       5367.2931             NaN
       5368.1320             NaN
       5368.9709       1.2821408
       5369.8098       1.2674590
       5370.6486       1.3566685
       5371.4875      0.98536335
       5372.3264       1.3718575
       5373.1653       1.4659272
       5374.0041       1.5183275
       5374.8430       1.1074267
       5375.6819       1.2892792
       5376.5208       1.1390896
       5377.3596       1.4009242
       5378.1985       1.2328360
       5379.0374       1.0259012
       5379.8762       1.2943887
       5380.7151       1.0027366
       5381.5540       1.1308445
       5382.3929       1.0404924
       5383.2317       1.2075382
       5384.0706       1.2279564
       5384.9095       1.2234037
       5385.7484       1.0860409
       5386.5872       1.2525542
       5387.4261       1.3476533
       5388.2650       1.1224521
       5389.1038       1.1226469
       5389.9427       1.1023672
       5390.7816       1.2502117
       5391.6205       1.2331571
       5392.4593       1.1788272
       5393.2982       1.1503181
       5394.1371       1.1783752
       5394.9760       1.2938477
       5395.8148       1.1014926
       5396.6537       1.2235117
       5397.4926       1.6648906
       5398.3314       1.4092647
       5399.1703       1.1736718
       5400.0092       1.2830636
       5400.8481       1.3768238
       5401.6869      0.76019048
       5402.5258      0.94371334
       5403.3647       1.2595573
       5404.2036       1.2290044
       5405.0424       1.1519891
       5405.8813       1.0360647
       5406.7202       1.1446932
       5407.5590       1.1953033
       5408.3979       1.3001189
       5409.2368       1.1840732
       5410.0757       1.2032075
       5410.9145       1.0312249
       5411.7534       1.1832110
       5412.5923       1.0618382
       5413.4312       1.2674050
       5414.2700       1.3838389
       5415.1089       1.2874401
       5415.9478       1.1258059
       5416.7867       1.0440338
       5417.6255       1.1666584
       5418.4644       1.0875391
       5419.3033       1.1641603
       5420.1421       1.1542714
       5420.9810       1.2144532
       5421.8199       1.2647606
       5422.6588       1.1287228
       5423.4976      0.99506096
       5424.3365       1.1430353
       5425.1754       1.1346578
       5426.0143       1.0565321
       5426.8531       1.1818691
       5427.6920       1.3326275
       5428.5309       1.0749509
       5429.3697       1.2206623
       5430.2086       1.2149089
       5431.0475      0.95180753
       5431.8864       1.1118414
       5432.7252       1.0506698
       5433.5641       1.1895438
       5434.4030       1.1261941
       5435.2419       1.2877820
       5436.0807       1.2273689
       5436.9196       1.0255744
       5437.7585       1.1087583
       5438.5973       1.2894609
       5439.4362       1.2531863
       5440.2751       1.3202809
       5441.1140       1.0285144
       5441.9528       1.1707779
       5442.7917       1.0753006
       5443.6306       1.1284061
       5444.4695       1.0840984
       5445.3083       1.1748304
       5446.1472       1.0070923
       5446.9861       1.2349237
       5447.8250       1.4479924
       5448.6638       1.5174184
       5449.5027       1.2376694
       5450.3416       1.2496803
       5451.1804       1.3876940
       5452.0193      0.78983692
       5452.8582       1.0427950
       5453.6971       1.1253996
       5454.5359       1.0289618
       5455.3748       1.2328450
       5456.2137       1.2702458
       5457.0526       1.1497357
       5457.8914       1.1356066
       5458.7303       1.1120170
       5459.5692       1.1013698
       5460.4080       1.1347378
       5461.2469       1.3606954
       5462.0858       1.4764395
       5462.9247       1.1667522
       5463.7635       1.1683243
       5464.6024       1.0417046
       5465.4413      0.75611827
       5466.2802       1.1823675
       5467.1190       1.2231457
       5467.9579       1.1945536
       5468.7968       1.2253863
       5469.6356       1.2511970
       5470.4745       1.0423387
       5471.3134      0.79780170
       5472.1523       1.2473275
       5472.9911       1.4906300
       5473.8300       1.2448370
       5474.6689       1.2286399
       5475.5078       1.1148731
       5476.3466       1.3179273
       5477.1855       1.3960664
       5478.0244       1.3778679
       5478.8632       1.1008507
       5479.7021       1.3454790
       5480.5410       1.1991718
       5481.3799       1.1942152
       5482.2187       1.4684453
       5483.0576       1.0468833
       5483.8965       1.2514732
       5484.7354      0.86461456
       5485.5742       1.0551307
       5486.4131      0.92432972
       5487.2520       1.2643399
       5488.0909       1.2460435
       5488.9297       1.0109319
       5489.7686       1.2788465
       5490.6075       1.0336053
       5491.4463      0.97617361
       5492.2852       1.0354105
       5493.1241       1.3054270
       5493.9630       1.0231098
       5494.8018       1.1052045
       5495.6407       1.4451140
       5496.4796       1.3306096
       5497.3185       1.6030152
       5498.1573       1.5269714
       5498.9962       1.3809207
       5499.8351       1.2503275
       5500.6739       1.0357704
       5501.5128       1.2818442
       5502.3517       1.2772614
       5503.1906       1.2226724
       5504.0294       1.3226780
       5504.8683       1.1161150
       5505.7072       1.1754374
       5506.5461       1.2021430
       5507.3849       1.1996842
       5508.2238       1.1628423
       5509.0627       1.2791632
       5509.9015       1.1695998
       5510.7404       1.0534707
       5511.5793       1.1140344
       5512.4182       1.2537804
       5513.2570       1.6751329
       5514.0959       1.3314885
       5514.9348       1.1693521
       5515.7737       1.5037640
       5516.6125       1.2510010
       5517.4514      0.98294263
       5518.2903       1.3184580
       5519.1291       1.3414673
       5519.9680       1.2066371
       5520.8069       1.2554518
       5521.6458       1.0825603
       5522.4846       1.0588778
       5523.3235       1.3371499
       5524.1624       1.1871260
       5525.0013       1.1613053
       5525.8401       1.1295251
       5526.6790       1.1941899
       5527.5179       1.4035068
       5528.3568       1.1651067
       5529.1956       1.1038232
       5530.0345       1.0737761
       5530.8734       1.1271645
       5531.7122       1.2930604
       5532.5511       1.0806950
       5533.3900       1.2557603
       5534.2289       1.1590285
       5535.0677       1.2057395
       5535.9066       1.2612671
       5536.7455       1.2604363
       5537.5844       1.3167951
       5538.4232       1.2440603
       5539.2621       1.2684033
       5540.1010       1.3728186
       5540.9398       1.2618909
       5541.7787       1.0904017
       5542.6176       1.0989956
       5543.4565       1.0706590
       5544.2953       1.1998854
       5545.1342       1.0501368
       5545.9731       1.1355161
       5546.8120       1.1710485
       5547.6508       1.3346674
       5548.4897       1.2268164
       5549.3286       1.2583715
       5550.1674       1.3073973
       5551.0063       1.4836094
       5551.8452       1.0368882
       5552.6841       1.1218399
       5553.5229       1.2268573
       5554.3618       1.2061924
       5555.2007       1.2560447
       5556.0396       1.3510410
       5556.8784       1.2908095
       5557.7173       1.5494442
       5558.5562       1.2361439
       5559.3951       1.0813157
       5560.2339       1.2975630
       5561.0728       1.3192188
       5561.9117       1.1461180
       5562.7505       1.1400254
       5563.5894       1.2577873
       5564.4283       1.0399611
       5565.2672       1.2914133
       5566.1060       1.1023119
       5566.9449       1.3603887
       5567.7838      0.94711157
       5568.6227       1.2376305
       5569.4615       1.1945796
       5570.3004       1.4856570
       5571.1393       1.3233370
       5571.9781       1.3549768
       5572.8170       1.2882195
       5573.6559       1.0793524
       5574.4948       1.3210861
       5575.3336       1.3953017
       5576.1725       1.2890955
       5577.0114       1.1769715
       5577.8503       1.1741147
       5578.6891       1.1691225
       5579.5280       1.3785795
       5580.3669       1.2130568
       5581.2057       1.2280307
       5582.0446       1.1947033
       5582.8835       1.2672271
       5583.7224       1.2516833
       5584.5612       1.1059948
       5585.4001       1.3501918
       5586.2390       1.1158105
       5587.0779       1.4127464
       5587.9167       1.2703030
       5588.7556       1.2572897
       5589.5945       1.2418251
       5590.4333       1.1152883
       5591.2722       1.4049594
       5592.1111       1.3085090
       5592.9500       1.2449054
       5593.7888       1.3833476
       5594.6277       1.3235335
       5595.4666       1.1829014
       5596.3055       1.0594220
       5597.1443       1.1979246
       5597.9832       1.2569118
       5598.8221       1.2991950
       5599.6610       1.2615976
       5600.4998       1.1948952
       5601.3387       1.1982636
       5602.1776       1.3200663
       5603.0164       1.2645476
       5603.8553       1.2382057
       5604.6942       1.2115702
       5605.5331       1.2274358
       5606.3719       1.2405422
       5607.2108       1.2736671
       5608.0497       1.2430561
       5608.8886       1.2877351
       5609.7274       1.1164237
       5610.5663       1.2864518
       5611.4052       1.2597075
       5612.2440       1.3850402
       5613.0829       1.2016791
       5613.9218       1.1719651
       5614.7607       1.1922615
       5615.5995       1.2584113
       5616.4384       1.2364124
       5617.2773       1.2524058
       5618.1162       1.0512940
       5618.9550       1.3501381
       5619.7939       1.3116038
       5620.6328       1.2347615
       5621.4716       1.3469656
       5622.3105       1.3113486
       5623.1494       1.0737862
       5623.9883       1.1642075
       5624.8271       1.1696888
       5625.6660       1.2819715
       5626.5049       1.1711911
       5627.3438       1.1742394
       5628.1826       1.1993214
       5629.0215       1.2823418
       5629.8604       1.2992084
       5630.6992       1.2440796
       5631.5381       1.2735085
       5632.3770       1.2032839
       5633.2159       1.4324945
       5634.0547       1.2406546
       5634.8936       1.1663756
       5635.7325       1.1905188
       5636.5714       1.2050632
       5637.4102       1.3698665
       5638.2491       1.2176517
       5639.0880       1.1522084
       5639.9269       1.1834473
       5640.7657       1.3425149
       5641.6046       1.0956437
       5642.4435       1.3414219
       5643.2823       1.2543548
       5644.1212       1.1264120
       5644.9601       1.1631365
       5645.7990       1.1305719
       5646.6378       1.3309930
       5647.4767       1.2955822
       5648.3156       1.2187779
       5649.1545       1.1504522
       5649.9933       1.0799375
       5650.8322       1.2501896
       5651.6711       1.1339864
       5652.5099       1.3797057
       5653.3488       1.3898182
       5654.1877       1.1766358
       5655.0266       1.2025765
       5655.8654       1.2458979
       5656.7043       1.3884324
       5657.5432       1.2195289
       5658.3821       1.2717981
       5659.2209       1.2022327
       5660.0598       1.4504215
       5660.8987       1.2041767
       5661.7375       1.1203351
       5662.5764       1.3422198
       5663.4153       1.1556056
       5664.2542       1.2423670
       5665.0930       1.1422856
       5665.9319       1.0954043
       5666.7708       1.2562112
       5667.6097       1.1402915
       5668.4485      0.97661429
       5669.2874       1.1422455
       5670.1263       1.2646894
       5670.9652       1.3029436
       5671.8040       1.0737171
       5672.6429       1.2170503
       5673.4818       1.2143436
       5674.3206       1.1856237
       5675.1595       1.2860535
       5675.9984       1.2468612
       5676.8373       1.2621696
       5677.6761       1.3688808
       5678.5150       1.1751017
       5679.3539       1.2507576
       5680.1928       1.5224752
       5681.0316       1.1340408
       5681.8705       1.3295399
       5682.7094       1.1465715
       5683.5482       1.1830846
       5684.3871       1.1873282
       5685.2260       1.0545683
       5686.0649       1.1244940
       5686.9037       1.1340175
       5687.7426       1.1952019
       5688.5815       1.1169769
       5689.4204       1.1683341
       5690.2592       1.3719169
       5691.0981       1.2208023
       5691.9370       1.3035486
       5692.7758       1.3086578
       5693.6147       1.3078669
       5694.4536       1.2173132
       5695.2925       1.1745364
       5696.1313       1.2057402
       5696.9702       1.3079016
       5697.8091       1.2424317
       5698.6480      0.99550179
       5699.4868       1.1031929
       5700.3257       1.2282439
       5701.1646       1.3176007
       5702.0034       1.2760375
       5702.8423       1.2649555
       5703.6812       1.2960737
       5704.5201       1.3159093
       5705.3589       1.3252869
       5706.1978       1.2499338
       5707.0367       1.2870357
       5707.8756       1.2646668
       5708.7144       1.3435287
       5709.5533       1.2520276
       5710.3922       1.1792490
       5711.2311       1.2104915
       5712.0699       1.1797167
       5712.9088       1.1381202
       5713.7477       1.1246299
       5714.5865       1.1857142
       5715.4254       1.2245954
       5716.2643       1.0503259
       5717.1032       1.4817722
       5717.9420       1.4359440
       5718.7809       1.2578742
       5719.6198       1.3561556
       5720.4587       1.4147500
       5721.2975       1.1816988
       5722.1364       1.2529240
       5722.9753       1.1045706
       5723.8141       1.3182597
       5724.6530       1.1828687
       5725.4919       1.2532749
       5726.3308       1.3784777
       5727.1696       1.2529059
       5728.0085       1.3042899
       5728.8474       1.4487520
       5729.6863       1.3656460
       5730.5251       1.1892568
       5731.3640       1.2605488
       5732.2029       1.1781482
       5733.0417       1.2225710
       5733.8806       1.1407515
       5734.7195       1.1136341
       5735.5584       1.1301031
       5736.3972       1.3220732
       5737.2361       1.2230261
       5738.0750       1.2692941
       5738.9139       1.1598382
       5739.7527       1.3578871
       5740.5916       1.3545275
       5741.4305       1.1266795
       5742.2693       1.2334546
       5743.1082       1.1948239
       5743.9471       1.1800007
       5744.7860       1.2022383
       5745.6248       1.4040040
       5746.4637       1.3461366
       5747.3026       1.1986343
       5748.1415       1.2056076
       5748.9803       1.1053621
       5749.8192       1.3936690
       5750.6581       1.2670334
       5751.4970       1.1856433
       5752.3358       1.2561814
       5753.1747       1.2679178
       5754.0136       1.2142508
       5754.8524       1.3769634
       5755.6913       1.1862124
       5756.5302       1.5299066
       5757.3691       1.2567263
       5758.2079       1.2988557
       5759.0468       1.4552889
       5759.8857       1.3493341
       5760.7246       1.3139735
       5761.5634       1.3446864
       5762.4023       1.3405582
       5763.2412       1.2442325
       5764.0800       1.3071792
       5764.9189       1.2547872
       5765.7578       1.2669913
       5766.5967       1.2084562
       5767.4355       1.1868801
       5768.2744       1.1648572
       5769.1133       1.3473738
       5769.9522       1.3210444
       5770.7910       1.3094996
       5771.6299       1.3566695
       5772.4688       1.2585414
       5773.3076       1.0397301
       5774.1465       1.2118772
       5774.9854       1.4861025
       5775.8243      0.98844096
       5776.6631       1.0997045
       5777.5020      0.96031849
       5778.3409       1.1630525
       5779.1798       1.3326828
       5780.0186       1.5241208
       5780.8575       1.6391171
       5781.6964       1.3066072
       5782.5353       1.5598451
       5783.3741       1.2919920
       5784.2130       1.2630884
       5785.0519       1.2592319
       5785.8907       1.3974523
       5786.7296       1.3918079
       5787.5685       1.2168671
       5788.4074       1.3278015
       5789.2462       1.3756388
       5790.0851       1.1445532
       5790.9240       1.1502114
       5791.7629       1.1705698
       5792.6017       1.2322381
       5793.4406       1.0869795
       5794.2795       1.0270104
       5795.1183       1.0484596
       5795.9572       1.2078160
       5796.7961       1.1835493
       5797.6350       1.2073671
       5798.4738       1.3555392
       5799.3127       1.4102277
       5800.1516       1.4140164
       5800.9905       1.3438293
       5801.8293       1.2705475
       5802.6682       1.2995802
       5803.5071       1.2560846
       5804.3459       1.3590251
       5805.1848       1.2816275
       5806.0237       1.2519318
       5806.8626       1.3364903
       5807.7014       1.2060601
       5808.5403       1.1915749
       5809.3792       1.3017560
       5810.2181       1.3892639
       5811.0569       1.2742848
       5811.8958       1.5294858
       5812.7347       1.5161595
       5813.5735       1.2253717
       5814.4124       1.7095056
       5815.2513       1.4738070
       5816.0902       1.0655939
       5816.9290       1.2359258
       5817.7679      0.92436183
       5818.6068       1.2964776
       5819.4457       1.2806853
       5820.2845       1.3672298
       5821.1234       1.5057066
       5821.9623       1.1492552
       5822.8012       1.1689097
       5823.6400      0.96280704
       5824.4789       1.2306480
       5825.3178       1.2188316
       5826.1566       1.2825058
       5826.9955       1.1128270
       5827.8344       1.1902676
       5828.6733       1.2410564
       5829.5121       1.1518913
       5830.3510       1.3941826
       5831.1899       1.1330372
       5832.0288       1.2435092
       5832.8676       1.3399620
       5833.7065       1.2174587
       5834.5454       1.3759485
       5835.3842       1.3248593
       5836.2231       1.1781920
       5837.0620       1.2015476
       5837.9009       1.4192632
       5838.7397       1.2933357
       5839.5786       1.2366710
       5840.4175       1.2994121
       5841.2564       1.1207620
       5842.0952       1.2097349
       5842.9341       1.2408857
       5843.7730       1.2453554
       5844.6118       1.4284407
       5845.4507       1.1550386
       5846.2896       1.2456919
       5847.1285       1.2479843
       5847.9673       1.4443885
       5848.8062       1.2159545
       5849.6451       1.5873529
       5850.4840       1.6005022
       5851.3228       1.4292794
       5852.1617       1.6277537
       5853.0006       1.5980681
       5853.8394       1.0456396
       5854.6783       1.6791513
       5855.5172       1.1443333
       5856.3561       1.6419485
       5857.1949       1.4175276
       5858.0338       1.4264727
       5858.8727       1.2910407
       5859.7116       1.3810179
       5860.5504       1.2666337
       5861.3893       1.3287110
       5862.2282       1.3246006
       5863.0671       1.2336993
       5863.9059       1.1516270
       5864.7448       1.1832060
       5865.5837       1.2210110
       5866.4225       1.0530739
       5867.2614       1.0609716
       5868.1003       1.2017673
       5868.9392       1.5057381
       5869.7780       1.2277140
       5870.6169       1.2151108
       5871.4558       1.3271174
       5872.2947       1.5668848
       5873.1335       1.3615441
       5873.9724       1.8449922
       5874.8113       1.1290564
       5875.6501      0.99668987
       5876.4890      0.93529864
       5877.3279       1.0096403
       5878.1668       1.0311227
       5879.0056       1.1958606
       5879.8445       1.2610425
       5880.6834       1.2634970
       5881.5223       1.2141671
       5882.3611       1.1552276
       5883.2000       1.4048221
       5884.0389       1.2997361
       5884.8777       1.2502219
       5885.7166       1.3593377
       5886.5555       1.4487997
       5887.3944       1.3518453
       5888.2332       1.3105181
       5889.0721       1.5754017
       5889.9110       1.7338078
       5890.7499       1.3805669
       5891.5887       1.6368027
       5892.4276       1.5162670
       5893.2665       1.2992358
       5894.1054       1.4294808
       5894.9442       1.3404304
       5895.7831       1.2066127
       5896.6220       1.5771909
       5897.4608       1.4164445
       5898.2997       1.2977129
       5899.1386       1.2329448
       5899.9775       1.2511383
       5900.8163       1.2119513
       5901.6552       1.0612258
       5902.4941      0.86097327
       5903.3330      0.99569533
       5904.1718      0.99393009
       5905.0107       1.1874170
       5905.8496       1.0837904
       5906.6884      0.90034752
       5907.5273       1.0650796
       5908.3662      0.86000620
       5909.2051       1.0032295
       5910.0439       1.1192268
       5910.8828       1.1333609
       5911.7217       1.0763113
       5912.5606       1.1377333
       5913.3994       1.1584390
       5914.2383       1.1993607
       5915.0772       1.2583465
       5915.9160       1.1979610
       5916.7549       1.2544369
       5917.5938       1.4323705
       5918.4327       1.2478991
       5919.2715       1.2640061
       5920.1104       1.1029778
       5920.9493       1.2176692
       5921.7882       1.2385031
       5922.6270       1.3176224
       5923.4659       1.2220003
       5924.3048       1.1517728
       5925.1436       1.2518866
       5925.9825       1.3915724
       5926.8214       1.1259599
       5927.6603       1.0299280
       5928.4991       1.1507652
       5929.3380       1.0673834
       5930.1769       1.3120735
       5931.0158       1.3239102
       5931.8546       1.2713784
       5932.6935       1.2362629
       5933.5324       1.2908990
       5934.3713       1.2626071
       5935.2101       1.2852270
       5936.0490       1.3458863
       5936.8879       1.4445151
       5937.7267       1.3877534
       5938.5656       1.4138642
       5939.4045       1.3258105
       5940.2434       1.3570508
       5941.0822       1.2525890
       5941.9211       1.3525045
       5942.7600       1.3115202
       5943.5989       1.3592690
       5944.4377       1.2781286
       5945.2766       1.2165137
       5946.1155       1.2913447
       5946.9543       1.1609006
       5947.7932       1.3228175
       5948.6321       1.2973828
       5949.4710       1.3456404
       5950.3098       1.4134809
       5951.1487       1.1720613
       5951.9876       1.2219230
       5952.8265       1.1469431
       5953.6653       1.5039599
       5954.5042       1.2263468
       5955.3431       1.2749044
       5956.1819       1.3357640
       5957.0208       1.5354718
       5957.8597       1.4304456
       5958.6986       1.0639921
       5959.5374       1.1721040
       5960.3763       1.2685370
       5961.2152       1.3024915
       5962.0541       1.3874409
       5962.8929       1.4108313
       5963.7318       1.3253560
       5964.5707       1.2547480
       5965.4095       1.2619047
       5966.2484       1.3602479
       5967.0873       1.3168804
       5967.9262       1.2726310
       5968.7650       1.1782826
       5969.6039       1.3497322
       5970.4428       1.3387069
       5971.2817       1.1767994
       5972.1205       1.2760369
       5972.9594       1.1783973
       5973.7983       1.3008341
       5974.6372       1.4506625
       5975.4760       1.3695111
       5976.3149       1.2789034
       5977.1538       1.1792987
       5977.9926       1.3369257
       5978.8315       1.4250343
       5979.6704       1.2107509
       5980.5093       1.2568797
       5981.3481       1.3055875
       5982.1870       1.1819725
       5983.0259       1.3874665
       5983.8648       1.3793033
       5984.7036       1.4212583
       5985.5425       1.3081694
       5986.3814       1.3654600
       5987.2202       1.2084901
       5988.0591       1.2385288
       5988.8980       1.2706996
       5989.7369       1.2711596
       5990.5757       1.3324448
       5991.4146       1.4582322
       5992.2535       1.4012804
       5993.0924       1.3018823
       5993.9312       1.3986822
       5994.7701       1.2721988
       5995.6090       1.2197911
       5996.4478       1.2725179
       5997.2867       1.4168561
       5998.1256       1.3380891
       5998.9645       1.2607259
       5999.8033       1.2348369
       6000.6422       1.4224312
       6001.4811       1.3903592
       6002.3200       1.2617260
       6003.1588       1.4094040
       6003.9977       1.5539407
       6004.8366       1.2723984
       6005.6755       1.3195749
       6006.5143       1.4608591
       6007.3532       1.4690834
       6008.1921       1.4302950
       6009.0309       1.0210571
       6009.8698       1.0622330
       6010.7087       1.1555481
       6011.5476       1.1354593
       6012.3864      0.95164555
       6013.2253      0.14008415
       6014.0642      0.23458658
       6014.9031      0.97016812
       6015.7419     0.055139979
       6016.5808      0.52548849
       6017.4197      0.40359476
       6018.2585      0.51843836
       6019.0974      0.81609050
       6019.9363      0.93432181
       6020.7752       1.0925312
       6021.6140       1.0457141
       6022.4529       1.3341774
       6023.2918       1.4284938
       6024.1307       1.2999540
       6024.9695       1.5370425
       6025.8084       1.3424759
       6026.6473       1.3721531
       6027.4861       1.3530282
       6028.3250       1.3856843
       6029.1639       1.3551725
       6030.0028       1.6628053
       6030.8416      0.96239514
       6031.6805       1.5963568
       6032.5194       1.2225169
       6033.3583       1.1189083
       6034.1971       1.4844054
       6035.0360       1.5142858
       6035.8749       1.6659949
       6036.7137       1.0980248
       6037.5526       1.2005887
       6038.3915      0.99501459
       6039.2304      0.91974569
       6040.0692       1.0321059
       6040.9081       1.0759842
       6041.7470       1.3201583
       6042.5859       1.4425875
       6043.4247       1.1660523
       6044.2636       1.1998250
       6045.1025       1.2773642
       6045.9414       1.2364970
       6046.7802       1.4929338
       6047.6191       1.5102066
       6048.4580       1.3994937
       6049.2968       1.2313167
       6050.1357       1.2891430
       6050.9746       1.1720883
       6051.8135       1.3596604
       6052.6523       1.4414169
       6053.4912       1.3200524
       6054.3301       1.2936310
       6055.1690       1.1283900
       6056.0078       1.2710656
       6056.8467       1.5076102
       6057.6856       1.2976225
       6058.5244       1.5175468
       6059.3633       1.3256477
       6060.2022       1.1102560
       6061.0411       1.4821548
       6061.8799       1.0731210
       6062.7188       1.4567011
       6063.5577       1.2876630
       6064.3966       1.2461429
       6065.2354       1.3022094
       6066.0743       1.3784398
       6066.9132       1.3151896
       6067.7520       1.2018721
       6068.5909       1.2668915
       6069.4298       1.4838838
       6070.2687       1.2592860
       6071.1075       1.3045197
       6071.9464       1.3823871
       6072.7853       1.4123988
       6073.6242       1.3593715
       6074.4630       1.3845487
       6075.3019       1.4113275
       6076.1408       1.3214168
       6076.9796       1.3855761
       6077.8185       1.3927495
       6078.6574       1.3391546
       6079.4963       1.3749782
       6080.3351       1.4113044
       6081.1740       1.4817577
       6082.0129       1.5857080
       6082.8518       1.5283635
       6083.6906       1.3563710
       6084.5295       1.3308667
       6085.3684       1.2812130
       6086.2073       1.3333023
       6087.0461       1.3746593
       6087.8850       1.3803820
       6088.7239       1.4314653
       6089.5627       1.4451015
       6090.4016       1.1901225
       6091.2405       1.3392265
       6092.0794       1.3244920
       6092.9182       1.3037125
       6093.7571       1.3234539
       6094.5960       1.3059805
       6095.4349       1.3919279
       6096.2737       1.3192324
       6097.1126       1.3642432
       6097.9515       1.5417120
       6098.7903       1.4647027
       6099.6292       1.3838423
       6100.4681       1.3965011
       6101.3070       1.3430311
       6102.1458       1.5105196
       6102.9847       1.5993792
       6103.8236       1.1417278
       6104.6625       1.3545828
       6105.5013       1.1708859
       6106.3402       1.5415329
       6107.1791       1.4857120
       6108.0179       1.8807104
       6108.8568       1.3261478
       6109.6957       1.6481914
       6110.5346       1.7596923
       6111.3734       1.3827924
       6112.2123      0.98231191
       6113.0512       1.5203239
       6113.8901       1.4688516
       6114.7289       1.0688235
       6115.5678       1.1979582
       6116.4067       1.0997948
       6117.2456      0.75878444
       6118.0844      0.98740661
       6118.9233      0.23860855
       6119.7622      0.16406474
       6120.6010      0.99995344
       6121.4399       1.0724589
       6122.2788       1.2865513
       6123.1177       1.2473982
       6123.9565       1.4327355
       6124.7954       1.0963737
       6125.6343       1.1151466
       6126.4732       1.5356873
       6127.3120       1.4449341
       6128.1509       1.1802743
       6128.9898       1.0516256
       6129.8286       1.2510346
       6130.6675       1.2819173
       6131.5064       1.5617576
       6132.3453       1.4110603
       6133.1841       1.3145870
       6134.0230       1.4916607
       6134.8619       1.3210221
       6135.7008       1.3617442
       6136.5396       1.2728897
       6137.3785       1.3719514
       6138.2174       1.4480034
       6139.0562       1.3839317
       6139.8951       1.4010449
       6140.7340       1.3666630
       6141.5729       1.2774838
       6142.4117       1.4915846
       6143.2506       1.4545259
       6144.0895       1.3618278
       6144.9284       1.5562741
       6145.7672       1.3392388
       6146.6061       1.3362009
       6147.4450       1.1385216
       6148.2838       1.7522991
       6149.1227       1.1277160
       6149.9616       1.3847038
       6150.8005       1.3814959
       6151.6393       1.2878306
       6152.4782       2.2133603
       6153.3171       1.4951146
       6154.1560      0.77883695
       6154.9948       1.3621794
       6155.8337       1.6297307
       6156.6726       1.5104772
       6157.5115       1.0645499
       6158.3503       1.3221978
       6159.1892       1.4014026
       6160.0281       1.0838133
       6160.8669       1.1532352
       6161.7058       1.2903131
       6162.5447       1.3141630
       6163.3836       1.2085210
       6164.2224       1.5149047
       6165.0613       1.5019087
       6165.9002       1.3062405
       6166.7391       1.2430103
       6167.5779       1.3504322
       6168.4168       1.2087092
       6169.2557       1.0792783
       6170.0945       1.0848283
       6170.9334       1.3949453
       6171.7723       1.1052204
       6172.6112       1.1841165
       6173.4500       1.0933835
       6174.2889       1.1813805
       6175.1278       1.2458723
       6175.9667       1.4097992
       6176.8055      0.99484675
       6177.6444       1.4119373
       6178.4833       1.5038373
       6179.3221       1.1505372
       6180.1610       1.6233903
       6180.9999      0.82789656
       6181.8388      0.94896538
       6182.6776       1.2251163
       6183.5165       1.3087123
       6184.3554       1.1768140
       6185.1943       1.2219473
       6186.0331       1.2805032
       6186.8720       1.3988844
       6187.7109       1.2947715
       6188.5497       1.4043736
       6189.3886       2.0556332
       6190.2275       2.7055621
       6191.0664       1.6539428
       6191.9052       1.2532605
       6192.7441       1.3314239
       6193.5830       1.3875802
       6194.4219      0.48273551
       6195.2607     0.063890159
       6196.0996       1.2793531
       6196.9385       1.3134516
       6197.7774       1.3133910
       6198.6162       1.2909792
       6199.4551       1.0707536
       6200.2940       1.2245578
       6201.1328       1.2677410
       6201.9717       1.6079144
       6202.8106       1.3386744
       6203.6495       1.1250363
       6204.4883       1.2024841
       6205.3272       1.5270820
       6206.1661       1.1400698
       6207.0050       1.1553364
       6207.8438       1.4757268
       6208.6827       1.2150081
       6209.5216       1.3310842
       6210.3604       1.3430825
       6211.1993       1.4582524
       6212.0382       1.3107709
       6212.8771       1.8082067
       6213.7159      0.64457757
       6214.5548       1.3649194
       6215.3937       2.1933863
       6216.2326      0.87857110
       6217.0714       1.2543244
       6217.9103      0.95304481
       6218.7492       1.4070132
       6219.5880       1.2495584
       6220.4269       1.2784038
       6221.2658       1.3095147
       6222.1047       1.2349487
       6222.9435       1.0906685
       6223.7824       1.1250148
       6224.6213       1.2001260
       6225.4602       1.2237714
       6226.2990       1.2229671
       6227.1379       1.2739390
       6227.9768       1.0920387
       6228.8157       1.2391726
       6229.6545       1.0917364
       6230.4934       1.2880960
       6231.3323       1.0295842
       6232.1711      0.79988639
       6233.0100       1.0311713
       6233.8489      0.92285711
       6234.6878      0.63041139
       6235.5266       1.3634948
       6236.3655      0.97445364
       6237.2044       1.1747218
       6238.0433       1.2089221
       6238.8821       1.2495285
       6239.7210       1.4192756
       6240.5599       1.4618146
       6241.3987       1.4513757
       6242.2376       1.4310590
       6243.0765       1.5110598
       6243.9154       1.1370203
       6244.7542      0.98536642
       6245.5931       1.7850705
       6246.4320      0.99032313
       6247.2709       1.2977078
       6248.1097       1.3690579
       6248.9486       1.3290503
       6249.7875       1.1987777
       6250.6263       1.3820021
       6251.4652       1.3297160
       6252.3041       1.3911999
       6253.1430       1.4630437
       6253.9818       1.1038574
       6254.8207       1.2406955
       6255.6596       1.2621542
       6256.4985       1.1547601
       6257.3373       1.1911078
       6258.1762       1.4446551
       6259.0151       1.3980884
       6259.8539       1.2732025
       6260.6928       1.4013982
       6261.5317       1.2419197
       6262.3706       1.2559436
       6263.2094       1.3051088
       6264.0483       1.1396479
       6264.8872       1.1100349
       6265.7261       1.2753502
       6266.5649       1.0004669
       6267.4038       1.2302657
       6268.2427       1.1604954
       6269.0816       1.0869684
       6269.9204      0.73161608
       6270.7593       1.4171572
       6271.5982       1.0967035
       6272.4370      0.97210889
       6273.2759      0.79536190
       6274.1148      0.81596920
       6274.9537      0.76105623
       6275.7925       1.5112176
       6276.6314       1.3240070
       6277.4703       1.2637896
       6278.3092       1.4115997
       6279.1480       1.3666331
       6279.9869       1.2527349
       6280.8258       1.2721780
       6281.6646       1.2798938
       6282.5035       1.3920905
       6283.3424       1.3449416
       6284.1813       1.2925876
       6285.0201       1.3906121
       6285.8590       1.2833047
       6286.6979       1.3551230
       6287.5368       1.2899916
       6288.3756       1.3105196
       6289.2145       1.4155481
       6290.0534       1.1982082
       6290.8922       1.3913149
       6291.7311       1.2373675
       6292.5700       1.2957087
       6293.4089       1.3200499
       6294.2477       1.2274660
       6295.0866       1.3415281
       6295.9255       1.5538328
       6296.7644       1.3449087
       6297.6032       1.5289702
       6298.4421       1.3813554
       6299.2810       1.5108495
       6300.1198       1.1850142
       6300.9587       1.4588942
       6301.7976       1.1644819
       6302.6365       1.1867226
       6303.4753       1.3671077
       6304.3142       1.1118540
       6305.1531       1.1449857
       6305.9920       1.2831116
       6306.8308       1.5048129
       6307.6697       1.2941236
       6308.5086       1.4748994
       6309.3475       1.5765423
       6310.1863       1.5548557
       6311.0252       1.6286653
       6311.8641       1.6254654
       6312.7029       1.6608532
       6313.5418       1.6024039
       6314.3807       1.6513708
       6315.2196       1.4260237
       6316.0584       1.5793240
       6316.8973       1.4814562
       6317.7362       1.3565355
       6318.5751       1.2787572
       6319.4139       1.1744127
       6320.2528       1.2065336
       6321.0917       1.2497472
       6321.9305       1.2344100
       6322.7694       1.3188521
       6323.6083       1.4868854
       6324.4472       1.4215269
       6325.2860       1.3195193
       6326.1249       1.4270495
       6326.9638       1.3543194
       6327.8027       1.4467336
       6328.6415       1.4413271
       6329.4804       1.2578705
       6330.3193       1.5279168
       6331.1581       1.3221776
       6331.9970       1.3245050
       6332.8359       1.3531527
       6333.6748       1.5083301
       6334.5136       1.3382318
       6335.3525       1.3649436
       6336.1914       1.6187900
       6337.0303       1.3647783
       6337.8691       1.5306951
       6338.7080       1.4088176
       6339.5469       1.4714194
       6340.3858       1.4551389
       6341.2246       1.8211998
       6342.0635       1.5231265
       6342.9024       1.6501855
       6343.7412       1.4223792
       6344.5801       1.3489144
       6345.4190       1.4782559
       6346.2579       1.2415345
       6347.0967       1.3425173
       6347.9356       1.1993517
       6348.7745       1.4654618
       6349.6134       1.4573598
       6350.4522       1.3500343
       6351.2911       1.3588366
       6352.1300       1.2354207
       6352.9688       1.4449898
       6353.8077       1.2863050
       6354.6466       1.3335002
       6355.4855       1.2727695
       6356.3243       1.3985777
       6357.1632       1.3645638
       6358.0021       1.5078225
       6358.8410       1.4178438
       6359.6798       1.3943277
       6360.5187       1.4607469
       6361.3576       1.4318330
       6362.1964       1.3830831
       6363.0353       1.3516398
       6363.8742       1.3784384
       6364.7131       1.4215466
       6365.5519       1.3970136
       6366.3908       1.3628817
       6367.2297       1.2524327
       6368.0686       1.4049060
       6368.9074       1.2358290
       6369.7463       1.2304957
       6370.5852       1.3394644
       6371.4240       1.3730861
       6372.2629       1.4401591
       6373.1018       1.3028291
       6373.9407       1.3961182
       6374.7795       1.5253239
       6375.6184       1.5185596
       6376.4573       1.5505446
       6377.2962       1.4208668
       6378.1350       1.3599403
       6378.9739       1.5074053
       6379.8128       1.1746488
       6380.6517       1.2660108
       6381.4905       1.4666923
       6382.3294       1.5003536
       6383.1683       1.4164868
       6384.0071       1.3595581
       6384.8460       1.3735099
       6385.6849       1.2055602
       6386.5238       1.4303248
       6387.3626       1.6020585
       6388.2015       1.5376142
       6389.0404       1.2840423
       6389.8793       1.5452950
       6390.7181       1.4622357
       6391.5570       1.3220178
       6392.3959       1.3177901
       6393.2347       1.3200960
       6394.0736       1.3322330
       6394.9125       1.2527385
       6395.7514       1.5364103
       6396.5902       1.4367734
       6397.4291       1.3734966
       6398.2680       1.6448429
       6399.1069       1.3023637
       6399.9457       1.4271503
       6400.7846       1.4735731
       6401.6235       1.5702816
       6402.4623       1.3701828
       6403.3012       1.5946831
       6404.1401       1.5633499
       6404.9790       1.5456790
       6405.8178       1.2913582
       6406.6567       1.3144257
       6407.4956       1.5924823
       6408.3345       1.5973706
       6409.1733       1.4759624
       6410.0122       1.6143968
       6410.8511       1.3085818
       6411.6899       1.3537697
       6412.5288       1.3480917
       6413.3677       1.4722126
       6414.2066       1.4351640
       6415.0454       1.3860622
       6415.8843       1.5132643
       6416.7232       1.5457273
       6417.5621       1.5654400
       6418.4009       1.7022868
       6419.2398       1.6162819
       6420.0787       1.5454210
       6420.9176       1.4750157
       6421.7564       1.2939322
       6422.5953       1.5460864
       6423.4342       1.6127374
       6424.2730       1.5403529
       6425.1119       1.5765369
       6425.9508       1.5802535
       6426.7897       1.4627239
       6427.6285       1.5531307
       6428.4674       1.5378494
       6429.3063       1.4656486
       6430.1452       1.4496120
       6430.9840       1.4991119
       6431.8229       1.4877671
       6432.6618       1.4580803
       6433.5006       1.6185106
       6434.3395       1.4219741
       6435.1784       1.4927923
       6436.0173       1.4811744
       6436.8561       1.5030475
       6437.6950       1.5186072
       6438.5339       1.4769736
       6439.3728       1.6887489
       6440.2116       1.5431142
       6441.0505       1.6958750
       6441.8894       1.5989398
       6442.7282       1.8129502
       6443.5671       1.7582654
       6444.4060       1.5221462
       6445.2449       1.6096124
       6446.0837       1.4488100
       6446.9226       1.5888547
       6447.7615       1.4912271
       6448.6004       1.4796178
       6449.4392       1.4059504
       6450.2781       1.6636945
       6451.1170       1.4122416
       6451.9559       1.5687140
       6452.7947       1.4623583
       6453.6336       1.6283753
       6454.4725       1.4906763
       6455.3113       1.4297092
       6456.1502       1.7068667
       6456.9891       1.7116831
       6457.8280       1.6385175
       6458.6668       1.5408910
       6459.5057       1.6003795
       6460.3446       1.4984665
       6461.1835       1.3211752
       6462.0223       1.3364628
       6462.8612       1.2338585
       6463.7001       1.1501850
       6464.5389       1.3232776
       6465.3778       1.4374318
       6466.2167       1.5249495
       6467.0556       1.4889959
       6467.8944       1.5343316
       6468.7333       1.4833125
       6469.5722       1.2969838
       6470.4111       1.7574711
       6471.2499       1.4118486
       6472.0888       1.5594226
       6472.9277       1.3599943
       6473.7665       1.4553892
       6474.6054       1.6272232
       6475.4443       1.7376743
       6476.2832       1.4922746
       6477.1220       1.5734368
       6477.9609       1.8277795
       6478.7998       1.6416200
       6479.6387       1.6329417
       6480.4775       1.3671308
       6481.3164       1.6821474
       6482.1553       1.4070521
       6482.9941       1.5957484
       6483.8330       1.5498881
       6484.6719       1.6385864
       6485.5108       1.4234097
       6486.3496       1.8063817
       6487.1885       2.3854647
       6488.0274       2.5061222
       6488.8663       3.1954393
       6489.7051       2.1243887
       6490.5440      0.68331087
       6491.3829       1.0822585
       6492.2218       1.7998565
       6493.0606       1.3076207
       6493.8995      0.93930662
       6494.7384       1.5492135
       6495.5772       2.1065601
       6496.4161       1.0728319
       6497.2550       1.3231754
       6498.0939       1.2399614
       6498.9327      0.58920135
       6499.7716      0.91020883
       6500.6105       1.2299990
       6501.4494       1.3278893
       6502.2882       1.0688983
       6503.1271       1.5822349
       6503.9660       1.2442125
       6504.8048       1.1341130
       6505.6437       1.3918045
       6506.4826       1.1209114
       6507.3215      0.99072522
       6508.1603       1.2080409
       6508.9992       1.6657089
       6509.8381       1.5454853
       6510.6770      0.96110002
       6511.5158      0.82814396
       6512.3547       1.2084193
       6513.1936      0.96424070
       6514.0324       1.0089414
       6514.8713       1.2463376
       6515.7102       1.4937793
       6516.5491       1.2066761
       6517.3879       1.3852030
       6518.2268       1.3372499
       6519.0657       1.1813119
       6519.9046       1.2072821
       6520.7434       1.1571879
       6521.5823      0.95496919
       6522.4212       1.2503887
       6523.2600       1.0635789
       6524.0989       1.2638922
       6524.9378       1.3445893
       6525.7767       1.3855998
       6526.6155       1.3453404
       6527.4544       1.5344525
       6528.2933       1.4766115
       6529.1322       1.3374046
       6529.9710       1.2153652
       6530.8099       1.1753461
       6531.6488       1.5104945
       6532.4877       2.3403352
       6533.3265       2.1232389
       6534.1654      0.84066114
       6535.0043       1.5019521
       6535.8431      0.67129498
       6536.6820      0.27209797
       6537.5209      -1.0522456
       6538.3598      0.76796095
       6539.1986       1.3527246
       6540.0375       1.4685536
       6540.8764       1.4403602
       6541.7153       1.8553073
       6542.5541       1.6669623
       6543.3930       1.8959451
       6544.2319       1.5425315
       6545.0707       1.4938750
       6545.9096       1.7446828
       6546.7485       1.7272856
       6547.5874       1.6672565
       6548.4262       1.6757153
       6549.2651       1.6224606
       6550.1040       1.4372873
       6550.9429       1.4171448
       6551.7817       1.3375949
       6552.6206       1.4732902
       6553.4595       1.4451762
       6554.2983       1.3811316
       6555.1372       1.5077272
       6555.9761       1.1679610
       6556.8150       1.3981114
       6557.6538       1.5801644
       6558.4927       1.6714387
       6559.3316       1.7982226
       6560.1705       1.8229996
       6561.0093       1.9742324
       6561.8482       2.0409829
       6562.6871       2.4076988
       6563.5260       1.8205983
       6564.3648       2.1975758
       6565.2037       2.4306299
       6566.0426       2.5404823
       6566.8814       1.7836299
       6567.7203       1.4544099
       6568.5592      0.95288811
       6569.3981       1.4184229
       6570.2369      0.97657593
       6571.0758       1.3193452
       6571.9147       1.5093712
       6572.7536       2.3589218
       6573.5924       3.2801959
       6574.4313       4.3539066
       6575.2702       4.8605760
       6576.1090       4.8853347
       6576.9479       4.9048218
       6577.7868       5.8280589
       6578.6257       4.1467053
       6579.4645       5.1086188
       6580.3034       3.6751268
       6581.1423       2.1564420
       6581.9812     -0.86197528
       6582.8200     -0.27173567
       6583.6589       1.5389931
       6584.4978       1.4871169
       6585.3366       1.4202568
       6586.1755       1.3932163
       6587.0144       1.5331807
       6587.8533       1.3673554
       6588.6921       1.5227714
       6589.5310       1.2658391
       6590.3699       1.7724142
       6591.2088       1.4016619
       6592.0476       1.3165290
       6592.8865       1.9297728
       6593.7254       2.0171792
       6594.5642       2.0777475
       6595.4031       2.3473839
       6596.2420       2.8771965
       6597.0809       3.1084961
       6597.9197       3.2458968
       6598.7586       3.2485439
       6599.5975       3.1472624
       6600.4364       3.0654872
       6601.2752       3.0915115
       6602.1141       2.8522662
       6602.9530       4.1897140
       6603.7919       3.0416326
       6604.6307       1.7850080
       6605.4696       3.1498232
       6606.3085       1.4454610
       6607.1473       1.1855571
       6607.9862      0.40482272
       6608.8251       1.2504567
       6609.6640       1.2441987
       6610.5028       1.5087609
       6611.3417       1.7294254
       6612.1806       1.8102584
       6613.0195       1.4948495
       6613.8583       1.5760274
       6614.6972       1.7476094
       6615.5361       1.6583910
       6616.3749       1.5850457
       6617.2138       1.4608372
       6618.0527       1.2295803
       6618.8916       1.3578306
       6619.7304       1.2800386
       6620.5693       1.5277302
       6621.4082      0.95931133
       6622.2471       1.7101239
       6623.0859       2.0201926
       6623.9248       1.5576054
       6624.7637       1.7925960
       6625.6025       1.5722774
       6626.4414       1.2129371
       6627.2803       1.3728174
       6628.1192       1.8451635
       6628.9580       1.7877144
       6629.7969       1.7244083
       6630.6358       1.6502846
       6631.4747       1.4205211
       6632.3135       1.6525102
       6633.1524       2.4565675
       6633.9913       1.6708292
       6634.8301       1.1101083
       6635.6690       1.3114096
       6636.5079       1.5293599
       6637.3468       2.0126325
       6638.1856      0.59127587
       6639.0245      0.99975446
       6639.8634       1.5902409
       6640.7023       1.5028846
       6641.5411       1.4100047
       6642.3800       1.6154330
       6643.2189       1.4652431
       6644.0578       1.5436633
       6644.8966       1.5411634
       6645.7355       1.8296621
       6646.5744       1.5497526
       6647.4132       1.3857907
       6648.2521       1.6093000
       6649.0910       1.6352194
       6649.9299       1.5143022
       6650.7687       1.5402526
       6651.6076       1.5332332
       6652.4465       1.5830705
       6653.2854       1.4902931
       6654.1242       1.3780388
       6654.9631       1.3293024
       6655.8020       1.5836202
       6656.6408       1.5857034
       6657.4797       2.0657797
       6658.3186       1.1808777
       6659.1575       1.4452513
       6659.9963       1.2108810
       6660.8352       1.0834571
       6661.6741       1.3221345
       6662.5130       1.2638145
       6663.3518       1.3862573
       6664.1907       1.5843230
       6665.0296       1.6309572
       6665.8684       1.5155715
       6666.7073       2.2301355
       6667.5462       1.7952144
       6668.3851       1.2104915
       6669.2239       1.5085589
       6670.0628       1.2785586
       6670.9017       1.2398237
       6671.7406      0.94010547
       6672.5794       1.5765221
       6673.4183       1.6585591
       6674.2572       1.8774557
       6675.0961       1.7063161
       6675.9349       1.6837921
       6676.7738       1.6993180
       6677.6127       1.8204871
       6678.4515       1.5447291
       6679.2904       1.5480101
       6680.1293       1.7978461
       6680.9682       2.1825350
       6681.8070       1.5686207
       6682.6459       1.8268157
       6683.4848       1.5750858
       6684.3237       1.8129148
       6685.1625       1.4798768
       6686.0014       1.7362373
       6686.8403       1.6811811
       6687.6791       1.3921169
       6688.5180       1.8343264
       6689.3569       1.8657409
       6690.1958       1.6605950
       6691.0346       1.8569712
       6691.8735       1.7807620
       6692.7124       1.4950497
       6693.5513       1.6416178
       6694.3901       1.3171885
       6695.2290       1.7468263
       6696.0679       2.1526380
       6696.9067       1.8462194
       6697.7456       1.8913013
       6698.5845       1.7680223
       6699.4234       1.9596542
       6700.2622       1.9329836
       6701.1011       1.5585250
       6701.9400       1.7572932
       6702.7789       1.5820652
       6703.6177       1.4457623
       6704.4566       2.0411346
       6705.2955       1.6570829
       6706.1343       1.3098920
       6706.9732       1.3607091
       6707.8121       1.7434799
       6708.6510       1.9650243
       6709.4898       1.2099158
       6710.3287       1.8819254
       6711.1676       1.6436683
       6712.0065       1.7789767
       6712.8453       1.6492288
       6713.6842       1.6891124
       6714.5231       1.6100102
       6715.3620       1.6571570
       6716.2008       1.5237345
       6717.0397       1.5528140
       6717.8786       1.5049011
       6718.7174       1.6786133
       6719.5563       1.7126229
       6720.3952       1.5702322
       6721.2341       1.4752576
       6722.0729       1.5961889
       6722.9118       1.5837694
       6723.7507       1.6341425
       6724.5896       1.7052206
       6725.4284       1.8264906
       6726.2673       1.8740525
       6727.1062       1.8409181
       6727.9450       2.0046245
       6728.7839       2.1245499
       6729.6228       2.1089494
       6730.4617       2.4616376
       6731.3005       2.3233502
       6732.1394       2.3876436
       6732.9783       2.2973591
       6733.8172       2.2489689
       6734.6560       2.3733539
       6735.4949       2.3460297
       6736.3338       2.0941795
       6737.1726       1.9960024
       6738.0115       1.5892067
       6738.8504       1.8455911
       6739.6893       1.2064153
       6740.5281       1.5539200
       6741.3670       1.7495099
       6742.2059       1.5969658
       6743.0448       2.0034845
       6743.8836       2.2337994
       6744.7225       2.2366087
       6745.5614       2.3113697
       6746.4002       2.2158998
       6747.2391       2.1365807
       6748.0780       2.0810434
       6748.9169       2.7310154
       6749.7557       1.7625543
       6750.5946       1.7307908
       6751.4335       2.2341946
       6752.2724       1.5412364
       6753.1112       1.6924216
       6753.9501       1.6117346
       6754.7890       1.9074031
       6755.6279       1.6929328
       6756.4667       1.6143593
       6757.3056       1.4454922
       6758.1445       1.9423474
       6758.9833       1.5193261
       6759.8222       1.0274980
       6760.6611       1.6020436
       6761.5000       1.4383864
       6762.3388       1.8454881
       6763.1777       1.6468768
       6764.0166       1.8397754
       6764.8555       1.1508876
       6765.6943       1.6518276
       6766.5332       1.6707671
       6767.3721       1.5324043
       6768.2109       1.3972093
       6769.0498       1.5054995
       6769.8887       1.4035984
       6770.7276       1.1603573
       6771.5664       1.4512401
       6772.4053       1.6217154
       6773.2442       1.8492459
       6774.0831       1.8252646
       6774.9219       2.4864859
       6775.7608       1.1958630
       6776.5997       1.6423223
       6777.4385      0.83903707
       6778.2774       1.9057601
       6779.1163       1.6047608
       6779.9552       1.5155302
       6780.7940       1.3633493
       6781.6329       1.5613192
       6782.4718       1.5688920
       6783.3107       1.7412427
       6784.1495       1.8075150
       6784.9884       1.6830822
       6785.8273       1.6153130
       6786.6662       1.3929961
       6787.5050       2.0673752
       6788.3439       1.4697891
       6789.1828       1.5751816
       6790.0216       1.6426826
       6790.8605       1.3256138
       6791.6994       1.4630981
       6792.5383       1.6717824
       6793.3771       1.7605557
       6794.2160       1.4565556
       6795.0549       1.6795664
       6795.8938       1.7798417
       6796.7326       1.7239916
       6797.5715       1.7258557
       6798.4104       1.2388512
       6799.2492       1.7089861
       6800.0881       1.7061133
       6800.9270       1.7508304
       6801.7659       1.8592899
       6802.6047       1.6142448
       6803.4436       1.5359853
       6804.2825       2.0152121
       6805.1214       1.7552198
       6805.9602       1.8991044
       6806.7991       1.6380876
       6807.6380       1.6325988
       6808.4768       1.7237767
       6809.3157       1.7641805
       6810.1546       1.6253440
       6810.9935       1.7380919
       6811.8323       1.7740229
       6812.6712       1.4225641
       6813.5101       1.8057027
       6814.3490       1.7482102
       6815.1878       1.8238470
       6816.0267       1.7665571
       6816.8656       1.8194500
       6817.7044       1.6957816
       6818.5433       1.4710527
       6819.3822       1.6883623
       6820.2211       1.8092045
       6821.0599       1.7230968
       6821.8988       1.6043879
       6822.7377       2.1442567
       6823.5766       1.8512992
       6824.4154       1.9209111
       6825.2543      0.25173159
       6826.0932       2.9456768
       6826.9321       3.1122723
       6827.7709       2.6550268
       6828.6098       1.6889204
       6829.4487       10.233829
       6830.2875       4.9254781
       6831.1264       2.2035193
       6831.9653       4.1035116
       6832.8042       1.4590378
       6833.6430       2.2868799
       6834.4819       2.0895891
       6835.3208       3.1357504
       6836.1597       2.3150741
       6836.9985       1.5087061
       6837.8374       1.9930898
       6838.6763       2.1390826
       6839.5151       1.3831450
       6840.3540       2.0848754
       6841.1929       2.8066247
       6842.0318       2.1554088
       6842.8706       2.5794425
       6843.7095       1.9290599
       6844.5484       1.6633291
       6845.3873       1.7461326
       6846.2261       1.8918844
       6847.0650       1.4699565
       6847.9039       1.8580813
       6848.7427       1.8134223
       6849.5816       1.7599801
       6850.4205       1.6349780
       6851.2594       1.8062909
       6852.0982       1.6459911
       6852.9371       1.8888336
       6853.7760       1.2099353
       6854.6149       1.6318875
       6855.4537       1.3931473
       6856.2926       1.8484305
       6857.1315       1.5560599
       6857.9703       1.6700753
       6858.8092       1.7334498
       6859.6481       1.8002803
       6860.4870       1.6775312
       6861.3258       1.7333207
       6862.1647       1.7872654
       6863.0036       1.8094304
       6863.8425       1.6503369
       6864.6813       1.5872913
       6865.5202       1.5064346
       6866.3591       1.2321185
       6867.1980       1.7879419
       6868.0368       1.6898768
       6868.8757       1.5017590
       6869.7146       1.3762531
       6870.5534       1.5111981
       6871.3923       1.8092845
       6872.2312       1.6618682
       6873.0701       1.7915444
       6873.9089       1.6392328
       6874.7478       1.4664582
       6875.5867       1.5025558
       6876.4256       1.6832645
       6877.2644       1.5102001
       6878.1033       1.5851103
       6878.9422       1.7713757
       6879.7810       2.0779327
       6880.6199       1.8834386
       6881.4588       3.0179984
       6882.2977       2.6887630
       6883.1365      0.93682634
       6883.9754       2.8330914
       6884.8143       1.6966779
       6885.6532       1.1319655
       6886.4920      0.19103972
       6887.3309       1.6573873
       6888.1698       1.5339825
       6889.0086       1.7022567
       6889.8475       1.9258625
       6890.6864       1.7073237
       6891.5253       1.7040800
       6892.3641       1.9708315
       6893.2030       1.4614082
       6894.0419       1.8016562
       6894.8808       1.5281196
       6895.7196       1.4016163
       6896.5585       1.4922549
       6897.3974       2.3918112
       6898.2363       1.8615580
       6899.0751       2.0919197
       6899.9140       2.0644162
       6900.7529       1.7389451
       6901.5917       1.8825679
       6902.4306       1.6064159
       6903.2695       1.3309681
       6904.1084       1.1718561
       6904.9472       1.6128732
       6905.7861       1.5885061
       6906.6250       1.3031322
       6907.4639       1.7578177
       6908.3027       1.8334457
       6909.1416       1.7147030
       6909.9805       1.1679772
       6910.8193       1.4003574
       6911.6582       1.6614850
       6912.4971       2.6416321
       6913.3360       1.8723754
       6914.1748      0.55916174
       6915.0137       2.1267702
       6915.8526       1.5152973
       6916.6915       1.1738186
       6917.5303       1.3871122
       6918.3692       1.9744802
       6919.2081       1.6660906
       6920.0469       1.7320161
       6920.8858       1.6487111
       6921.7247       2.0591641
       6922.5636       1.7567893
       6923.4024       1.7736856
       6924.2413       1.8815172
       6925.0802       1.6319637
       6925.9191       1.5253543
       6926.7579       1.6669568
       6927.5968       1.6133912
       6928.4357       1.8579353
       6929.2745       1.8164102
       6930.1134       2.0642007
       6930.9523       1.9356364
       6931.7912       1.9169919
       6932.6300       1.7226695
       6933.4689       1.9980270
       6934.3078       1.8247790
       6935.1467       2.2009650
       6935.9855       1.3735783
       6936.8244       1.1373758
       6937.6633       2.2485480
       6938.5022       2.2073988
       6939.3410       2.2852469
       6940.1799       1.9834882
       6941.0188       1.3473749
       6941.8576       1.6928566
       6942.6965       1.2881926
       6943.5354       1.7650881
       6944.3743      0.81387327
       6945.2131       2.2122397
       6946.0520     -0.71221842
       6946.8909       1.7766880
       6947.7298       1.2190790
       6948.5686       1.5981299
       6949.4075       1.3912519
       6950.2464     0.074200872
       6951.0852       1.3933573
       6951.9241       1.6740369
       6952.7630       1.4866745
       6953.6019       1.9203398
       6954.4407       1.2720904
       6955.2796       1.7129095
       6956.1185      0.77376436
       6956.9574       1.7905894
       6957.7962       1.6533676
       6958.6351       1.5422967
       6959.4740       1.6091492
       6960.3128       1.7125340
       6961.1517       1.4102653
       6961.9906       1.6826428
       6962.8295       1.5891240
       6963.6683       1.5725236
       6964.5072       1.5844955
       6965.3461       1.3963014
       6966.1850       1.9097050
       6967.0238       1.6931715
       6967.8627       1.6536332
       6968.7016       1.6636976
       6969.5404       1.4502150
       6970.3793       1.5098440
       6971.2182       1.7752264
       6972.0571       1.1969453
       6972.8959       1.6552711
       6973.7348       1.7946223
       6974.5737       1.6423093
       6975.4126       1.0164434
       6976.2514       1.4379188
       6977.0903       2.0105153
       6977.9292       1.6131765
       6978.7681       1.1819105
       6979.6069       1.6960407
       6980.4458       1.8856220
       6981.2847       1.6613331
       6982.1235       2.4921122
       6982.9624       2.2118054
       6983.8013      0.95556383
       6984.6402       2.3231856
       6985.4790      0.85703803
       6986.3179      0.69556945
       6987.1568       1.8605629
       6987.9957       1.0315252
       6988.8345       1.0833872
       6989.6734       1.1218194
       6990.5123       1.8428491
       6991.3511       1.2878930
       6992.1900       1.7496842
       6993.0289       1.1774611
       6993.8678      0.91315627
       6994.7066       1.1095486
       6995.5455       1.2702896
       6996.3844       1.4249835
       6997.2233       1.4114246
       6998.0621       1.5877202
       6998.9010       1.4419735
       6999.7399       1.5885246
       7000.5787       1.6496843
       7001.4176       1.4905255
       7002.2565       1.5357882
       7003.0954       1.1511566
       7003.9342       1.5557520
       7004.7731       1.1767332
       7005.6120       1.6729823
       7006.4509       1.4505687
       7007.2897       1.7077846
       7008.1286       1.3726386
       7008.9675       1.2407565
       7009.8063       1.4599342
       7010.6452       1.5161260
       7011.4841       1.5982800
       7012.3230       1.5301011
       7013.1618       1.8578080
       7014.0007       1.3186622
       7014.8396       1.2450300
       7015.6785       1.7264516
       7016.5173       1.5296282
       7017.3562       1.8309069
       7018.1951      0.97891517
       7019.0340       1.3029094
