# wavelength flux
       2134.5803    0.0071541876
       2135.3075    0.0018577412
       2136.0346     0.031125378
       2136.7617    0.0023509990
       2137.4888    0.0028869580
       2138.2159     0.027900433
       2138.9431    0.0024961181
       2139.6702     0.017998595
       2140.3973     0.022143906
       2141.1244    -0.011498128
       2141.8515   7.4527649e-05
       2142.5787   -0.0019343882
       2143.3058   -0.0059230693
       2144.0329     0.018145883
       2144.7600     0.017908748
       2145.4871     0.011656180
       2146.2142    0.0037596153
       2146.9414    0.0096867205
       2147.6685    0.0047214506
       2148.3956     0.014195738
       2149.1227  -0.00063958684
       2149.8498   0.00067151543
       2150.5770     0.027980517
       2151.3041    -0.012197123
       2152.0312     0.024121384
       2152.7583     0.012169156
       2153.4854   -0.0066531996
       2154.2126    0.0011345451
       2154.9397   -0.0036369247
       2155.6668    0.0010427782
       2156.3939   0.00053917438
       2157.1210    0.0058085915
       2157.8481   -0.0025866930
       2158.5753    0.0023475414
       2159.3024    0.0029007953
       2160.0295   -0.0050168702
       2160.7566   -0.0043269821
       2161.4837    0.0080810653
       2162.2109    -0.010460159
       2162.9380   -0.0044762813
       2163.6651   -0.0056607952
       2164.3922   -0.0027459564
       2165.1193   -0.0075371821
       2165.8465    0.0045799241
       2166.5736   -0.0014118935
       2167.3007   -0.0096640464
       2168.0278   -0.0091832939
       2168.7549    0.0059297092
       2169.4820     0.011163659
       2170.2092   -0.0011143092
       2170.9363   -0.0061699108
       2171.6634     0.022382833
       2172.3905    -0.015454365
       2173.1176  -0.00048934247
       2173.8448    -0.018606379
       2174.5719    0.0010491793
       2175.2990   -0.0081465368
       2176.0261    0.0087589060
       2176.7532   -0.0058475782
       2177.4804     0.014372772
       2178.2075    -0.011224247
       2178.9346   -0.0094130534
       2179.6617   -0.0042647440
       2180.3888    0.0054008664
       2181.1160   0.00093113641
       2181.8431    0.0027174703
       2182.5702     0.014054607
       2183.2973     0.018129079
       2184.0244   0.00029963530
       2184.7515     0.012152938
       2185.4787     0.010225827
       2186.2058    0.0049972002
       2186.9329   -0.0064929293
       2187.6600    -0.010418420
       2188.3871    0.0046891344
       2189.1143    0.0039851152
       2189.8414  -0.00063288678
       2190.5685     0.012005204
       2191.2956  -2.7998799e-05
       2192.0227    0.0030264318
       2192.7499   0.00092360552
       2193.4770   -0.0012476377
       2194.2041   -0.0072177719
       2194.9312    0.0020440135
       2195.6583   -0.0017305288
       2196.3854     0.011313682
       2197.1126   -0.0067620685
       2197.8397     0.030772032
       2198.5668    0.0021162840
       2199.2939    -0.020805905
       2200.0210   -0.0058297328
       2200.7482     0.029345799
       2201.4753   -0.0091278278
       2202.2024    -0.016595858
       2202.9295     0.010749650
       2203.6566    0.0092139335
       2204.3838    0.0079486796
       2205.1109   -0.0055023749
       2205.8380     0.012474065
       2206.5651     0.015847581
       2207.2922     0.023320795
       2208.0194    -0.011861720
       2208.7465   -0.0054147280
       2209.4736   -0.0059253526
       2210.2007   -0.0016671455
       2210.9278     0.013352872
       2211.6549    0.0079761052
       2212.3821    0.0097909100
       2213.1092   -0.0044348677
       2213.8363    0.0086507708
       2214.5634   -0.0018519689
       2215.2905     0.032972098
       2216.0177    0.0024766768
       2216.7448     0.011430116
       2217.4719   0.00077761949
       2218.1990    0.0043676846
       2218.9261   -0.0065159084
       2219.6533   -0.0033890038
       2220.3804    0.0037212707
       2221.1075   -0.0072345998
       2221.8346     0.012087247
       2222.5617    -0.022718729
       2223.2888   -0.0047585058
       2224.0160   -0.0043769087
       2224.7431     0.017080541
       2225.4702   -0.0086105524
       2226.1973    0.0029274052
       2226.9244   -0.0037841453
       2227.6516    0.0023517976
       2228.3787   0.00064741586
       2229.1058   -0.0079352161
       2229.8329     0.017433368
       2230.5600     0.015451573
       2231.2872    -0.011044056
       2232.0143    0.0092407141
       2232.7414    0.0014554217
       2233.4685    -0.011011347
       2234.1956   -0.0014336006
       2234.9227    0.0022180116
       2235.6499   -0.0097860406
       2236.3770     0.015754592
       2237.1041  -0.00090010554
       2237.8312   -0.0067019744
       2238.5583   -0.0011642403
       2239.2855   -0.0018231143
       2240.0126    -0.011462711
       2240.7397     0.014008410
       2241.4668   -0.0094427638
       2242.1939    0.0042643064
       2242.9211    0.0090458225
       2243.6482   -0.0082737692
       2244.3753    -0.015672511
       2245.1024   -0.0071136718
       2245.8295    -0.013546853
       2246.5567   -0.0016689296
       2247.2838    0.0054656524
       2248.0109    0.0017774050
       2248.7380   -0.0073873314
       2249.4651    0.0069299094
       2250.1922   -0.0011829594
       2250.9194   -0.0061055949
       2251.6465    0.0013343120
       2252.3736    -0.021286936
       2253.1007    0.0093885834
       2253.8278   -0.0064812496
       2254.5550   -0.0036820828
       2255.2821     0.015687170
       2256.0092   -0.0068496463
       2256.7363     0.010781725
       2257.4634    0.0031960947
       2258.1906    0.0035571043
       2258.9177    0.0040076557
       2259.6448     0.013802347
       2260.3719    0.0030609949
       2261.0990   -0.0027157226
       2261.8261   -0.0029626534
       2262.5533    -0.025140066
       2263.2804     0.010380984
       2264.0075    0.0013088768
       2264.7346    0.0011142791
       2265.4617    0.0017683610
       2266.1889    0.0037355744
       2266.9160    -0.016620762
       2267.6431   -0.0011614008
       2268.3702   -0.0038270623
       2269.0973    0.0037085329
       2269.8245    0.0061411599
       2270.5516    -0.010553303
       2271.2787   0.00073645311
       2272.0058   -0.0025242456
       2272.7329    0.0025688423
       2273.4601   -0.0011803850
       2274.1872   -0.0089607015
       2274.9143    0.0086384241
       2275.6414   0.00085365861
       2276.3685   -0.0055025840
       2277.0956   0.00038837264
       2277.8228   -0.0045579466
       2278.5499   -0.0058473164
       2279.2770    -0.012791580
       2280.0041   -0.0029330423
       2280.7312    -0.022076593
       2281.4584    0.0028953103
       2282.1855    -0.017229639
       2282.9126   0.00087236697
       2283.6397   -0.0048090234
       2284.3668    -0.017148996
       2285.0940    0.0090601762
       2285.8211   -0.0061921151
       2286.5482   -0.0055276244
       2287.2753    0.0016289019
       2288.0024    0.0017704822
       2288.7295    0.0027519556
       2289.4567   5.3444865e-05
       2290.1838   -0.0062662428
       2290.9109   -0.0016381854
       2291.6380    0.0085148303
       2292.3651     0.013837549
       2293.0923    0.0033740850
       2293.8194    0.0019993706
       2294.5465    0.0062090832
       2295.2736   -0.0030682562
       2296.0007    0.0059849167
       2296.7279   -0.0045615915
       2297.4550    0.0071604769
       2298.1821     0.010527851
       2298.9092    0.0043565930
       2299.6363    0.0042612789
       2300.3634    -0.012508823
       2301.0906    0.0057394887
       2301.8177    -0.017176413
       2302.5448    -0.011318728
       2303.2719     0.020153511
       2303.9990    -0.013508608
       2304.7262  -0.00051688786
       2305.4533    0.0058274955
       2306.1804    0.0085943155
       2306.9075   -0.0042879128
       2307.6346   -0.0065284219
       2308.3618    0.0054361744
       2309.0889   -0.0088562979
       2309.8160    0.0034829803
       2310.5431    0.0018516564
       2311.2702    0.0023389325
       2311.9974   -0.0039391434
       2312.7245     0.014600048
       2313.4516  -0.00015289693
       2314.1787   -0.0062606450
       2314.9058    0.0091487132
       2315.6329  -0.00019823397
       2316.3601    -0.011147742
       2317.0872    -0.016823189
       2317.8143     0.010569378
       2318.5414    0.0016623228
       2319.2685    0.0087928345
       2319.9957   -0.0030952996
       2320.7228     0.012276231
       2321.4499    0.0053149779
       2322.1770   -0.0032675567
       2322.9041     0.014700120
       2323.6313   0.00050578586
       2324.3584     0.010552179
       2325.0855    0.0058478150
       2325.8126   0.00072110608
       2326.5397   -0.0071548775
       2327.2668    0.0040295927
       2327.9940    0.0010602721
       2328.7211    -0.010283826
       2329.4482    0.0086063255
       2330.1753    0.0028772368
       2330.9024    0.0040939737
       2331.6296    0.0037414122
       2332.3567   -0.0065308606
       2333.0838   -0.0082733806
       2333.8109    0.0098489035
       2334.5380    0.0027451447
       2335.2652    0.0095867461
       2335.9923    -0.015779312
       2336.7194    0.0098249854
       2337.4465    0.0038425908
       2338.1736   -0.0063678690
       2338.9008   -0.0042122884
       2339.6279   -0.0029149839
       2340.3550   -0.0063865909
       2341.0821    0.0032005203
       2341.8092    0.0079084884
       2342.5363    0.0047088468
       2343.2635   -0.0033979591
       2343.9906    0.0053407713
       2344.7177   -0.0042078301
       2345.4448   -0.0068761777
       2346.1719     0.011840996
       2346.8991     0.012979802
       2347.6262    0.0078510463
       2348.3533     0.014273724
       2349.0804     0.013216819
       2349.8075   -0.0054289928
       2350.5347    -0.015741797
       2351.2618   -0.0021595659
       2351.9889  -0.00080467887
       2352.7160    0.0074520784
       2353.4431   2.6055467e-05
       2354.1702    0.0046350726
       2354.8974    0.0023974608
       2355.6245   -0.0028851310
       2356.3516   -0.0065935310
       2357.0787   -0.0013685199
       2357.8058   -0.0018780468
       2358.5330   0.00053367392
       2359.2601    0.0082325915
       2359.9872   -0.0038148603
       2360.7143   -0.0016433208
       2361.4414    0.0081740752
       2362.1686   -0.0069957715
       2362.8957    0.0068221016
       2363.6228    -0.011748296
       2364.3499    0.0055614311
       2365.0770   -0.0021908131
       2365.8041   -0.0082751705
       2366.5313   -0.0021622784
       2367.2584   -0.0029350246
       2367.9855     0.010343413
       2368.7126    -0.018587921
       2369.4397    0.0087318863
       2370.1669     0.012408972
       2370.8940    0.0013741472
       2371.6211    0.0064819923
       2372.3482    0.0053575904
       2373.0753    0.0052852488
       2373.8025   -0.0032509482
       2374.5296    0.0093326721
       2375.2567   -0.0079349191
       2375.9838    -0.010895548
       2376.7109    0.0064082418
       2377.4381   -0.0057824693
       2378.1652     0.011358104
       2378.8923   0.00017986854
       2379.6194    -0.010857927
       2380.3465   -0.0023947901
       2381.0736    0.0054295053
       2381.8008   -0.0070876340
       2382.5279   0.00074213843
       2383.2550   8.3687286e-05
       2383.9821    0.0025467322
       2384.7092     0.011729196
       2385.4364   -0.0013157475
       2386.1635   -0.0067804682
       2386.8906    0.0046825596
       2387.6177     0.014515810
       2388.3448    -0.012139428
       2389.0720  -4.5029267e-05
       2389.7991   -0.0046750303
       2390.5262    0.0024403658
       2391.2533   -0.0026031218
       2391.9804  -0.00085803012
       2392.7075     0.011610922
       2393.4347     0.018771799
       2394.1618   0.00065487593
       2394.8889   -0.0027004377
       2395.6160   -0.0033327120
       2396.3431   -0.0072182253
       2397.0703    0.0016473464
       2397.7974    0.0026383065
       2398.5245    0.0043813148
       2399.2516    0.0048377259
       2399.9787    0.0015223836
       2400.7059     0.010713442
       2401.4330    0.0030574175
       2402.1601    0.0092969233
       2402.8872  -0.00022348256
       2403.6143   -0.0038486946
       2404.3415    0.0043692790
       2405.0686  -0.00085088642
       2405.7957    0.0029986208
       2406.5228    0.0029196082
       2407.2499  -9.6245890e-05
       2407.9770     0.012958695
       2408.7042   -0.0030718869
       2409.4313   -0.0093149213
       2410.1584    -0.014957640
       2410.8855    0.0054380721
       2411.6126    0.0074473292
       2412.3398   -0.0041401554
       2413.0669    0.0039017782
       2413.7940   -0.0034842244
       2414.5211    0.0080656170
       2415.2482    0.0078436643
       2415.9754   -0.0024181539
       2416.7025    0.0022443415
       2417.4296   -0.0058731086
       2418.1567   -0.0016565845
       2418.8838   -0.0022001828
       2419.6109     0.011140372
       2420.3381   -0.0040956833
       2421.0652    0.0018076232
       2421.7923   -0.0043951516
       2422.5194    0.0037898101
       2423.2465  -0.00090487132
       2423.9737   0.00081572541
       2424.7008    0.0065133106
       2425.4279    0.0076908950
       2426.1550   -0.0040807061
       2426.8821   -0.0049356595
       2427.6093   -0.0015958136
       2428.3364    0.0038455786
       2429.0635    -0.015154914
       2429.7906     0.016952873
       2430.5177    0.0070464463
       2431.2448   -0.0022084792
       2431.9720    -0.013564417
       2432.6991    -0.015618109
       2433.4262    -0.012644468
       2434.1533     0.015476485
       2434.8804     0.012009668
       2435.6076    0.0011884362
       2436.3347    -0.011309582
       2437.0618    -0.014625999
       2437.7889   -0.0090489836
       2438.5160     0.013414479
       2439.2432  -0.00089986936
       2439.9703   -0.0013741338
       2440.6974   -0.0053870136
       2441.4245    -0.010436302
       2442.1516    0.0023092598
       2442.8788    0.0082924309
       2443.6059    0.0074809409
       2444.3330    0.0094958506
       2445.0601    0.0011751253
       2445.7872   -0.0081728861
       2446.5143    0.0019736998
       2447.2415   -0.0058278422
       2447.9686    0.0048775069
       2448.6957  -2.2551693e-05
       2449.4228   -0.0059024285
       2450.1499   -0.0045176092
       2450.8771  -0.00057466886
       2451.6042    -0.012384967
       2452.3313    0.0099331665
       2453.0584  -0.00082527950
       2453.7855   -0.0086297995
       2454.5127    0.0030292220
       2455.2398   -0.0056653906
       2455.9669    0.0042587591
       2456.6940    0.0099058825
       2457.4211  -0.00025282325
       2458.1482   -0.0081650472
       2458.8754   -0.0020857591
       2459.6025  -0.00037433245
       2460.3296    0.0018206025
       2461.0567   -0.0052488617
       2461.7838    0.0026982849
       2462.5110    0.0020265494
       2463.2381    0.0070367225
       2463.9652    0.0069718932
       2464.6923  -0.00037671363
       2465.4194    0.0021297080
       2466.1466    0.0055652556
       2466.8737  -0.00015442446
       2467.6008    0.0061553736
       2468.3279   0.00048707188
       2469.0550    0.0049462726
       2469.7821   -0.0060154076
       2470.5093     0.010653529
       2471.2364    0.0076380785
       2471.9635   -0.0089879326
       2472.6906    0.0040589380
       2473.4177   -0.0027199375
       2474.1449   -0.0061926726
       2474.8720   -0.0051638421
       2475.5991   8.6791273e-05
       2476.3262   -0.0097233857
       2477.0533    0.0090234486
       2477.7805    0.0081872519
       2478.5076    0.0023669569
       2479.2347    0.0013355630
       2479.9618     0.013846205
       2480.6889    0.0097538502
       2481.4161  -0.00046979599
       2482.1432    0.0012363528
       2482.8703    0.0019775661
       2483.5974    0.0025021060
       2484.3245    -0.013073724
       2485.0516    0.0068778977
       2485.7788   -0.0071129448
       2486.5059    -0.012447790
       2487.2330    -0.012842323
       2487.9601  -0.00046247365
       2488.6872    0.0085289952
       2489.4144    0.0031997040
       2490.1415    0.0060877644
       2490.8686   -0.0029742193
       2491.5957   -0.0013797271
       2492.3228   -0.0078107165
       2493.0500    0.0046233817
       2493.7771    0.0067105932
       2494.5042   -0.0072570236
       2495.2313   0.00011154709
       2495.9584   -0.0034806164
       2496.6855   -0.0031859657
       2497.4127   -0.0042415874
       2498.1398    0.0063268020
       2498.8669  -0.00036469508
       2499.5940    0.0048455272
       2500.3211    0.0062358936
       2501.0483    0.0045762720
       2501.7754    0.0052699160
       2502.5025  -0.00075964625
       2503.2296    0.0077868114
       2503.9567   -0.0045301656
       2504.6839    0.0033539746
       2505.4110    -0.014221978
       2506.1381   -0.0031408945
       2506.8652    0.0018530387
       2507.5923  -0.00053867539
       2508.3195     0.011470647
       2509.0466    0.0026348520
       2509.7737     0.013706084
       2510.5008    0.0062401274
       2511.2279   -0.0031562967
       2511.9550    0.0037060040
       2512.6822  -0.00060559808
       2513.4093    -0.011775074
       2514.1364   0.00098954291
       2514.8635    0.0055754645
       2515.5906   -0.0033119921
       2516.3178    -0.015477337
       2517.0449    0.0039115717
       2517.7720   -0.0014074332
       2518.4991   -0.0034322529
       2519.2262    0.0010553989
       2519.9534    0.0014430831
       2520.6805    0.0030027142
       2521.4076   -0.0076130053
       2522.1347  -0.00059285719
       2522.8618    0.0048517758
       2523.5889    0.0049467321
       2524.3161   -0.0082040994
       2525.0432   -0.0047009820
       2525.7703    0.0065522352
       2526.4974    -0.016474828
       2527.2245    0.0016978936
       2527.9517    0.0027419440
       2528.6788    0.0081932678
       2529.4059    0.0017181949
       2530.1330   -0.0039395670
       2530.8601   -0.0035942398
       2531.5873   -0.0046718862
       2532.3144   0.00055076845
       2533.0415    0.0040229259
       2533.7686    0.0070289248
       2534.4957   -0.0082792976
       2535.2228    0.0020516907
       2535.9500    0.0076288492
       2536.6771   0.00038904713
       2537.4042   -0.0080126497
       2538.1313   -0.0035772999
       2538.8584     0.016009265
       2539.5856   -0.0068219189
       2540.3127   -0.0047875606
       2541.0398    0.0056842554
       2541.7669    0.0025899070
       2542.4940    0.0068454012
       2543.2212    0.0012562463
       2543.9483   -0.0029492402
       2544.6754    0.0063598000
       2545.4025   -0.0043925644
       2546.1296    0.0035407967
       2546.8568    0.0061606232
       2547.5839   -0.0063214550
       2548.3110   -0.0061086499
       2549.0381   -0.0010691126
       2549.7652    0.0059244001
       2550.4923  -0.00037483039
       2551.2195   -0.0048131638
       2551.9466   0.00068916720
       2552.6737    0.0038664748
       2553.4008    0.0019512154
       2554.1279   -0.0081712368
       2554.8551    0.0066552418
       2555.5822     0.011327669
       2556.3093    0.0097159432
       2557.0364   -0.0027064804
       2557.7635    0.0099963440
       2558.4907   -0.0016993762
       2559.2178   0.00098604963
       2559.9449   -0.0088488806
       2560.6720    0.0045341607
       2561.3991    0.0070208382
       2562.1262    0.0056788280
       2562.8534   -0.0022970033
       2563.5805     0.010088053
       2564.3076    0.0062212892
       2565.0347    0.0059115613
       2565.7618    0.0054901143
       2566.4890    0.0020015934
       2567.2161    0.0067924733
       2567.9432   0.00067088937
       2568.6703    0.0076037427
       2569.3974    0.0067318700
       2570.1246   -0.0035466950
       2570.8517   -0.0024756259
       2571.5788   -0.0015910122
       2572.3059    0.0023578425
       2573.0330    0.0044389177
       2573.7602   0.00062932644
       2574.4873  -0.00038687680
       2575.2144   0.00090146995
       2575.9415    -0.012228798
       2576.6686    0.0096405289
       2577.3957   -0.0032248672
       2578.1229   -0.0097439270
       2578.8500   0.00064363845
       2579.5771    0.0054953885
       2580.3042   -0.0010509594
       2581.0313     0.011516506
       2581.7585   0.00018014393
       2582.4856   -0.0053950938
       2583.2127   -0.0056498636
       2583.9398    -0.011849682
       2584.6669    0.0059186180
       2585.3941   -0.0052839575
       2586.1212   0.00040389122
       2586.8483    0.0083292080
       2587.5754    0.0010226442
       2588.3025    0.0072610090
       2589.0296   -0.0085805341
       2589.7568   -0.0049393397
       2590.4839    0.0078262050
       2591.2110     0.013027864
       2591.9381   -0.0025071838
       2592.6652    0.0037269934
       2593.3924    0.0065891197
       2594.1195  -5.8412027e-05
       2594.8466    0.0033618539
       2595.5737   3.4987894e-05
       2596.3008   0.00086420227
       2597.0280    0.0071992495
       2597.7551   0.00045986284
       2598.4822   -0.0020660950
       2599.2093   -0.0085296041
       2599.9364   -0.0034395669
       2600.6635    0.0051364528
       2601.3907  -0.00053804765
       2602.1178    0.0077080486
       2602.8449    0.0043071690
       2603.5720    0.0034376634
       2604.2991    0.0064533955
       2605.0263   -0.0054964887
       2605.7534    0.0021276334
       2606.4805    0.0021120470
       2607.2076   -0.0027527750
       2607.9347    0.0038416194
       2608.6619   -0.0044932317
       2609.3890   -0.0025133214
       2610.1161   -0.0088687988
       2610.8432    0.0057338326
       2611.5703    0.0029499550
       2612.2975    0.0015714403
       2613.0246   0.00060326381
       2613.7517    0.0064358710
       2614.4788   0.00087110255
       2615.2059    0.0012109547
       2615.9330    0.0030791464
       2616.6602   -0.0067343818
       2617.3873    0.0013823915
       2618.1144   -0.0019904804
       2618.8415   -0.0035423213
       2619.5686    0.0013791149
       2620.2958    0.0061306254
       2621.0229    -0.014451948
       2621.7500    0.0089415467
       2622.4771   0.00087300938
       2623.2042   -0.0011817787
       2623.9314   -0.0065879952
       2624.6585    -0.014542391
       2625.3856  -0.00096716770
       2626.1127    0.0028779250
       2626.8398   -0.0045167872
       2627.5669    0.0043091435
       2628.2941    0.0056518162
       2629.0212    0.0054452691
       2629.7483    -0.012256924
       2630.4754    0.0016247183
       2631.2025    0.0078847262
       2631.9297  -2.3372866e-05
       2632.6568   -0.0038599863
       2633.3839   -0.0088173311
       2634.1110    0.0016285665
       2634.8381   -0.0083139599
       2635.5653   0.00021939290
       2636.2924    0.0022725500
       2637.0195    0.0081993603
       2637.7466   -0.0020072145
       2638.4737   -0.0068282920
       2639.2009   0.00090358870
       2639.9280   -0.0047637564
       2640.6551    0.0074756008
       2641.3822    0.0015478810
       2642.1093    0.0011122657
       2642.8364    0.0037097435
       2643.5636   -0.0012962409
       2644.2907    0.0030569996
       2645.0178   -0.0044264094
       2645.7449   -0.0015210093
       2646.4720    0.0023025425
       2647.1992  -0.00093581418
       2647.9263    0.0086989987
       2648.6534   -0.0051899985
       2649.3805    0.0053878207
       2650.1076    0.0068625199
       2650.8348   -0.0045145855
       2651.5619    0.0053348959
       2652.2890     0.010775831
       2653.0161    0.0099544477
       2653.7432   -0.0032443587
       2654.4703   -0.0059337124
       2655.1975   -0.0057162057
       2655.9246    0.0037847093
       2656.6517     0.016726678
       2657.3788    0.0069975633
       2658.1059   -0.0016845748
       2658.8331   -0.0022429932
       2659.5602    0.0011722359
       2660.2873    0.0057536975
       2661.0144   0.00086378359
       2661.7415   -0.0015586112
       2662.4687    0.0041814405
       2663.1958   -0.0086147062
       2663.9229    0.0016158160
       2664.6500     0.010309873
       2665.3771    0.0048559446
       2666.1042     0.010728860
       2666.8314   -0.0035103504
       2667.5585  -0.00072100132
       2668.2856    0.0079290996
       2669.0127    0.0033840768
       2669.7398  -0.00035064328
       2670.4670   -0.0032253876
       2671.1941   0.00031198400
       2671.9212   -0.0017039760
       2672.6483  -0.00030429606
       2673.3754   0.00011980767
       2674.1026   -0.0056616362
       2674.8297   -0.0032894154
       2675.5568   -0.0014593626
       2676.2839    -0.011514048
       2677.0110    0.0046881204
       2677.7382   -0.0048911073
       2678.4653    0.0075542603
       2679.1924    0.0028836243
       2679.9195    0.0023632605
       2680.6466   0.00055491879
       2681.3737   -0.0047078958
       2682.1009    0.0055451841
       2682.8280    0.0067017444
       2683.5551   -0.0050649153
       2684.2822    0.0066402319
       2685.0093    0.0077207389
       2685.7365   -0.0059198658
       2686.4636    0.0010700580
       2687.1907  -7.5241934e-05
       2687.9178    0.0078914565
       2688.6449    -0.012225751
       2689.3721   -0.0026595068
       2690.0992    0.0038623727
       2690.8263    0.0087508113
       2691.5534     0.014661717
       2692.2805     0.010789013
       2693.0076    0.0014064303
       2693.7348    0.0039292480
       2694.4619   -0.0029423512
       2695.1890     0.014381510
       2695.9161    0.0077565127
       2696.6432    -0.012512543
       2697.3704    0.0031601507
       2698.0975   0.00076020176
       2698.8246    0.0019937849
       2699.5517   -0.0027963787
       2700.2788    0.0036215934
       2701.0060   -0.0013335413
       2701.7331    0.0087318306
       2702.4602    0.0070223022
       2703.1873   -0.0034413628
       2703.9144     0.012207678
       2704.6416    -0.010597640
       2705.3687    0.0055992693
       2706.0958    0.0085394170
       2706.8229     0.010272144
       2707.5500   -0.0045228874
       2708.2771    0.0094971275
       2709.0043   9.6797072e-05
       2709.7314   2.9056103e-05
       2710.4585   -0.0046027265
       2711.1856    0.0051688620
       2711.9127   -0.0022850926
       2712.6399    0.0082010562
       2713.3670    0.0017099156
       2714.0941    0.0067251997
       2714.8212     0.014030537
       2715.5483  -0.00091941468
       2716.2755   -0.0037527365
       2717.0026    0.0054830508
       2717.7297   0.00057122598
       2718.4568     0.014065926
       2719.1839  -0.00087857388
       2719.9110    0.0084573591
       2720.6382    0.0032174899
       2721.3653   0.00020601922
       2722.0924   -0.0036116229
       2722.8195    0.0088967184
       2723.5466   -0.0061197007
       2724.2738    0.0028060009
       2725.0009   -0.0095092278
       2725.7280  -0.00027525278
       2726.4551   -0.0051258072
       2727.1822    0.0028280581
       2727.9094    0.0028818752
       2728.6365   -0.0054211361
       2729.3636    0.0026482397
       2730.0907   -0.0056488055
       2730.8178  -0.00016060638
       2731.5449   0.00059769459
       2732.2721    0.0046595596
       2732.9992  -0.00029126773
       2733.7263   -0.0050886280
       2734.4534    0.0036333843
       2735.1805  -0.00013734640
       2735.9077    0.0078912350
       2736.6348    0.0049891256
       2737.3619     0.014039782
       2738.0890   0.00067854960
       2738.8161   -0.0034925220
       2739.5433   -0.0058413160
       2740.2704   -0.0013237507
       2740.9975   0.00055208986
       2741.7246     0.016867058
       2742.4517     0.012506006
       2743.1789    0.0068274175
       2743.9060   0.00062518130
       2744.6331   -0.0070503252
       2745.3602    -0.013695113
       2746.0873     0.014913317
       2746.8144    0.0011121561
       2747.5416   -0.0040286479
       2748.2687   0.00076691246
       2748.9958   -0.0063761250
       2749.7229    0.0076858631
       2750.4500    0.0036524263
       2751.1772    0.0041380595
       2751.9043  -0.00058438616
       2752.6314    0.0048082345
       2753.3585   -0.0035665149
       2754.0856    0.0083911592
       2754.8128    0.0033774835
       2755.5399   0.00090604800
       2756.2670    0.0068066361
       2756.9941    0.0014248133
       2757.7212    0.0094549240
       2758.4483    0.0035838566
       2759.1755   -0.0074424093
       2759.9026   -0.0087218910
       2760.6297    0.0028803085
       2761.3568   -0.0056042792
       2762.0839   -0.0041087564
       2762.8111    0.0029386434
       2763.5382    0.0056204362
       2764.2653    0.0071154876
       2764.9924   -0.0064298432
       2765.7195   -0.0051246282
       2766.4467   -0.0084811425
       2767.1738    0.0032581595
       2767.9009  -2.4155612e-05
       2768.6280  -0.00088387805
       2769.3551  -0.00083215785
       2770.0823   -0.0018062427
       2770.8094   -0.0094150807
       2771.5365    0.0014755687
       2772.2636    0.0058870877
       2772.9907    0.0071315065
       2773.7178  -0.00017442106
       2774.4450    0.0091388666
       2775.1721    0.0037020807
       2775.8992   -0.0025430396
       2776.6263  -0.00013192568
       2777.3534   0.00076060828
       2778.0806   -0.0013601161
       2778.8077    0.0029614907
       2779.5348    0.0046796945
       2780.2619   -0.0023191209
       2780.9890    0.0029718053
       2781.7162   -0.0014621946
       2782.4433   -0.0013845481
       2783.1704     0.016160182
       2783.8975    0.0075655157
       2784.6246   -0.0079924586
       2785.3517    0.0092330937
       2786.0789    0.0040161925
       2786.8060    0.0067338820
       2787.5331    0.0075055188
       2788.2602    0.0040367985
       2788.9873   -0.0057290491
       2789.7145   -0.0072234913
       2790.4416   -0.0043794079
       2791.1687    0.0019986008
       2791.8958    0.0036796791
       2792.6229    0.0027860629
       2793.3501   -0.0097888987
       2794.0772    0.0030929551
       2794.8043   -0.0013184918
       2795.5314    0.0090770962
       2796.2585   -0.0024928796
       2796.9856   -0.0040735564
       2797.7128   -0.0079742248
       2798.4399    0.0045318163
       2799.1670     0.016836180
       2799.8941   -0.0089174130
       2800.6212   -0.0055082764
       2801.3484    0.0041947941
       2802.0755    0.0021749388
       2802.8026    0.0018123118
       2803.5297     0.014155912
       2804.2568    0.0049198203
       2804.9840    0.0073857350
       2805.7111    0.0032290229
       2806.4382    0.0012023134
       2807.1653    0.0086882521
       2807.8924    0.0022130252
       2808.6196  -0.00045569074
       2809.3467    0.0050942686
       2810.0738    -0.016081515
       2810.8009   -0.0027525163
       2811.5280    0.0099466706
       2812.2551   -0.0020717256
       2812.9823   -0.0071193541
       2813.7094    0.0035096682
       2814.4365   -0.0089128925
       2815.1636  -0.00043097518
       2815.8907    0.0071264797
       2816.6179    0.0052662330
       2817.3450    0.0034819873
       2818.0721  -3.2843357e-05
       2818.7992    0.0043148961
       2819.5263    0.0048887442
       2820.2535  -0.00051974959
       2820.9806     0.012085172
       2821.7077    0.0024742526
       2822.4348   -0.0059937855
       2823.1619     0.013921214
       2823.8890   0.00018771910
       2824.6162   -0.0044159840
       2825.3433   -0.0093623321
       2826.0704   0.00030332378
       2826.7975    0.0020368800
       2827.5246     0.014185509
       2828.2518    0.0087895605
       2828.9789    0.0061171509
       2829.7060    0.0032633253
       2830.4331    0.0070613846
       2831.1602    0.0049105251
       2831.8874    0.0048281070
       2832.6145   -0.0094979269
       2833.3416  -0.00075390459
       2834.0687   -0.0051733634
       2834.7958   -0.0026539832
       2835.5229    0.0087259786
       2836.2501    0.0085866911
       2836.9772   -0.0028268429
       2837.7043    0.0034976933
       2838.4314   -0.0027161311
       2839.1585    0.0021055899
       2839.8857    0.0038503321
       2840.6128     0.010170615
       2841.3399  -5.4413623e-05
       2842.0670   0.00025912143
       2842.7941   -0.0056492795
       2843.5213     0.011124068
       2844.2484   0.00076974688
       2844.9755    -0.010855659
       2845.7026    0.0094213533
       2846.4297    0.0046092955
       2847.1569    0.0076275067
       2847.8840   -0.0035564090
       2848.6111    0.0036372047
       2849.3382   -0.0020240690
       2850.0653    0.0075092165
       2850.7924    0.0097432159
       2851.5196   -0.0022369751
       2852.2467   -0.0026511297
       2852.9738    0.0093345529
       2853.7009    0.0054136246
       2854.4280    0.0037085425
       2855.1552   0.00031067969
       2855.8823   -0.0067304851
       2856.6094    0.0059790309
       2857.3365   -0.0062620800
       2858.0636   -0.0022784801
       2858.7908    0.0079148080
       2859.5179    0.0029442397
       2860.2450  -0.00011871564
       2860.9721    0.0014613415
       2861.6992    0.0082187984
       2862.4263     0.010064535
       2863.1535    0.0043240995
       2863.8806   -0.0042559564
       2864.6077   -0.0028883071
       2865.3348   -0.0064142819
       2866.0619   -0.0039618825
       2866.7891   -0.0040938865
       2867.5162    0.0019183478
       2868.2433    0.0030149183
       2868.9704    0.0085919374
       2869.6975    0.0061721024
       2870.4247   -0.0019276662
       2871.1518    0.0037819215
       2871.8789    -0.010089202
       2872.6060    0.0017169417
       2873.3331    0.0031271910
       2874.0603    0.0055169922
       2874.7874   -0.0064919488
       2875.5145   -0.0028588791
       2876.2416   -0.0045487976
       2876.9687    0.0049608514
       2877.6958    0.0072926669
       2878.4230   -0.0066351429
       2879.1501   -0.0060230891
       2879.8772   -0.0083546336
       2880.6043    0.0031261678
       2881.3314   -0.0020572988
       2882.0586    0.0076695648
       2882.7857     0.011389023
       2883.5128   -0.0049577702
       2884.2399    0.0051040925
       2884.9670    0.0032967017
       2885.6942    0.0053128351
       2886.4213   -0.0010900683
       2887.1484    0.0051516139
       2887.8755   -0.0046878754
       2888.6026    -0.010580522
       2889.3297  -0.00071461188
       2890.0569    0.0042468151
       2890.7840     0.010912165
       2891.5111    0.0073930142
       2892.2382   -0.0039215396
       2892.9653  -4.3599435e-05
       2893.6925    0.0074045123
       2894.4196    0.0034817621
       2895.1467     0.016217935
       2895.8738    0.0051617126
       2896.6009   0.00025020029
       2897.3281   -0.0041290141
       2898.0552  -0.00087946532
       2898.7823    0.0069518575
       2899.5094     0.011581317
       2900.2365    0.0049808256
       2900.9636    0.0042741241
       2901.6908  -2.1112476e-05
       2902.4179     0.013445665
       2903.1450    0.0017803233
       2903.8721   0.00042383641
       2904.5992   -0.0032825525
       2905.3264   -0.0041164137
       2906.0535   -0.0049782902
       2906.7806    0.0035945859
       2907.5077     0.010953668
       2908.2348    0.0072753837
       2908.9620    -0.011975179
       2909.6891   -0.0062715283
       2910.4162   -0.0034810763
       2911.1433    0.0089181483
       2911.8704   -0.0025330671
       2912.5976  -0.00020506600
       2913.3247   -0.0026868780
       2914.0518     0.010409329
       2914.7789   -0.0031639269
       2915.5060  -7.3499697e-05
       2916.2331    0.0010880437
       2916.9603   -0.0067211305
       2917.6874    0.0020865239
       2918.4145     0.014283105
       2919.1416     0.013980980
       2919.8687    0.0071671426
       2920.5959     0.012167563
       2921.3230   -0.0050849230
       2922.0501     0.010949055
       2922.7772    0.0037503484
       2923.5043   1.5352253e-05
       2924.2315     0.011333534
       2924.9586    0.0024597924
       2925.6857   -0.0057316478
       2926.4128   -0.0014971086
       2927.1399   -0.0076839211
       2927.8670    0.0064779074
       2928.5942     0.010520942
       2929.3213     0.012398125
       2930.0484    0.0073485298
       2930.7755   -0.0010512246
       2931.5026   0.00066921023
       2932.2298    0.0058385373
       2932.9569   -0.0044758898
       2933.6840    0.0034983270
       2934.4111    0.0054488386
       2935.1382    0.0072351978
       2935.8654   -0.0038994465
       2936.5925    0.0089420944
       2937.3196     0.010386172
       2938.0467    0.0032917998
       2938.7738   -0.0035192738
       2939.5010   -0.0052450229
       2940.2281    0.0042276086
       2940.9552   -0.0042175584
       2941.6823    0.0048199085
       2942.4094    0.0066646632
       2943.1365    -0.021396921
       2943.8637   -0.0019976965
       2944.5908    0.0038808581
       2945.3179    0.0090787540
       2946.0450  -0.00097686661
       2946.7721   -0.0035329016
       2947.4993    0.0052797183
       2948.2264    0.0068010792
       2948.9535   -0.0016679556
       2949.6806  -0.00020292587
       2950.4077   -0.0043072669
       2951.1349    0.0059091053
       2951.8620    0.0055580565
       2952.5891   -0.0079709372
       2953.3162    0.0090313949
       2954.0433     0.010293267
       2954.7704   -0.0026383496
       2955.4976  -0.00012574646
       2956.2247   0.00077331641
       2956.9518    0.0024991415
       2957.6789    0.0090612709
       2958.4060    -0.010667934
       2959.1332   -0.0042564085
       2959.8603    0.0098888060
       2960.5874    -0.014446230
       2961.3145   -0.0038363601
       2962.0416    0.0040985981
       2962.7688    -0.013280801
       2963.4959    0.0053113378
       2964.2230     0.014635934
       2964.9501   0.00053873228
       2965.6772     0.012731182
       2966.4043   -0.0090650227
       2967.1315   -0.0016006857
       2967.8586   -0.0093326482
       2968.5857    0.0044939553
       2969.3128    0.0018803768
       2970.0399    0.0048523753
       2970.7671    0.0078730430
       2971.4942   -0.0070357838
       2972.2213    0.0088817965
       2972.9484  -2.2809794e-05
       2973.6755   -0.0058333588
       2974.4027     0.013241757
       2975.1298    0.0048126840
       2975.8569     0.010850105
       2976.5840   -0.0092797194
       2977.3111    0.0013617442
       2978.0383    0.0069686486
       2978.7654   -0.0073142638
       2979.4925   -0.0078970647
       2980.2196    0.0015794580
       2980.9467    0.0074294393
       2981.6738    0.0012453577
       2982.4010   0.00077162816
       2983.1281   -0.0080374179
       2983.8552   -0.0054413179
       2984.5823   -0.0038946328
       2985.3094     0.010460200
       2986.0366    0.0081749893
       2986.7637    0.0014013581
       2987.4908    0.0092114277
       2988.2179     0.015160127
       2988.9450    0.0049346139
       2989.6722    0.0034336955
       2990.3993   -0.0032102244
       2991.1264    0.0069007307
       2991.8535    0.0070574637
       2992.5806    -0.013497967
       2993.3077    0.0023659561
       2994.0349    0.0023059036
       2994.7620   -0.0031784568
       2995.4891   -0.0079234270
       2996.2162   -0.0092151670
       2996.9433    0.0065263925
       2997.6705    0.0019617228
       2998.3976    0.0030790096
       2999.1247    0.0026919610
       2999.8518   -0.0019517537
       3000.5789   -0.0027665550
       3001.3061    0.0019452811
       3002.0332   0.00028212367
       3002.7603    0.0042405228
       3003.4874    0.0026358672
       3004.2145   -0.0040857239
       3004.9417    0.0015758091
       3005.6688  -0.00027343137
       3006.3959    0.0092019512
       3007.1230     0.013824040
       3007.8501    0.0034998629
       3008.5772    0.0038797013
       3009.3044   0.00087753135
       3010.0315    0.0062767917
       3010.7586    -0.010461270
       3011.4857   -0.0059263521
       3012.2128     0.011663769
       3012.9400   -0.0029391266
       3013.6671     0.011293468
       3014.3942    0.0013616059
       3015.1213    0.0035149197
       3015.8484    0.0063464028
       3016.5756  -0.00013795378
       3017.3027     0.014351076
       3018.0298   -0.0092220961
       3018.7569   -0.0017785078
       3019.4840     0.012009780
       3020.2111     0.018841969
       3020.9383   -0.0050410838
       3021.6654   -0.0041344950
       3022.3925   -0.0073418767
       3023.1196  -0.00089773449
       3023.8467   0.00037158490
       3024.5739     0.016900577
       3025.3010     0.015163083
       3026.0281    0.0049678773
       3026.7552    0.0014717563
       3027.4823    0.0088634276
       3028.2095    0.0093596257
       3028.9366     0.012801693
       3029.6637   3.4222043e-05
       3030.3908    0.0075049488
       3031.1179   -0.0047794953
       3031.8450    0.0060618570
       3032.5722    0.0083839507
       3033.2993   -0.0098476360
       3034.0264   -0.0023648118
       3034.7535    0.0079983360
       3035.4806     0.010149327
       3036.2078     0.017515588
       3036.9349    0.0024621204
       3037.6620   -0.0036916666
       3038.3891    -0.010685536
       3039.1162  -0.00075535787
       3039.8434    0.0056193657
       3040.5705     0.013100712
       3041.2976     0.010219499
       3042.0247     0.019271885
       3042.7518   -0.0014477563
       3043.4790     0.021057820
       3044.2061    -0.016075884
       3044.9332   -0.0024497891
       3045.6603    0.0064854135
       3046.3874   -0.0012619913
       3047.1145    0.0046084912
       3047.8417   -0.0014624069
       3048.5688     0.013299752
       3049.2959    0.0010641431
       3050.0230  -0.00098266216
       3050.7501    -0.012981396
       3051.4773    0.0078732068
       3052.2044     0.016270088
       3052.9315   0.00072356914
       3053.6586   -0.0099026821
       3054.3857    0.0044719991
       3055.1129    0.0059172846
       3055.8400     0.014131889
       3056.5671   -0.0027063611
       3057.2942    0.0031801400
       3058.0213   -0.0014325508
       3058.7484     0.010157548
       3059.4756    0.0010106881
       3060.2027    0.0062141724
       3060.9298   -0.0078853426
       3061.6569     0.010017002
       3062.3840   -0.0019949950
       3063.1112    0.0057523183
       3063.8383    0.0064725098
       3064.5654    0.0020875997
       3065.2925    0.0056640438
       3066.0196    0.0088676710
       3066.7468    0.0080202683
       3067.4739    0.0077574811
       3068.2010   -0.0028077075
       3068.9281    0.0021082359
       3069.6552    0.0088118432
       3070.3824  -0.00098303946
       3071.1095   -0.0077755446
       3071.8366    0.0058392048
       3072.5637    0.0016042707
       3073.2908   0.00025873229
       3074.0179   -0.0044186532
       3074.7451   -0.0025749906
       3075.4722   -0.0085501043
       3076.1993   -0.0037698821
       3076.9264   -0.0011816741
       3077.6535   0.00041787629
       3078.3807     0.014768500
       3079.1078   -0.0026790229
       3079.8349     0.024868953
       3080.5620   0.00044297149
       3081.2891    0.0078629272
       3082.0163    0.0071504673
       3082.7434    0.0064833514
       3083.4705    0.0090969781
       3084.1976   -0.0033597892
       3084.9247  -4.6986007e-05
       3085.6518   0.00081612566
       3086.3790    0.0061750600
       3087.1061   -0.0042522282
       3087.8332    0.0052732492
       3088.5603    0.0045072845
       3089.2874     0.018381823
       3090.0146    -0.014466271
       3090.7417    0.0023097458
       3091.4688    0.0040741064
       3092.1959   -0.0048103300
       3092.9230    0.0040392060
       3093.6502    0.0044744027
       3094.3773     0.019451368
       3095.1044    0.0015671485
       3095.8315     0.011954836
       3096.5586    0.0037091209
       3097.2857   -0.0046625486
       3098.0129   -0.0048227847
       3098.7400   -0.0030974309
       3099.4671     0.017288594
       3100.1942     0.013871610
       3100.9213   9.4855412e-05
       3101.6485    0.0042654037
       3102.3756    0.0056528439
       3103.1027    0.0098208496
       3103.8298  -0.00051691982
       3104.5569   -0.0033489487
       3105.2841     0.010157573
       3106.0112   -0.0040212956
       3106.7383   -0.0024822628
       3107.4654   -0.0068815822
       3108.1925    0.0054969780
       3108.9197     0.012803548
       3109.6468     0.013686037
       3110.3739    0.0052230659
       3111.1010    0.0077750532
       3111.8281   -0.0034421135
       3112.5552    0.0023210560
       3113.2824   -0.0029420738
       3114.0095     0.010614552
       3114.7366   -0.0040465191
       3115.4637     0.025719628
       3116.1908     0.018625703
       3116.9180   0.00029425034
       3117.6451    0.0058006053
       3118.3722     0.018998640
       3119.0993   -0.0068617792
       3119.8264    0.0020675722
       3120.5536   -0.0039026833
       3121.2807    0.0058743557
       3122.0078     0.012126342
       3122.7349    0.0012426072
       3123.4620    -0.010866255
       3124.1891     0.016040119
       3124.9163     0.010329769
       3125.6434    0.0011212740
       3126.3705    0.0061863291
       3127.0976     0.011739130
       3127.8247   0.00099835390
       3128.5519    0.0051831202
       3129.2790     0.013386220
       3130.0061     0.014162536
       3130.7332   -0.0027358295
       3131.4603   -0.0010160884
       3132.1875   -0.0046946844
       3132.9146   -0.0023617758
       3133.6417     0.014850888
       3134.3688    -0.014514595
       3135.0959    0.0065951292
       3135.8231    0.0025417096
       3136.5502   0.00076530351
       3137.2773    0.0060652772
       3138.0044    0.0038332937
       3138.7315    0.0063944983
       3139.4586   -0.0043434585
       3140.1858     0.015756547
       3140.9129  -0.00039827839
       3141.6400    0.0095596054
       3142.3671    0.0042426848
       3143.0942     0.014101687
       3143.8214    0.0031073580
       3144.5485    0.0024979947
       3145.2756   -0.0028768921
       3146.0027    -0.011036946
       3146.7298   0.00090517683
       3147.4570     0.015060319
       3148.1841     0.016056815
       3148.9112    0.0067055399
       3149.6383   -0.0057567023
       3150.3654   -0.0041488338
       3151.0925    0.0040372242
       3151.8197   -0.0023586816
       3152.5468    0.0030630371
       3153.2739   -0.0019307087
       3154.0010   0.00026624107
       3154.7281    0.0078203996
       3155.4553    0.0024913472
       3156.1824   -0.0059819564
       3156.9095   -0.0096468366
       3157.6366   -0.0014609505
       3158.3637   -0.0061889326
       3159.0909   -0.0012898740
       3159.8180    0.0083424818
       3160.5451     0.012729547
       3161.2722     0.015799415
       3161.9993    0.0020148971
       3162.7264   -0.0018697326
       3163.4536    0.0013974967
       3164.1807   -0.0045842795
       3164.9078    0.0024645902
       3165.6349    0.0098633997
       3166.3620     0.011327826
       3167.0892    0.0086258534
       3167.8163    0.0022511809
       3168.5434   0.00053246856
       3169.2705    0.0085132436
       3169.9976    0.0077056536
       3170.7248    0.0029960977
       3171.4519   0.00077772857
       3172.1790    0.0032232853
       3172.9061    -0.011664272
       3173.6332   -0.0025693888
       3174.3604     0.012040123
       3175.0875   -0.0044820471
       3175.8146    -0.011102126
       3176.5417    0.0033980864
       3177.2688  -6.8800953e-05
       3177.9959    0.0039158991
       3178.7231     0.015435017
       3179.4502    0.0077995345
       3180.1773    0.0066908363
       3180.9044    0.0071320809
       3181.6315    0.0096415795
       3182.3587    0.0085610267
       3183.0858   7.3119468e-05
       3183.8129    -0.010910478
       3184.5400    0.0023801832
       3185.2671    0.0035715815
       3185.9943    0.0036133576
       3186.7214    0.0069927291
       3187.4485   0.00050305902
       3188.1756    0.0066363615
       3188.9027   8.8990590e-05
       3189.6298    0.0038012179
       3190.3570    0.0040811050
       3191.0841    0.0023699462
       3191.8112  -0.00023885709
       3192.5383    0.0014784296
       3193.2654    0.0088726212
       3193.9926     0.013995620
       3194.7197    0.0030113258
       3195.4468   0.00015409687
       3196.1739    0.0046668814
       3196.9010   -0.0049236007
       3197.6282     0.011432606
       3198.3553    0.0081457633
       3199.0824   -0.0026767741
       3199.8095  -0.00071654756
       3200.5366    0.0088559536
       3201.2637    0.0039451663
       3201.9909    -0.011529775
       3202.7180   -0.0080224967
       3203.4451    0.0049059917
       3204.1722    0.0010529893
       3204.8993   -0.0089742973
       3205.6265    0.0035567651
       3206.3536    0.0084027698
       3207.0807    0.0016929835
       3207.8078   0.00043835584
       3208.5349    0.0042324637
       3209.2621    0.0021817756
       3209.9892     0.011397201
       3210.7163    0.0041794250
       3211.4434   -0.0065099091
       3212.1705    0.0024949296
       3212.8977    0.0030560962
       3213.6248    0.0078952628
       3214.3519    0.0093170191
       3215.0790    0.0059799217
       3215.8061   -0.0041945035
       3216.5332    0.0056095420
       3217.2604  -0.00071083244
       3217.9875    0.0014274013
       3218.7146     0.011323290
       3219.4417    0.0089863800
       3220.1688    0.0027923538
       3220.8960   -0.0093344192
       3221.6231    0.0078767684
       3222.3502     0.015098630
       3223.0773    0.0015163557
       3223.8044    0.0026200999
       3224.5316    -0.012375485
       3225.2587    0.0087039738
       3225.9858    0.0079040845
       3226.7129     0.010099723
       3227.4400    0.0097250930
       3228.1671     0.011145678
       3228.8943  -0.00093831707
       3229.6214    0.0056507009
       3230.3485   -0.0069697011
       3231.0756    0.0065347327
       3231.8027    0.0089501300
       3232.5299   -0.0066230619
       3233.2570    0.0091111052
       3233.9841    0.0024003543
       3234.7112    0.0029213548
       3235.4383    0.0096446032
       3236.1655     0.018134473
       3236.8926     0.014371225
       3237.6197    0.0077406636
       3238.3468   -0.0034206470
       3239.0739    0.0074781244
       3239.8011    0.0013287611
       3240.5282   -0.0030954991
       3241.2553   -0.0072502428
       3241.9824    0.0033479244
       3242.7095     0.013577327
       3243.4366    0.0068856493
       3244.1638    0.0094321674
       3244.8909   -0.0049946238
       3245.6180    0.0052854095
       3246.3451     0.013006830
       3247.0722    0.0029665844
       3247.7994   0.00023235518
       3248.5265   -0.0065835079
       3249.2536    0.0023343978
       3249.9807    0.0038356199
       3250.7078  -0.00037435445
       3251.4350    -0.012398108
       3252.1621    0.0041217603
       3252.8892   -0.0021949223
       3253.6163    -0.016725731
       3254.3434    0.0028968738
       3255.0705    0.0031967784
       3255.7977    0.0055995925
       3256.5248   -0.0021127492
       3257.2519   -0.0038853659
       3257.9790     0.011697692
       3258.7061     0.011193414
       3259.4333     0.013614373
       3260.1604   -0.0012234188
       3260.8875     0.022500129
       3261.6146    0.0044798772
       3262.3417    0.0041787219
       3263.0689   -0.0035648607
       3263.7960     0.012141176
       3264.5231    0.0080278880
       3265.2502   -0.0026221658
       3265.9773    -0.017402302
       3266.7044    0.0047015838
       3267.4316    0.0057615600
       3268.1587   -0.0040800649
       3268.8858    0.0025435775
       3269.6129   -0.0063715236
       3270.3400     0.011291863
       3271.0672    0.0075628929
       3271.7943   -0.0032748317
       3272.5214    0.0077233966
       3273.2485    -0.010864943
       3273.9756    0.0057250062
       3274.7028     0.016175151
       3275.4299    0.0097746623
       3276.1570     0.013846902
       3276.8841   -0.0036405596
       3277.6112   -0.0028526103
       3278.3384     0.014184553
       3279.0655    0.0060117636
       3279.7926     0.016492095
       3280.5197  -0.00060286110
       3281.2468    0.0067255773
       3281.9739   -0.0079856493
       3282.7011   -0.0069623964
       3283.4282    -0.011428433
       3284.1553   -0.0035507249
       3284.8824    0.0040166592
       3285.6095    0.0096016655
       3286.3367    0.0080490787
       3287.0638   -0.0011991049
       3287.7909     0.010089824
       3288.5180   -0.0044515924
       3289.2451     0.013119098
       3289.9723    0.0091682040
       3290.6994   -0.0022572425
       3291.4265     0.010335462
       3292.1536    0.0046117551
       3292.8807    0.0056642604
       3293.6078    0.0063064065
       3294.3350    0.0082654936
       3295.0621   -0.0065747271
       3295.7892   -0.0036276982
       3296.5163   -0.0059968024
       3297.2434     0.019563592
       3297.9706    0.0062743061
       3298.6977    0.0074459588
       3299.4248     0.013259037
       3300.1519    0.0040887920
       3300.8790     0.016032285
       3301.6062   -0.0021392851
       3302.3333    0.0096251738
       3303.0604     0.017938593
       3303.7875    0.0066861025
       3304.5146   -0.0054186791
       3305.2418    0.0051911253
       3305.9689     0.016872279
       3306.6960     0.027200078
       3307.4231   -0.0017279779
       3308.1502     0.011075921
       3308.8773    0.0020182952
       3309.6045     0.019328142
       3310.3316   -0.0010131454
       3311.0587     0.010722806
       3311.7858    0.0013415564
       3312.5129    0.0066932030
       3313.2401    0.0072388313
       3313.9672    0.0047732912
       3314.6943     0.018004309
       3315.4214     0.020015153
       3316.1485    0.0062501855
       3316.8757    0.0096461510
       3317.6028     0.023756040
       3318.3299   -0.0056605038
       3319.0570    0.0037652353
       3319.7841  -0.00031888038
       3320.5112   -0.0022035088
       3321.2384  -0.00075138778
       3321.9655     0.016304049
       3322.6926     0.010502753
       3323.4197   -0.0042785013
       3324.1468     0.015796356
       3324.8740    0.0097459110
       3325.6011     0.013101951
       3326.3282   -0.0033627498
       3327.0553     0.012881623
       3327.7824    0.0046716036
       3328.5096   0.00019771614
       3329.2367   -0.0038845267
       3329.9638     0.023844568
       3330.6909   -0.0011385806
       3331.4180     0.013206407
       3332.1451     0.020611784
       3332.8723     0.022592383
       3333.5994     0.013696878
       3334.3265    0.0081518179
       3335.0536    0.0096138120
       3335.7807    0.0068510803
       3336.5079   -0.0012517743
       3337.2350     0.012431897
       3337.9621    0.0084423683
       3338.6892     0.011868234
       3339.4163   -0.0046447575
       3340.1435    0.0015336884
       3340.8706   -0.0079111801
       3341.5977     0.012023819
       3342.3248   -0.0034762291
       3343.0519     0.014865094
       3343.7791     0.013301739
       3344.5062    0.0043728950
       3345.2333    0.0082419148
       3345.9604   -0.0093172330
       3346.6875    0.0089946322
       3347.4146    0.0042448603
       3348.1418   -0.0071018899
       3348.8689   -0.0055922967
       3349.5960     0.020408625
       3350.3231    0.0045359609
       3351.0502     0.011170343
       3351.7774  -0.00013929299
       3352.5045    0.0037021688
       3353.2316    0.0053136598
       3353.9587   -0.0084157731
       3354.6858     0.012100224
       3355.4130   -0.0087280510
       3356.1401    0.0069287472
       3356.8672     0.015624457
       3357.5943    0.0097277496
       3358.3214    0.0099514807
       3359.0485   -0.0020179281
       3359.7757    0.0026853433
       3360.5028    0.0088074397
       3361.2299    0.0011087435
       3361.9570  -0.00020572517
       3362.6841    0.0044959649
       3363.4113    0.0026083992
       3364.1384    0.0025764735
       3364.8655   -0.0089902397
       3365.5926     0.014015281
       3366.3197     0.014016863
       3367.0469     0.017944979
       3367.7740  -0.00080540088
       3368.5011   -0.0043195784
       3369.2282    -0.013342641
       3369.9553     0.022595108
       3370.6825    0.0045261794
       3371.4096     0.011838106
       3372.1367   -0.0057019778
       3372.8638    0.0029220030
       3373.5909   -0.0021974489
       3374.3180   -0.0025154618
       3375.0452  -0.00070758951
       3375.7723     0.022061720
       3376.4994   -0.0061207476
       3377.2265    0.0027409460
       3377.9536  -0.00080549223
       3378.6808   -0.0021756156
       3379.4079    0.0093693577
       3380.1350    0.0088218981
       3380.8621   -0.0036045930
       3381.5892    0.0098549577
       3382.3164   -0.0017009978
       3383.0435    0.0011770909
       3383.7706    0.0043177753
       3384.4977    0.0079248816
       3385.2248   -0.0056033405
       3385.9519     0.017872107
       3386.6791     0.019367117
       3387.4062    0.0044898751
       3388.1333     0.012896201
       3388.8604    0.0031643114
       3389.5875    -0.012867831
       3390.3147   -0.0032425724
       3391.0418     0.014343156
       3391.7689   -0.0093371000
       3392.4960    0.0028357601
       3393.2231     0.011152170
       3393.9503    0.0061313234
       3394.6774    0.0072067893
       3395.4045     0.020324698
       3396.1316     0.025576144
       3396.8587   -0.0058339185
       3397.5858   -0.0052858892
       3398.3130    0.0098257298
       3399.0401   -0.0063465193
       3399.7672     0.016919075
       3400.4943    0.0068333252
       3401.2214  -5.5589961e-05
       3401.9486   -0.0044181502
       3402.6757     0.016089456
       3403.4028     0.020340922
       3404.1299   0.00032327183
       3404.8570     0.018970596
       3405.5842    0.0022744342
       3406.3113    0.0069160372
       3407.0384    0.0064936999
       3407.7655  -0.00086442519
       3408.4926     0.011965180
       3409.2198     0.016212053
       3409.9469   -0.0020679646
       3410.6740   -0.0049315728
       3411.4011   -0.0026493949
       3412.1282    0.0058460614
       3412.8553     0.016209009
       3413.5825     0.015045587
       3414.3096     0.024999724
       3415.0367     0.024161723
       3415.7638    0.0077914683
       3416.4909    0.0069820959
       3417.2181    -0.012521511
       3417.9452    0.0035073592
       3418.6723   0.00069853436
       3419.3994    0.0041329861
       3420.1265  -9.8554961e-05
       3420.8537   -0.0016999124
       3421.5808   -0.0043622280
       3422.3079    0.0031933931
       3423.0350     0.016922563
       3423.7621     0.011001816
       3424.4892   -0.0049822306
       3425.2164   0.00049004487
       3425.9435    0.0079465542
       3426.6706    0.0065214748
       3427.3977     0.018532979
       3428.1248     0.021260953
       3428.8520     0.012739898
       3429.5791    0.0076787795
       3430.3062   -0.0059993099
       3431.0333    0.0070183200
       3431.7604    0.0045433286
       3432.4876    0.0030354074
       3433.2147     0.012259688
       3433.9418     0.010599852
       3434.6689    0.0044388419
       3435.3960    0.0093130354
       3436.1232    0.0024875516
       3436.8503   0.00043671489
       3437.5774    0.0053681351
       3438.3045     0.013913333
       3439.0316   -0.0093553183
       3439.7587    -0.018033704
       3440.4859    0.0054140402
       3441.2130    0.0026241224
       3441.9401    0.0025371162
       3442.6672     0.014400176
       3443.3943    0.0060877536
       3444.1215     0.010652979
       3444.8486   -0.0057184585
       3445.5757     0.018741614
       3446.3028   -0.0039848587
       3447.0299   -0.0059334888
       3447.7571    0.0021788775
       3448.4842     0.012385041
       3449.2113    0.0079564807
       3449.9384    0.0083953624
       3450.6655     0.016622499
       3451.3926     0.016980231
       3452.1198  -0.00097147548
       3452.8469    0.0037117555
       3453.5740     0.010824575
       3454.3011    0.0071166524
       3455.0282    0.0059630559
       3455.7554     0.021206664
       3456.4825     0.022423378
       3457.2096   -0.0026207364
       3457.9367    0.0096047157
       3458.6638     0.022071695
       3459.3910    0.0054310650
       3460.1181   -0.0060942515
       3460.8452    0.0084236388
       3461.5723    0.0065497887
       3462.2994   -0.0044817913
       3463.0265    0.0052977684
       3463.7537     0.010476940
       3464.4808     0.017877343
       3465.2079   -0.0061692127
       3465.9350     0.017124301
       3466.6621     0.012899175
       3467.3893    0.0076793765
       3468.1164    0.0072161977
       3468.8435   0.00089992934
       3469.5706     0.011803788
       3470.2977    0.0079805888
       3471.0249     0.010692499
       3471.7520   -0.0010164000
       3472.4791     0.015661152
       3473.2062    -0.010760815
       3473.9333     0.015602240
       3474.6605    0.0014691000
       3475.3876     0.010641141
       3476.1147    0.0032541848
       3476.8418    0.0024216294
       3477.5689    0.0023625043
       3478.2960    0.0076981001
       3479.0232    0.0050829417
       3479.7503   -0.0072674663
       3480.4774    0.0034791746
       3481.2045     0.014122699
       3481.9316     0.017057728
       3482.6588    0.0086450680
       3483.3859    0.0011246432
       3484.1130    0.0021560194
       3484.8401     0.010110208
       3485.5672     0.020669434
       3486.2944    0.0073018717
       3487.0215     0.011453106
       3487.7486   -0.0071634579
       3488.4757  -0.00015965859
       3489.2028   -0.0058100335
       3489.9299     0.012226076
       3490.6571    0.0088964214
       3491.3842   -0.0098601924
       3492.1113    0.0012746199
       3492.8384    0.0068621019
       3493.5655   0.00025860790
       3494.2927    0.0042210788
       3495.0198   -0.0097723874
       3495.7469   -0.0066727682
       3496.4740    0.0027332710
       3497.2011     0.021278018
       3497.9283   -0.0012989418
       3498.6554    -0.013244246
       3499.3825    0.0062715807
       3500.1096  -0.00099610964
       3500.8367   -0.0044468747
       3501.5638    0.0078465924
       3502.2910   -0.0055743855
       3503.0181    0.0074268466
       3503.7452    0.0043864949
       3504.4723     0.024199865
       3505.1994   -0.0023496594
       3505.9266    -0.014359628
       3506.6537    0.0072373596
       3507.3808     0.013423350
       3508.1079     0.015025009
       3508.8350    0.0075474138
       3509.5622    -0.016170165
       3510.2893    0.0042635066
       3511.0164   -0.0011191132
       3511.7435     0.014658282
       3512.4706     0.013842249
       3513.1978     0.022583513
       3513.9249    0.0065189184
       3514.6520    0.0057520718
       3515.3791     0.012490489
       3516.1062   0.00078437172
       3516.8333   -0.0030881725
       3517.5605   -0.0064404497
       3518.2876     0.025727278
       3519.0147   0.00017485820
       3519.7418    0.0057932418
       3520.4689     0.017895245
       3521.1961    0.0099024823
       3521.9232     0.017411715
       3522.6503     0.011089511
       3523.3774     0.010293582
       3524.1045     0.024266788
       3524.8317    0.0072717799
       3525.5588    0.0093238594
       3526.2859     0.026602493
       3527.0130    0.0090322490
       3527.7401   -0.0031427952
       3528.4672    0.0074375193
       3529.1944     0.020013369
       3529.9215    0.0017719042
       3530.6486    0.0014367701
       3531.3757    0.0053047980
       3532.1028    0.0035903040
       3532.8300  -0.00045488716
       3533.5571   -0.0067074327
       3534.2842    0.0085032105
       3535.0113   -0.0029773800
       3535.7384     0.021975766
       3536.4656     0.021463054
       3537.1927   -0.0035848184
       3537.9198    0.0029163575
       3538.6469    0.0039632561
       3539.3740     0.017163433
       3540.1012   -0.0055388055
       3540.8283    0.0041098621
       3541.5554    0.0050182662
       3542.2825    0.0026514342
       3543.0096   -0.0073969857
       3543.7367    0.0026742874
       3544.4639     0.013321065
       3545.1910     0.012047269
       3545.9181     0.018304125
       3546.6452     0.014681490
       3547.3723     0.018017909
       3548.0995    0.0096453974
       3548.8266     0.015821668
       3549.5537    0.0024648091
       3550.2808     0.016699769
       3551.0079  -0.00043965222
       3551.7351    0.0013771941
       3552.4622     0.024519432
       3553.1893   -0.0046879641
       3553.9164     0.014642850
       3554.6435    0.0074237093
       3555.3706    0.0054457986
       3556.0978     0.011425265
       3556.8249   -0.0034499099
       3557.5520   -0.0021839803
       3558.2791     0.011909300
       3559.0062     0.010402479
       3559.7334     0.013856734
       3560.4605     0.011808587
       3561.1876     0.010114757
       3561.9147  -0.00085991163
       3562.6418    0.0039721365
       3563.3690    0.0082045742
       3564.0961     0.017772335
       3564.8232    0.0085251186
       3565.5503     0.013036894
       3566.2774     0.014015514
       3567.0045     0.015849031
       3567.7317    0.0088847423
       3568.4588    0.0030624185
       3569.1859    0.0070438521
       3569.9130    0.0053570783
       3570.6401   -0.0031006200
       3571.3673     0.010639349
       3572.0944     0.011815901
       3572.8215     0.011669631
       3573.5486     0.010499281
       3574.2757    0.0045215436
       3575.0029    0.0055225859
       3575.7300    0.0043694609
       3576.4571   -0.0013716395
       3577.1842     0.015069324
       3577.9113     0.016044548
       3578.6385    0.0019249994
       3579.3656   -0.0031233701
       3580.0927  -0.00065569139
       3580.8198    0.0061618522
       3581.5469    0.0018529490
       3582.2740    0.0029534768
       3583.0012    0.0024551990
       3583.7283     0.015231408
       3584.4554   -0.0034407776
       3585.1825    0.0045614062
       3585.9096   -0.0056489604
       3586.6368    -0.012018601
       3587.3639    0.0013692482
       3588.0910     0.016899440
       3588.8181     0.018007312
       3589.5452     0.016458099
       3590.2724     0.012943330
       3590.9995    0.0064329193
       3591.7266     0.013537627
       3592.4537    0.0026532717
       3593.1808    0.0079476690
       3593.9079    0.0055402066
       3594.6351   -0.0035245564
       3595.3622     0.013011565
       3596.0893    0.0053170849
       3596.8164   -0.0017583483
       3597.5435   -0.0078299714
       3598.2707    0.0037889580
       3598.9978   -0.0024560190
       3599.7249    -0.012644380
       3600.4520   -0.0017663665
       3601.1791    0.0061169177
       3601.9063    0.0092793410
       3602.6334    0.0066775737
       3603.3605  -0.00046813302
       3604.0876     0.010869745
       3604.8147   -0.0034770327
       3605.5419    0.0079882459
       3606.2690     0.013447787
       3606.9961    0.0061351032
       3607.7232    -0.010042281
       3608.4503     0.016509708
       3609.1774    0.0050042222
       3609.9046    0.0094561361
       3610.6317     0.010682404
       3611.3588   0.00077107642
       3612.0859     0.013376162
       3612.8130    0.0090715138
       3613.5402    0.0074280677
       3614.2673    0.0032727787
       3614.9944     0.022788890
       3615.7215   -0.0055142153
       3616.4486     0.028084907
       3617.1758    0.0068904348
       3617.9029     0.011638684
       3618.6300   0.00033638925
       3619.3571    0.0094185517
       3620.0842     0.011294740
       3620.8113   -0.0067971567
       3621.5385   0.00024075593
       3622.2656     0.010339461
       3622.9927     0.010220420
       3623.7198    0.0041599648
       3624.4469     0.011369527
       3625.1741   -0.0016680174
       3625.9012    0.0039519187
       3626.6283     0.013374903
       3627.3554     0.010299349
       3628.0825     0.011148950
       3628.8097   -0.0066705536
       3629.5368     0.016238755
       3630.2639     0.024362128
       3630.9910     0.022038054
       3631.7181     0.015237431
       3632.4452    0.0087093693
       3633.1724   -0.0038985277
       3633.8995     0.013170058
       3634.6266   -0.0020082090
       3635.3537     0.013124378
       3636.0808     0.018816678
       3636.8080     0.010440824
       3637.5351     0.010492257
       3638.2622   -0.0057277746
       3638.9893    0.0063412301
       3639.7164     0.026320290
       3640.4436    0.0016345174
       3641.1707    0.0083871864
       3641.8978    -0.019828336
       3642.6249   0.00022464444
       3643.3520    0.0081903850
       3644.0792     0.014980263
       3644.8063     0.014457282
       3645.5334    0.0033194381
       3646.2605     0.017687407
       3646.9876     0.011936287
       3647.7147    0.0067914001
       3648.4419    0.0086459764
       3649.1690    0.0097039703
       3649.8961    0.0094453643
       3650.6232   -0.0070956890
       3651.3503     0.010946264
       3652.0775    0.0081022585
       3652.8046     0.010071495
       3653.5317     0.012483384
       3654.2588    0.0054730389
       3654.9859    0.0076074699
       3655.7131     0.011713895
       3656.4402   9.3361652e-05
       3657.1673    0.0083712013
       3657.8944   -0.0025920707
       3658.6215    0.0043180106
       3659.3486     0.013291996
       3660.0758   -0.0046779742
       3660.8029     0.014417468
       3661.5300     0.031630631
       3662.2571    0.0062161222
       3662.9842   -0.0010883801
       3663.7114     0.028451386
       3664.4385     0.014008001
       3665.1656    0.0057946847
       3665.8927     0.021993719
       3666.6198    0.0015007610
       3667.3470  -0.00064167979
       3668.0741     0.020371877
       3668.8012     0.022108892
       3669.5283     0.015322774
       3670.2554     0.015848569
       3670.9826     0.013047573
       3671.7097    0.0074713941
       3672.4368   -0.0058682010
       3673.1639   -0.0022170430
       3673.8910     0.018323634
       3674.6181     0.012007267
       3675.3453    0.0024291161
       3676.0724     0.017076710
       3676.7995    0.0057206410
       3677.5266     0.014731875
       3678.2537    0.0046861303
       3678.9809    0.0067754125
       3679.7080     0.015064730
       3680.4351     0.020991926
       3681.1622  -0.00038941425
       3681.8893   0.00089610693
       3682.6165    0.0082255383
       3683.3436     0.012636863
       3684.0707     0.018159722
       3684.7978     0.012569793
       3685.5249    0.0030741336
       3686.2520     0.023771694
       3686.9792    0.0035895512
       3687.7063    0.0087433160
       3688.4334     0.012350879
       3689.1605    0.0082799611
       3689.8876     0.016115179
       3690.6148    -0.011156160
       3691.3419   0.00019846457
       3692.0690   -0.0024264014
       3692.7961    0.0049859817
       3693.5232    0.0077523939
       3694.2504     0.016991435
       3694.9775    0.0057038770
       3695.7046   -0.0025280230
       3696.4317    -0.010531530
       3697.1588    0.0084200604
       3697.8859   -0.0072661977
       3698.6131     0.010066218
       3699.3402   -0.0046378261
       3700.0673     0.014465244
       3700.7944  -0.00011128088
       3701.5215  -0.00036718957
       3702.2487    0.0024002603
       3702.9758     0.010452330
       3703.7029     0.016766139
       3704.4300    0.0099504420
       3705.1571     0.014080838
       3705.8843    0.0010887526
       3706.6114    0.0083269808
       3707.3385     0.023447789
       3708.0656     0.024891053
       3708.7927     0.019977336
       3709.5199     0.014151296
       3710.2470     0.016432641
       3710.9741     0.040817467
       3711.7012     0.028667205
       3712.4283     0.029463947
       3713.1554     0.020158005
       3713.8826     0.027204076
       3714.6097     0.021076025
       3715.3368     0.019143917
       3716.0639     0.014380921
       3716.7910    0.0050946241
       3717.5182     0.012124421
       3718.2453     0.012125132
       3718.9724  -0.00093686440
       3719.6995    0.0079730823
       3720.4266   -0.0078621816
       3721.1538    0.0022579334
       3721.8809    -0.041408846
       3722.6080    -0.018505728
       3723.3351    -0.053357464
       3724.0622   -0.0066050274
       3724.7893    -0.015807711
       3725.5165     0.025209235
       3726.2436     0.026248041
       3726.9707   -0.0046535026
       3727.6978    0.0054366244
       3728.4249     0.022259686
       3729.1521     0.029745019
       3729.8792    0.0072296278
       3730.6063    0.0076360316
       3731.3334     0.010796389
       3732.0605   0.00040512294
       3732.7877    0.0037453865
       3733.5148    0.0011911984
       3734.2419    0.0084372873
       3734.9690     0.019805578
       3735.6961     0.015596649
       3736.4233     0.018561038
       3737.1504    0.0083272585
       3737.8775     0.010631952
       3738.6046    0.0074267580
       3739.3317     0.011073966
       3740.0588     0.011156259
       3740.7860     0.015745973
       3741.5131     0.017025962
       3742.2402    0.0085786042
       3742.9673   -0.0099359876
       3743.6944   -0.0032193465
       3744.4216    0.0075040238
       3745.1487    0.0041380620
       3745.8758    0.0043461113
       3746.6029   -0.0047849058
       3747.3300    0.0072668142
       3748.0572     0.029709828
       3748.7843    0.0096551958
       3749.5114  -3.2016227e-05
       3750.2385   -0.0080610569
       3750.9656    0.0072754130
       3751.6927    0.0056791806
       3752.4199    0.0043246891
       3753.1470    -0.014864400
       3753.8741    0.0058901720
       3754.6012  -0.00071683330
       3755.3283     0.016495131
       3756.0555    0.0042338096
       3756.7826     0.012565075
       3757.5097   -0.0033054840
       3758.2368   -0.0060055645
       3758.9639    0.0023417765
       3759.6911   -0.0031287158
       3760.4182     0.011313105
       3761.1453     0.018068362
       3761.8724     0.013955360
       3762.5995  -8.1467192e-05
       3763.3266   -0.0037722793
       3764.0538    -0.011751870
       3764.7809    0.0077288798
       3765.5080   -0.0052170921
       3766.2351    0.0090706243
       3766.9622   -0.0035845965
       3767.6894    0.0091239216
       3768.4165    0.0021774750
       3769.1436   -0.0018386728
       3769.8707     0.017496984
       3770.5978  -0.00086204802
       3771.3250    0.0033034839
       3772.0521   -0.0044690849
       3772.7792     0.014727823
       3773.5063   -0.0067211123
       3774.2334    0.0015830431
       3774.9606    0.0043863986
       3775.6877     0.019246978
       3776.4148   0.00034900801
       3777.1419   -0.0025257730
       3777.8690    0.0066303045
       3778.5961   -0.0081230341
       3779.3233   -0.0083183360
       3780.0504    0.0021191305
       3780.7775    0.0090380617
       3781.5046    0.0028734397
       3782.2317    0.0057554263
       3782.9589     0.010289474
       3783.6860     0.010112062
       3784.4131   -0.0036910800
       3785.1402    0.0029910044
       3785.8673    0.0078680753
       3786.5945     0.016880068
       3787.3216   -0.0014794008
       3788.0487   -0.0097409013
       3788.7758    0.0095915849
       3789.5029    -0.012258990
       3790.2300    0.0027038199
       3790.9572     0.015166199
       3791.6843    -0.010982406
       4290.8315      0.30819600
       4291.6302      0.20003854
       4292.4290      0.14347267
       4293.2278      0.20767780
       4294.0265      0.19929383
       4294.8253      0.18410882
       4295.6241      0.12886640
       4296.4228     0.087646959
       4297.2216      0.12378338
       4298.0203      0.10241924
       4298.8191      0.21729809
       4299.6179      0.11521124
       4300.4166      0.13319613
       4301.2154      0.18595411
       4302.0142      0.13865561
       4302.8129      0.13693516
       4303.6117      0.20545516
       4304.4105      0.14913811
       4305.2092      0.15362860
       4306.0080      0.26247097
       4306.8068      0.23400799
       4307.6055      0.27680583
       4308.4043      0.13511140
       4309.2031      0.20639753
       4310.0018      0.21019647
       4310.8006     0.033357829
       4311.5994     0.089902845
       4312.3981      0.10148831
       4313.1969      0.17122922
       4313.9957      0.19320805
       4314.7944      0.14686798
       4315.5932      0.14518610
       4316.3920      0.16330268
       4317.1907      0.20998837
       4317.9895      0.14241394
       4318.7883      0.15695943
       4319.5870    0.0085011259
       4320.3858     0.050411276
       4321.1846     0.045468438
       4321.9833      0.16524870
       4322.7821     0.033719012
       4323.5809      0.11268802
       4324.3796     0.045519457
       4325.1784      0.15071644
       4325.9771      0.14182070
       4326.7759      0.22395082
       4327.5747      0.15821706
       4328.3734      0.15078797
       4329.1722      0.16809313
       4329.9710      0.14815764
       4330.7697     0.015515232
       4331.5685     0.078459671
       4332.3673      0.12226408
       4333.1660      0.19374513
       4333.9648      0.15289051
       4334.7636      0.17796837
       4335.5623      0.18864086
       4336.3611      0.13036743
       4337.1599      0.15196824
       4337.9586      0.24799311
       4338.7574      0.17468253
       4339.5562      0.10867909
       4340.3549     0.084135960
       4341.1537      0.13424144
       4341.9525      0.19547568
       4342.7512      0.16543830
       4343.5500      0.24108207
       4344.3488      0.16679052
       4345.1475      0.12180722
       4345.9463      0.23034268
       4346.7451      0.24072882
       4347.5438      0.12674725
       4348.3426      0.17145333
       4349.1414      0.23396637
       4349.9401      0.15511571
       4350.7389      0.22053685
       4351.5377      0.20302982
       4352.3364      0.22170664
       4353.1352      0.32541368
       4353.9339      0.28762879
       4354.7327      0.20807402
       4355.5315      0.11943138
       4356.3302      0.20770472
       4357.1290     0.089206112
       4357.9278      0.10548618
       4358.7265      0.14133166
       4359.5253     0.055788514
       4360.3241      0.13030864
       4361.1228     0.095216257
       4361.9216     0.045802909
       4362.7204      0.14954643
       4363.5191      0.15522673
       4364.3179      0.20068215
       4365.1167      0.26527139
       4365.9154      0.18965096
       4366.7142      0.22147349
       4367.5130      0.16930855
       4368.3117      0.18102421
       4369.1105     0.099877590
       4369.9093      0.22247921
       4370.7080      0.10660324
       4371.5068      0.18958651
       4372.3056     0.070524046
       4373.1043      0.24370033
       4373.9031      0.14783952
       4374.7019      0.19743713
       4375.5006      0.18276666
       4376.2994      0.14481543
       4377.0982      0.21396700
       4377.8969      0.20167914
       4378.6957      0.21076352
       4379.4945      0.21263089
       4380.2932      0.18751126
       4381.0920      0.25832637
       4381.8907      0.16588262
       4382.6895      0.21129574
       4383.4883      0.16772469
       4384.2870      0.21819242
       4385.0858      0.24466787
       4385.8846      0.30348947
       4386.6833      0.26881992
       4387.4821      0.25807168
       4388.2809      0.21649548
       4389.0796      0.13517449
       4389.8784      0.23418643
       4390.6772      0.21726724
       4391.4759      0.17212570
       4392.2747      0.11413814
       4393.0735      0.20642958
       4393.8722      0.17763318
       4394.6710      0.14013390
       4395.4698      0.21946565
       4396.2685      0.20881903
       4397.0673      0.17687621
       4397.8661      0.30602013
       4398.6648      0.16390875
       4399.4636      0.20684230
       4400.2624      0.26803501
       4401.0611      0.20275964
       4401.8599      0.14738366
       4402.6587      0.22355456
       4403.4574      0.16598675
       4404.2562      0.33230836
       4405.0550      0.24128038
       4405.8537      0.18746676
       4406.6525      0.24561371
       4407.4513      0.15054962
       4408.2500      0.22198837
       4409.0488      0.16407730
       4409.8475      0.10484974
       4410.6463      0.22164929
       4411.4451      0.29827262
       4412.2438      0.21533790
       4413.0426     0.065310798
       4413.8414      0.22653085
       4414.6401      0.17033904
       4415.4389      0.10997268
       4416.2377      0.15491760
       4417.0364      0.14984472
       4417.8352      0.21192989
       4418.6340      0.21526507
       4419.4327      0.24525799
       4420.2315      0.19876635
       4421.0303      0.22365004
       4421.8290      0.13241939
       4422.6278      0.18044074
       4423.4266      0.17539986
       4424.2253      0.16581492
       4425.0241      0.12481623
       4425.8229      0.18287521
       4426.6216      0.14806873
       4427.4204      0.20509953
       4428.2192      0.11989432
       4429.0179      0.15652805
       4429.8167      0.13470391
       4430.6155      0.14587764
       4431.4142     0.050125840
       4432.2130      0.12689277
       4433.0118      0.24022976
       4433.8105      0.33407160
       4434.6093      0.19317893
       4435.4080      0.21256120
       4436.2068      0.13613202
       4437.0056      0.19967076
       4437.8043      0.18579312
       4438.6031      0.22923571
       4439.4019      0.12280103
       4440.2006      0.23996352
       4440.9994      0.15284330
       4441.7982      0.15717354
       4442.5969      0.20571297
       4443.3957      0.24065596
       4444.1945      0.21516655
       4444.9932      0.23008758
       4445.7920      0.16055878
       4446.5908      0.18102060
       4447.3895      0.10995178
       4448.1883      0.12637882
       4448.9871      0.23084136
       4449.7858      0.11191498
       4450.5846     0.072393151
       4451.3834      0.17178214
       4452.1821      0.16874382
       4452.9809      0.16879941
       4453.7797      0.15693648
       4454.5784      0.14445934
       4455.3772      0.13746161
       4456.1760      0.22169518
       4456.9747      0.29872005
       4457.7735     0.080147092
       4458.5723      0.27086555
       4459.3710      0.16106099
       4460.1698      0.26964482
       4460.9686      0.20712183
       4461.7673      0.16330883
       4462.5661      0.17104632
       4463.3648      0.22335643
       4464.1636      0.16976661
       4464.9624      0.13663488
       4465.7611      0.16431683
       4466.5599      0.23096686
       4467.3587      0.16967977
       4468.1574      0.23181808
       4468.9562      0.13932500
       4469.7550      0.22695195
       4470.5537      0.22343793
       4471.3525      0.19565108
       4472.1513      0.18775811
       4472.9500     0.058519556
       4473.7488      0.19336538
       4474.5476      0.17378457
       4475.3463      0.24674349
       4476.1451      0.21302459
       4476.9439      0.18160796
       4477.7426      0.20933647
       4478.5414      0.27911295
       4479.3402     0.090969902
       4480.1389      0.19201058
       4480.9377      0.26779075
       4481.7365      0.20328216
       4482.5352      0.13203164
       4483.3340      0.13731071
       4484.1328      0.21320710
       4484.9315     0.023419906
       4485.7303      0.17223996
       4486.5291      0.12836227
       4487.3278      0.17768982
       4488.1266      0.12877188
       4488.9254      0.24574365
       4489.7241      0.15702539
       4490.5229      0.30451825
       4491.3216      0.25594045
       4492.1204      0.16951638
       4492.9192      0.19961371
       4493.7179      0.18502725
       4494.5167      0.13722782
       4495.3155      0.25107079
       4496.1142      0.14745086
       4496.9130      0.32860793
       4497.7118      0.17783566
       4498.5105      0.18105976
       4499.3093      0.14918927
       4500.1081      0.27794396
       4500.9068      0.18106680
       4501.7056      0.24232191
       4502.5044      0.25119105
       4503.3031      0.21669558
       4504.1019      0.15937813
       4504.9007      0.19542008
       4505.6994      0.26856961
       4506.4982      0.28680479
       4507.2970      0.20504975
       4508.0957      0.22373131
       4508.8945      0.21570099
       4509.6933      0.25436881
       4510.4920      0.26800293
       4511.2908      0.22376107
       4512.0896      0.22033168
       4512.8883      0.12922700
       4513.6871      0.21860554
       4514.4859      0.13714538
       4515.2846      0.19271629
       4516.0834      0.20930805
       4516.8822      0.12768772
       4517.6809      0.19184739
       4518.4797      0.30137244
       4519.2784      0.22107398
       4520.0772      0.17759247
       4520.8760      0.21538140
       4521.6747      0.23588458
       4522.4735      0.16853407
       4523.2723      0.15768119
       4524.0710      0.12480427
       4524.8698      0.22938767
       4525.6686      0.22322446
       4526.4673      0.14840899
       4527.2661      0.17863745
       4528.0649      0.17361095
       4528.8636      0.20828256
       4529.6624      0.21415664
       4530.4612      0.24662943
       4531.2599      0.23451861
       4532.0587      0.20013713
       4532.8575      0.22927386
       4533.6562      0.17224965
       4534.4550      0.19174039
       4535.2538      0.29109720
       4536.0525      0.12723448
       4536.8513      0.20391156
       4537.6501      0.22491281
       4538.4488      0.21887376
       4539.2476      0.22852743
       4540.0464      0.29497873
       4540.8451      0.17428279
       4541.6439      0.31072197
       4542.4427      0.17459763
       4543.2414      0.23578581
       4544.0402      0.18837194
       4544.8390      0.19883190
       4545.6377      0.28601889
       4546.4365      0.11466149
       4547.2352      0.25573714
       4548.0340      0.23500227
       4548.8328      0.24849026
       4549.6315      0.26023974
       4550.4303      0.40754947
       4551.2291      0.19552781
       4552.0278      0.22604243
       4552.8266      0.17964525
       4553.6254      0.17742815
       4554.4241      0.18008532
       4555.2229      0.18590966
       4556.0217      0.15599599
       4556.8204      0.21892923
       4557.6192      0.15739383
       4558.4180      0.20448441
       4559.2167      0.26788268
       4560.0155      0.25466122
       4560.8143      0.21360000
       4561.6130      0.13719732
       4562.4118      0.19335760
       4563.2106      0.20090360
       4564.0093      0.23420822
       4564.8081      0.27002028
       4565.6069      0.23207910
       4566.4056      0.25725006
       4567.2044      0.21199909
       4568.0032      0.20067496
       4568.8019      0.19649330
       4569.6007      0.27205808
       4570.3995      0.34339087
       4571.1982      0.20782975
       4571.9970      0.31683949
       4572.7958      0.14401875
       4573.5945      0.16566539
       4574.3933      0.15135632
       4575.1920      0.14701350
       4575.9908      0.29858858
       4576.7896     0.077897396
       4577.5883      0.27939362
       4578.3871      0.16779488
       4579.1859      0.21935156
       4579.9846      0.20760477
       4580.7834      0.22761811
       4581.5822      0.18101150
       4582.3809      0.29877752
       4583.1797      0.21475556
       4583.9785      0.19476406
       4584.7772      0.27140259
       4585.5760      0.29102892
       4586.3748      0.15228350
       4587.1735      0.16933416
       4587.9723      0.21504357
       4588.7711      0.24320058
       4589.5698      0.17173296
       4590.3686     0.067158397
       4591.1674      0.13770596
       4591.9661      0.14262898
       4592.7649      0.18809636
       4593.5637      0.33853982
       4594.3624      0.12811274
       4595.1612      0.13691206
       4595.9600      0.21657112
       4596.7587      0.23398243
       4597.5575      0.17227024
       4598.3563     0.026024596
       4599.1550      0.14517088
       4599.9538      0.11879650
       4600.7526     0.084859431
       4601.5513      0.16514467
       4602.3501      0.24141611
       4603.1488      0.22923598
       4603.9476      0.13258312
       4604.7464      0.13867617
       4605.5451      0.11464428
       4606.3439      0.21932188
       4607.1427      0.18166776
       4607.9414      0.22802746
       4608.7402      0.19375422
       4609.5390      0.21104535
       4610.3377      0.20455143
       4611.1365      0.16599934
       4611.9353      0.16119907
       4612.7340     0.090623902
       4613.5328      0.13677654
       4614.3316      0.17633872
       4615.1303      0.23404277
       4615.9291      0.23206188
       4616.7279      0.22378830
       4617.5266      0.20293684
       4618.3254      0.22030431
       4619.1242      0.21793489
       4619.9229      0.15123946
       4620.7217      0.21914655
       4621.5205      0.16024022
       4622.3192      0.19769666
       4623.1180      0.19031055
       4623.9168      0.18969175
       4624.7155      0.25526561
       4625.5143      0.20428529
       4626.3131      0.23779816
       4627.1118      0.14139949
       4627.9106      0.18650335
       4628.7094      0.20170632
       4629.5081      0.13656757
       4630.3069      0.23338779
       4631.1056      0.20464189
       4631.9044      0.24509039
       4632.7032      0.24712694
       4633.5019      0.19350685
       4634.3007      0.23170322
       4635.0995      0.23608655
       4635.8982      0.18900972
       4636.6970      0.24801647
       4637.4958      0.25766637
       4638.2945      0.14389876
       4639.0933      0.22666592
       4639.8921      0.25197306
       4640.6908      0.19520485
       4641.4896      0.22067852
       4642.2884      0.20214712
       4643.0871      0.28727400
       4643.8859      0.16020580
       4644.6847      0.30011710
       4645.4834      0.15192391
       4646.2822      0.19858368
       4647.0810      0.22522298
       4647.8797      0.18925006
       4648.6785      0.18200902
       4649.4773      0.15778037
       4650.2760      0.24837521
       4651.0748      0.25166652
       4651.8736      0.18539534
       4652.6723      0.25227524
       4653.4711      0.17080939
       4654.2699      0.25667133
       4655.0686      0.32608026
       4655.8674      0.12608119
       4656.6662      0.27649155
       4657.4649      0.21433109
       4658.2637      0.31366128
       4659.0624      0.30895102
       4659.8612      0.23657233
       4660.6600      0.23729359
       4661.4587      0.15751502
       4662.2575      0.19708620
       4663.0563      0.27654708
       4663.8550      0.24260093
       4664.6538      0.21207560
       4665.4526      0.22575117
       4666.2513      0.27337099
       4667.0501      0.18671035
       4667.8489      0.25261454
       4668.6476      0.18225713
       4669.4464      0.26974023
       4670.2452      0.28838673
       4671.0439      0.16857714
       4671.8427      0.19270179
       4672.6415      0.29294115
       4673.4402      0.22720986
       4674.2390      0.25058636
       4675.0378      0.36192149
       4675.8365      0.19650625
       4676.6353      0.22897145
       4677.4341      0.22016123
       4678.2328      0.26433122
       4679.0316      0.18861162
       4679.8304      0.14776831
       4680.6291      0.24534028
       4681.4279      0.13237831
       4682.2267     0.062939516
       4683.0254      0.23224035
       4683.8242      0.23723761
       4684.6230      0.21718082
       4685.4217      0.22605518
       4686.2205      0.24511171
       4687.0192      0.26351429
       4687.8180      0.19154640
       4688.6168      0.27309128
       4689.4155      0.26781995
       4690.2143      0.22226743
       4691.0131      0.19886755
       4691.8118      0.20083355
       4692.6106      0.25498891
       4693.4094      0.21489875
       4694.2081      0.19825004
       4695.0069      0.30684842
       4695.8057      0.25349813
       4696.6044      0.20796282
       4697.4032      0.18728663
       4698.2020      0.22200288
       4699.0007      0.18031470
       4699.7995      0.28430823
       4700.5983      0.25109279
       4701.3970      0.16367761
       4702.1958      0.17725302
       4702.9946      0.18626926
       4703.7933      0.17979966
       4704.5921      0.24253747
       4705.3909      0.19752122
       4706.1896      0.22990878
       4706.9884      0.20398888
       4707.7872      0.16745824
       4708.5859      0.21656466
       4709.3847      0.14540914
       4710.1835      0.18618288
       4710.9822      0.17844940
       4711.7810      0.18788621
       4712.5798      0.20780177
       4713.3785      0.35153319
       4714.1773      0.27786176
       4714.9760      0.22752278
       4715.7748      0.21530627
       4716.5736      0.22908559
       4717.3723      0.20578098
       4718.1711      0.16654118
       4718.9699      0.20709689
       4719.7686      0.19034658
       4720.5674      0.26275656
       4721.3662      0.21526822
       4722.1649      0.29086501
       4722.9637      0.26361937
       4723.7625      0.14459317
       4724.5612      0.20181193
       4725.3600      0.23939859
       4726.1588      0.10809401
       4726.9575      0.29979045
       4727.7563      0.14355269
       4728.5551      0.32500035
       4729.3538      0.29014569
       4730.1526      0.20373161
       4730.9514      0.24717439
       4731.7501      0.22686119
       4732.5489      0.17057074
       4733.3477      0.28341241
       4734.1464      0.24344012
       4734.9452      0.14976790
       4735.7440      0.24239331
       4736.5427      0.15430100
       4737.3415      0.23752151
       4738.1403      0.27407884
       4738.9390      0.20876939
       4739.7378      0.21282587
       4740.5366      0.23685451
       4741.3353      0.22622607
       4742.1341      0.25903236
       4742.9328      0.28515818
       4743.7316      0.29602358
       4744.5304      0.25446375
       4745.3291      0.20370927
       4746.1279      0.19506512
       4746.9267      0.32141487
       4747.7254      0.24114903
       4748.5242      0.30740322
       4749.3230      0.26201711
       4750.1217      0.30022369
       4750.9205      0.32731863
       4751.7193      0.19965326
       4752.5180      0.18834293
       4753.3168      0.21384425
       4754.1156      0.17059080
       4754.9143      0.24816579
       4755.7131      0.25641294
       4756.5119      0.26874259
       4757.3106      0.21443113
       4758.1094      0.25267037
       4758.9082      0.25052320
       4759.7069      0.23363124
       4760.5057      0.25542225
       4761.3045      0.25911299
       4762.1032      0.29913988
       4762.9020      0.21367524
       4763.7008      0.22519909
       4764.4995      0.14405228
       4765.2983      0.23637743
       4766.0971      0.24003074
       4766.8958      0.19254973
       4767.6946      0.17420332
       4768.4934      0.19928285
       4769.2921      0.14850129
       4770.0909      0.32521525
       4770.8896      0.24677034
       4771.6884      0.29171600
       4772.4872      0.24693388
       4773.2859      0.17433457
       4774.0847      0.28690323
       4774.8835      0.25413327
       4775.6822      0.21080039
       4776.4810      0.29047689
       4777.2798      0.25593603
       4778.0785      0.28750691
       4778.8773      0.21802973
       4779.6761      0.24461393
       4780.4748      0.24553570
       4781.2736      0.23301895
       4782.0724      0.18358035
       4782.8711      0.31585423
       4783.6699      0.34031622
       4784.4687      0.20643901
       4785.2674      0.20767526
       4786.0662      0.22290914
       4786.8650      0.21784630
       4787.6637      0.22773498
       4788.4625      0.20562716
       4789.2613      0.19991142
       4790.0600      0.31249540
       4790.8588      0.35880828
       4791.6576      0.22976941
       4792.4563      0.24218709
       4793.2551      0.37423641
       4794.0539      0.21092318
       4794.8526      0.24508213
       4795.6514      0.18655639
       4796.4502      0.34861444
       4797.2489      0.23647269
       4798.0477      0.24576538
       4798.8464      0.12847240
       4799.6452      0.16670009
       4800.4440      0.25686300
       4801.2427      0.19446198
       4802.0415      0.16087777
       4802.8403      0.21390467
       4803.6390      0.28078819
       4804.4378      0.12140589
       4805.2366      0.25788138
       4806.0353      0.25458310
       4806.8341      0.22595578
       4807.6329      0.28053879
       4808.4316      0.28786343
       4809.2304      0.30313123
       4810.0292      0.23045696
       4810.8279      0.37834384
       4811.6267      0.25544553
       4812.4255      0.25812434
       4813.2242      0.32776089
       4814.0230      0.42132132
       4814.8218      0.44983659
       4815.6205      0.36234851
       4816.4193      0.38280104
       4817.2181      0.19481682
       4818.0168      0.21887889
       4818.8156      0.29323340
       4819.6144      0.27756222
       4820.4131      0.25272327
       4821.2119      0.22150285
       4822.0107      0.20705861
       4822.8094      0.20320432
       4823.6082      0.19490810
       4824.4070      0.21894234
       4825.2057     0.027609551
       4826.0045      0.12278019
       4826.8032     -0.19117937
       4827.6020     -0.14962927
       4828.4008    -0.068833475
       4829.1995     0.040643968
       4829.9983      -2.2945379
       4830.7971      -1.0518512
       4831.5958      -1.0355012
       4832.3946     -0.29507729
       4833.1934    -0.087103700
       4833.9921    -0.069427998
       4834.7909      0.10790635
       4835.5897      0.15318521
       4836.3884      0.17929088
       4837.1872      0.20634932
       4837.9860      0.26580457
       4838.7847      0.19252904
       4839.5835      0.26218197
       4840.3823      0.19896488
       4841.1810      0.25537800
       4841.9798      0.21961999
       4842.7786      0.29392897
       4843.5773      0.15764836
       4844.3761      0.13190297
       4845.1749      0.22405017
       4845.9736      0.19700711
       4846.7724      0.25301290
       4847.5712      0.28681526
       4848.3699      0.25340434
       4849.1687      0.23183738
       4849.9675      0.26982187
       4850.7662      0.22603838
       4851.5650      0.22559953
       4852.3638      0.32663157
       4853.1625      0.17482718
       4853.9613      0.18709306
       4854.7600     0.063155390
       4855.5588      0.27928983
       4856.3576      0.30964559
       4857.1563      0.37771288
       4857.9551     0.075873824
       4858.7539      0.28321786
       4859.5526      0.19890275
       4860.3514      0.18024509
       4861.1502      0.18467522
       4861.9489      0.13628030
       4862.7477      0.20106482
       4863.5465      0.21977246
       4864.3452      0.28896861
       4865.1440      0.24934044
       4865.9428      0.20297863
       4866.7415      0.28493853
       4867.5403      0.16374857
       4868.3391      0.29988198
       4869.1378      0.18097412
       4869.9366      0.10021557
       4870.7354      0.15841036
       4871.5341      0.23390222
       4872.3329      0.21496649
       4873.1317      0.20686648
       4873.9304      0.28953769
       4874.7292      0.21492010
       4875.5280      0.20222299
       4876.3267      0.19436231
       4877.1255      0.29779558
       4877.9243      0.22657522
       4878.7230      0.22170433
       4879.5218      0.14815397
       4880.3206      0.28669554
       4881.1193      0.26397925
       4881.9181     0.046633135
       4882.7168   -0.0048687801
       4883.5156      0.27308987
       4884.3144      0.20500609
       4885.1131      0.16376964
       4885.9119      0.35907559
       4886.7107      0.14359647
       4887.5094     0.095829949
       4888.3082      0.23217616
       4889.1070      0.12203039
       4889.9057      0.18978660
       4890.7045      0.16456768
       4891.5033      0.21566803
       4892.3020      0.26067445
       4893.1008      0.23701790
       4893.8996      0.23440170
       4894.6983      0.21205087
       4895.4971      0.13647443
       4896.2959      0.12301142
       4897.0946      0.22695092
       4897.8934      0.30918154
       4898.6922      0.26236635
       4899.4909      0.29255288
       4900.2897      0.25321927
       4901.0885      0.31436996
       4901.8872      0.34958733
       4902.6860      0.17777672
       4903.4848      0.28585765
       4904.2835      0.23996720
       4905.0823      0.23354542
       4905.8811      0.25067395
       4906.6798      0.27031544
       4907.4786      0.31914288
       4908.2773      0.28280906
       4909.0761      0.26744547
       4909.8749      0.18547810
       4910.6736      0.31693708
       4911.4724      0.20702118
       4912.2712      0.28894602
       4913.0699      0.19731426
       4913.8687      0.22235091
       4914.6675      0.18449658
       4915.4662      0.30714384
       4916.2650      0.20802503
       4917.0638      0.19349304
       4917.8625      0.14773908
       4918.6613      0.30446859
       4919.4601      0.25124346
       4920.2588      0.10793057
       4921.0576      0.24096463
       4921.8564      0.22857652
       4922.6551      0.19787620
       4923.4539     0.048958210
       4924.2527      0.11749133
       4925.0514      0.25283433
       4925.8502      0.26132910
       4926.6490      0.25826035
       4927.4477     0.094973860
       4928.2465      0.14397075
       4929.0453      0.25781428
       4929.8440      0.16875234
       4930.6428      0.27684772
       4931.4416      0.22209553
       4932.2403      0.18660978
       4933.0391      0.27079184
       4933.8379      0.26567507
       4934.6366      0.19058435
       4935.4354      0.35708456
       4936.2341      0.33220181
       4937.0329      0.25277170
       4937.8317      0.20479446
       4938.6304      0.15276679
       4939.4292      0.12782293
       4940.2280      0.24766087
       4941.0267      0.22146982
       4941.8255      0.35781052
       4942.6243      0.28809278
       4943.4230      0.17898041
       4944.2218      0.29878273
       4945.0206      0.33331818
       4945.8193      0.14915031
       4946.6181      0.10877686
       4947.4169      0.31548156
       4948.2156      0.20317174
       4949.0144      0.20098541
       4949.8132      0.22004609
       4950.6119      0.34066611
       4951.4107      0.30900021
       4952.2095      0.22252477
       4953.0082      0.27753331
       4953.8070      0.26700721
       4954.6058      0.33276921
       4955.4045      0.22436858
       4956.2033      0.30166301
       4957.0021      0.31330069
       4957.8008      0.28511090
       4958.5996      0.35066948
       4959.3984      0.32796249
       4960.1971      0.30422739
       4960.9959      0.34340747
       4961.7947      0.31799275
       4962.5934      0.29746246
       4963.3922      0.20024690
       4964.1909      0.30920151
       4964.9897      0.19725543
       4965.7885      0.33210130
       4966.5872      0.43113371
       4967.3860      0.25203515
       4968.1848      0.28291310
       4968.9835      0.26068579
       4969.7823      0.22966867
       4970.5811      0.23494365
       4971.3798      0.32914092
       4972.1786      0.24718982
       4972.9774      0.25742159
       4973.7761      0.27819863
       4974.5749      0.25204435
       4975.3737      0.24026572
       4976.1724      0.32218052
       4976.9712      0.24960103
       4977.7700      0.31601348
       4978.5687      0.19311571
       4979.3675      0.24279846
       4980.1663      0.25848504
       4980.9650      0.28329004
       4981.7638      0.18074466
       4982.5626      0.15362334
       4983.3613      0.27135489
       4984.1601      0.21536484
       4984.9589      0.21908211
       4985.7576      0.17452166
       4986.5564      0.21711134
       4987.3552      0.26944444
       4988.1539      0.23472610
       4988.9527      0.28360733
       4989.7515      0.26865766
       4990.5502      0.29642231
       4991.3490      0.28496940
       4992.1477      0.17068378
       4992.9465      0.31526381
       4993.7453      0.26697249
       4994.5440      0.20868143
       4995.3428      0.17893119
       4996.1416      0.26805009
       4996.9403      0.26777337
       4997.7391      0.28281850
       4998.5379      0.28429627
       4999.3366      0.33959843
       5000.1354      0.26148659
       5000.9342      0.20847629
       5001.7329      0.34258392
       5002.5317      0.16881147
       5003.3305      0.32949773
       5004.1292      0.47819032
       5004.9280      0.46465292
       5005.7268      0.41211245
       5006.5255      0.42779646
       5007.3243      0.53247305
       5008.1231      0.55338810
       5008.9218      0.44415685
       5009.7206      0.45847176
       5010.5194      0.42321120
       5011.3181      0.49357648
       5012.1169      0.48847940
       5012.9157      0.39585157
       5013.7144      0.50460382
       5014.5132      0.39742430
       5015.3120      0.37023866
       5016.1107      0.36283906
       5016.9095      0.22640760
       5017.7083      0.28918191
       5018.5070      0.32901606
       5019.3058      0.22418703
       5020.1045      0.32721662
       5020.9033      0.36802700
       5021.7021      0.39588358
       5022.5008      0.28045739
       5023.2996      0.34430370
       5024.0984      0.24653851
       5024.8971      0.24023563
       5025.6959      0.37614660
       5026.4947      0.28137540
       5027.2934      0.39783611
       5028.0922      0.31353069
       5028.8910      0.33279250
       5029.6897      0.22022267
       5030.4885      0.19575432
       5031.2873      0.16852072
       5032.0860      0.29180972
       5032.8848      0.25829247
       5033.6836      0.24372676
       5034.4823      0.23771579
       5035.2811      0.25570597
       5036.0799      0.32527634
       5036.8786      0.17148326
       5037.6774      0.23327134
       5038.4762      0.19817208
       5039.2749      0.19903275
       5040.0737      0.21116603
       5040.8725      0.23853038
       5041.6712      0.25231509
       5042.4700      0.25617089
       5043.2688      0.25680294
       5044.0675      0.26768733
       5044.8663      0.11789522
       5045.6651      0.27280852
       5046.4638      0.25425464
       5047.2626      0.37845138
       5048.0613      0.21251220
       5048.8601      0.13088403
       5049.6589      0.20028512
       5050.4576      0.23130983
       5051.2564      0.18772741
       5052.0552      0.29872578
       5052.8539      0.31098663
       5053.6527      0.24439118
       5054.4515      0.20818765
       5055.2502      0.27805843
       5056.0490      0.12350080
       5056.8478      0.16907477
       5057.6465      0.27815655
       5058.4453      0.18292416
       5059.2441      0.20230923
       5060.0428      0.25385087
       5060.8416      0.24836876
       5061.6404      0.32874697
       5062.4391      0.20834597
       5063.2379      0.22235971
       5064.0367      0.29302784
       5064.8354      0.30356804
       5065.6342      0.26568970
       5066.4330      0.19763418
       5067.2317      0.24322431
       5068.0305      0.23219319
       5068.8293      0.34589172
       5069.6280      0.26385196
       5070.4268      0.16399737
       5071.2256      0.31303399
       5072.0243      0.21755070
       5072.8231      0.28218370
       5073.6219      0.26933549
       5074.4206      0.27145351
       5075.2194      0.22497755
       5076.0181      0.33601525
       5076.8169      0.25225838
       5077.6157      0.22988216
       5078.4144      0.36701047
       5079.2132      0.42114742
       5080.0120      0.24566313
       5080.8107      0.26103823
       5081.6095      0.18498449
       5082.4083      0.25459778
       5083.2070      0.15086327
       5084.0058      0.28109518
       5084.8046      0.29785560
       5085.6033      0.26438352
       5086.4021      0.20648398
       5087.2009      0.22790462
       5087.9996      0.27403026
       5088.7984      0.30450825
       5089.5972      0.30726464
       5090.3959      0.26457535
       5091.1947      0.24270682
       5091.9935      0.30872805
       5092.7922      0.26757855
       5093.5910      0.24785785
       5094.3898      0.25552052
       5095.1885      0.34809150
       5095.9873      0.33960997
       5096.7861      0.27591910
       5097.5848      0.19961928
       5098.3836      0.20365119
       5099.1824     0.083680498
       5099.9811             NaN
       5100.7799             NaN
       5101.5787             NaN
       5102.3774             NaN
       5103.1762             NaN
       5103.9749             NaN
       5104.7737             NaN
       5105.5725             NaN
       5106.3712             NaN
       5107.1700             NaN
       5107.9688             NaN
       5108.7675             NaN
       5109.5663             NaN
       5110.3651             NaN
       5111.1638             NaN
       5111.9626             NaN
       5112.7614             NaN
       5113.5601             NaN
       5114.3589             NaN
       5115.1577             NaN
       5115.9564             NaN
       5116.7552             NaN
       5117.5540             NaN
       5118.3527             NaN
       5119.1515             NaN
       5119.9503             NaN
       5120.7490             NaN
       5121.5478             NaN
       5122.3466             NaN
       5123.1453             NaN
       5123.9441             NaN
       5124.7429             NaN
       5125.5416             NaN
       5126.3404             NaN
       5127.1392             NaN
       5127.9379             NaN
       5128.7367             NaN
       5129.5355             NaN
       5130.3342             NaN
       5131.1330             NaN
       5131.9317             NaN
       5132.7305             NaN
       5133.5293             NaN
       5134.3280             NaN
       5135.1268             NaN
       5135.9256             NaN
       5136.7243             NaN
       5137.5231             NaN
       5138.3219             NaN
       5139.1206             NaN
       5139.9194             NaN
       5140.7182             NaN
       5141.5169             NaN
       5142.3157             NaN
       5143.1145             NaN
       5143.9132             NaN
       5144.7120             NaN
       5145.5108             NaN
       5146.3095             NaN
       5147.1083             NaN
       5147.9071             NaN
       5148.7058             NaN
       5149.5046             NaN
       5150.3034             NaN
       5151.1021             NaN
       5151.9009             NaN
       5152.6997             NaN
       5153.4984             NaN
       5154.2972             NaN
       5155.0960             NaN
       5155.8947             NaN
       5156.6935             NaN
       5157.4923             NaN
       5158.2910             NaN
       5159.0898             NaN
       5159.8885             NaN
       5160.6873             NaN
       5161.4861             NaN
       5162.2848             NaN
       5163.0836             NaN
       5163.8824             NaN
       5164.6811             NaN
       5165.4799             NaN
       5166.2787             NaN
       5167.0774             NaN
       5167.8762             NaN
       5168.6750             NaN
       5169.4737             NaN
       5170.2725             NaN
       5171.0713      0.25951444
       5171.8700      0.37547980
       5172.6688      0.33229010
       5173.4676      0.32751387
       5174.2663      0.18594012
       5175.0651      0.19833646
       5175.8639      0.22806276
       5176.6626      0.22939180
       5177.4614      0.31193420
       5178.2602      0.36243280
       5179.0589      0.28487205
       5179.8577      0.38855714
       5180.6565     0.059878062
       5181.4552      0.11384875
       5182.2540     0.028754670
       5183.0528      0.15887642
       5183.8515      0.25670762
       5184.6503      0.20192789
       5185.4491      0.11168241
       5186.2478      0.34534283
       5187.0466      0.33373348
       5187.8453      0.35694220
       5188.6441      0.40778804
       5189.4429      0.32564744
       5190.2416      0.33923061
       5191.0404      0.25267004
       5191.8392      0.21947591
       5192.6379      0.30303222
       5193.4367      0.14625579
       5194.2355      0.25121630
       5195.0342      0.29123396
       5195.8330      0.29980172
       5196.6318      0.17031312
       5197.4305      0.22801969
       5198.2293      0.28079413
       5199.0281      0.20999785
       5199.8268      0.23258427
       5200.6256      0.27673140
       5201.4244      0.38882498
       5202.2231      0.32656750
       5203.0219      0.33885791
       5203.8207      0.27025306
       5204.6194      0.19147035
       5205.4182     0.012253363
       5206.2170      0.13588718
       5207.0157      0.19616412
       5207.8145      0.14831822
       5208.6133      0.30228618
       5209.4120      0.12601604
       5210.2108      0.18242979
       5211.0096      0.27738710
       5211.8083      0.22853714
       5212.6071      0.30686038
       5213.4059      0.30648085
       5214.2046      0.23218973
       5215.0034      0.41163196
       5215.8021      0.14447130
       5216.6009      0.30354544
       5217.3997      0.24200167
       5218.1984      0.23626974
       5218.9972      0.27478868
       5219.7960      0.26443494
       5220.5947      0.31045195
       5221.3935      0.24925875
       5222.1923      0.21571206
       5222.9910      0.31046045
       5223.7898      0.24886418
       5224.5886      0.35267983
       5225.3873      0.27937585
       5226.1861      0.30897113
       5226.9849      0.26730646
       5227.7836      0.34900736
       5228.5824      0.31945632
       5229.3812      0.36152300
       5230.1799      0.58217668
       5230.9787      0.64411622
       5231.7775      0.81057012
       5232.5762      0.41080930
       5233.3750      0.39640355
       5234.1738      0.32066950
       5234.9725      0.35236039
       5235.7713      0.21597030
       5236.5701     0.099129549
       5237.3688      0.25595195
       5238.1676      0.14945739
       5238.9664      0.28042171
       5239.7651      0.22926902
       5240.5639      0.39753906
       5241.3627      0.35726965
       5242.1614      0.19852975
       5242.9602      0.22240900
       5243.7589      0.34327611
       5244.5577      0.37066186
       5245.3565      0.33075833
       5246.1552      0.30112667
       5246.9540      0.17370740
       5247.7528      0.29569525
       5248.5515      0.40226325
       5249.3503      0.58403351
       5250.1491      0.24746735
       5250.9478      0.44319368
       5251.7466      0.44187189
       5252.5454      0.39943359
       5253.3441      0.33276250
       5254.1429      0.29609305
       5254.9417      0.22305046
       5255.7404      0.31718640
       5256.5392      0.23180962
       5257.3380      0.34365086
       5258.1367      0.25981854
       5258.9355      0.21087824
       5259.7343      0.26006997
       5260.5330      0.29917691
       5261.3318      0.39372571
       5262.1306      0.19651403
       5262.9293      0.25878793
       5263.7281      0.27805434
       5264.5269      0.37230341
       5265.3256      0.29428408
       5266.1244      0.28930937
       5266.9232      0.15376326
       5267.7219      0.23500946
       5268.5207      0.24815595
       5269.3195      0.29253308
       5270.1182      0.40681079
       5270.9170      0.36574281
       5271.7157      0.29091358
       5272.5145      0.14553911
       5273.3133      0.27998847
       5274.1120      0.17097076
       5274.9108      0.29865388
       5275.7096     0.084165643
       5276.5083      0.32900728
       5277.3071      0.37135214
       5278.1059      0.13653850
       5278.9046      0.23267390
       5279.7034      0.33335840
       5280.5022      0.23930678
       5281.3009      0.26834080
       5282.0997      0.27700619
       5282.8985      0.17719931
       5283.6972      0.25090479
       5284.4960      0.18081313
       5285.2948      0.40520711
       5286.0935      0.26488289
       5286.8923      0.18317333
       5287.6911      0.19509158
       5288.4898      0.20733848
       5289.2886      0.46020936
       5290.0874      0.53926957
       5290.8861      0.38275556
       5291.6849      0.27289854
       5292.4837      0.23908615
       5293.2824      0.28735854
       5294.0812      0.30591018
       5294.8800      0.41528989
       5295.6787      0.34089153
       5296.4775      0.35608412
       5297.2763      0.27921422
       5298.0750      0.32796359
       5298.8738      0.34250964
       5299.6725      0.15248369
       5300.4713      0.33712834
       5301.2701      0.28129429
       5302.0688      0.32378726
       5302.8676      0.44297163
       5303.6664      0.32382387
       5304.4651      0.32263987
       5305.2639      0.37965092
       5306.0627      0.28906541
       5306.8614      0.39804412
       5307.6602      0.36547909
       5308.4590      0.26897986
       5309.2577      0.42186845
       5310.0565      0.37519009
       5310.8553      0.46890677
       5311.6540      0.29010964
       5312.4528      0.35195117
       5313.2516      0.25334778
       5314.0503      0.21765399
       5314.8491      0.43908313
       5315.6479      0.32668885
       5316.4466      0.43872843
       5317.2454      0.18627950
       5318.0442      0.26474242
       5318.8429      0.22667250
       5319.6417      0.27646515
       5320.4405      0.47539493
       5321.2392      0.17990105
       5322.0380      0.24323317
       5322.8368      0.23843028
       5323.6355      0.22671020
       5324.4343      0.37898031
       5325.2331      0.25047064
       5326.0318      0.38958931
       5326.8306      0.43319183
       5327.6293      0.42474392
       5328.4281      0.33047607
       5329.2269      0.18820107
       5330.0256      0.35695962
       5330.8244      0.36890386
       5331.6232      0.25527317
       5332.4219      0.37682468
       5333.2207      0.31161545
       5334.0195      0.32682254
       5334.8182      0.21758239
       5335.6170      0.19456724
       5336.4158      0.29501617
       5337.2145      0.25999348
       5338.0133      0.23628302
       5338.8121      0.36420279
       5339.6108      0.35958623
       5340.4096      0.35910413
       5341.2084      0.38517925
       5342.0071      0.44453485
       5342.8059      0.29191026
       5343.6047      0.29017748
       5344.4034      0.26091445
       5345.2022      0.29289507
       5346.0010      0.29292512
       5346.7997      0.35760737
       5347.5985      0.42420576
       5348.3973      0.28776812
       5349.1960      0.21531057
       5349.9948      0.17736907
       5350.7936      0.25877262
       5351.5923      0.13489713
       5352.3911      0.17259745
       5353.1899      0.31396440
       5353.9886      0.37870464
       5354.7874      0.32914743
       5355.5861      0.31723356
       5356.3849      0.39521970
       5357.1837      0.33065165
       5357.9824      0.14994143
       5358.7812      0.30147369
       5359.5800      0.16553118
       5360.3787      0.34019627
       5361.1775      0.23434785
       5361.9763      0.39053915
       5362.7750      0.30555956
       5363.5738      0.37088797
       5364.3726      0.34716590
       5365.1713      0.26083477
       5365.9701      0.26384158
       5366.7689      0.22089276
       5367.5676      0.18180198
       5368.3664      0.24765525
       5369.1652      0.17048837
       5369.9639      0.26135807
       5370.7627      0.26440945
       5371.5615      0.25453587
       5372.3602      0.29023084
       5373.1590      0.36360307
       5373.9578      0.35139059
       5374.7565      0.32497972
       5375.5553      0.28852452
       5376.3541      0.36280270
       5377.1528      0.35544558
       5377.9516      0.44513687
       5378.7504      0.41084164
       5379.5491      0.29400361
       5380.3479      0.48987258
       5381.1466      0.27803451
       5381.9454      0.46429979
       5382.7442      0.31714064
       5383.5429      0.31867321
       5384.3417      0.32905124
       5385.1405      0.30193888
       5385.9392      0.23911080
       5386.7380      0.25280067
       5387.5368      0.29089754
       5388.3355      0.22155675
       5389.1343      0.24386863
       5389.9331      0.39620599
       5390.7318     0.033685703
       5391.5306      0.24541299
       5392.3294      0.13191825
       5393.1281      0.18652696
       5393.9269      0.35639310
       5394.7257      0.27062093
       5395.5244      0.28567052
       5396.3232      0.22857110
       5397.1220      0.39291914
       5397.9207      0.45071865
       5398.7195      0.22469371
       5399.5183      0.37171541
       5400.3170      0.37893480
       5401.1158      0.36591221
       5401.9146      0.29373436
       5402.7133      0.32832761
       5403.5121      0.41553334
       5404.3109      0.45435481
       5405.1096      0.39856525
       5405.9084      0.27630221
       5406.7072      0.26306611
       5407.5059      0.29676010
       5408.3047      0.36530430
       5409.1034      0.26814679
       5409.9022      0.15923813
       5410.7010      0.25252634
       5411.4997      0.31894722
       5412.2985      0.26154678
       5413.0973      0.11275581
       5413.8960      0.30759969
       5414.6948      0.23706431
       5415.4936      0.16674205
       5416.2923      0.27981976
       5417.0911      0.42111990
       5417.8899      0.31417504
       5418.6886      0.38249225
       5419.4874      0.32184026
       5420.2862      0.29223831
       5421.0849      0.39230699
       5421.8837      0.40078184
       5422.6825      0.22420808
       5423.4812      0.30758183
       5424.2800      0.43297894
       5425.0788      0.30055045
       5425.8775      0.21780258
       5426.6763      0.38837927
       5427.4751      0.36564905
       5428.2738      0.32854728
       5429.0726      0.25737680
       5429.8714      0.32960983
       5430.6701      0.35483411
       5431.4689      0.38965681
       5432.2677      0.38899112
       5433.0664      0.30741831
       5433.8652      0.36760284
       5434.6640      0.27626807
       5435.4627      0.33785220
       5436.2615      0.32571978
       5437.0602      0.30104279
       5437.8590      0.30035791
       5438.6578      0.41018926
       5439.4565      0.39181095
       5440.2553      0.25489028
       5441.0541      0.26387936
       5441.8528      0.36187408
       5442.6516      0.32872480
       5443.4504      0.28811554
       5444.2491      0.29723952
       5445.0479      0.27337910
       5445.8467      0.35248899
       5446.6454      0.35473539
       5447.4442      0.27843572
       5448.2430      0.28827051
       5449.0417      0.28267565
       5449.8405      0.22893848
       5450.6393      0.25909704
       5451.4380      0.30717824
       5452.2368      0.34875490
       5453.0356      0.39248533
       5453.8343      0.37014358
       5454.6331      0.35233306
       5455.4319      0.32887005
       5456.2306      0.30684906
       5457.0294      0.37376780
       5457.8282      0.44533304
       5458.6269      0.30371328
       5459.4257      0.39537794
       5460.2245      0.35149465
       5461.0232      0.44845450
       5461.8220      0.53573111
       5462.6208      0.64908783
       5463.4195      0.82987601
       5464.2183      0.57251287
       5465.0170      0.41554779
       5465.8158      0.30357648
       5466.6146      0.17917823
       5467.4133      0.33778641
       5468.2121      0.30503513
       5469.0109      0.36238349
       5469.8096      0.31376818
       5470.6084      0.28515005
       5471.4072      0.36531613
       5472.2059      0.29945781
       5473.0047      0.33125676
       5473.8035      0.29805976
       5474.6022      0.38529477
       5475.4010      0.40153717
       5476.1998      0.36671195
       5476.9985      0.30439922
       5477.7973      0.23040952
       5478.5961      0.29116322
       5479.3948      0.34638889
       5480.1936      0.32483839
       5480.9924      0.32746629
       5481.7911      0.20549667
       5482.5899      0.38343892
       5483.3887      0.36834921
       5484.1874      0.23142134
       5484.9862      0.22373075
       5485.7850      0.34132317
       5486.5837      0.36486463
       5487.3825      0.32118358
       5488.1813      0.42560524
       5488.9800      0.37869238
       5489.7788      0.29223060
       5490.5776      0.29980742
       5491.3763      0.39519665
       5492.1751      0.48161429
       5492.9738      0.43642501
       5493.7726      0.59116680
       5494.5714      0.44691886
       5495.3701      0.26766677
       5496.1689      0.36635700
       5496.9677      0.41420945
       5497.7664      0.41735635
       5498.5652      0.45283298
       5499.3640      0.45196211
       5500.1627      0.45344970
       5500.9615      0.35162022
       5501.7603      0.45686854
       5502.5590      0.36169713
       5503.3578      0.37668188
       5504.1566      0.31414906
       5504.9553      0.51949872
       5505.7541      0.44544175
       5506.5529      0.44716097
       5507.3516      0.45382386
       5508.1504      0.43144117
       5508.9492      0.31720519
       5509.7479      0.24571758
       5510.5467      0.24843699
       5511.3455      0.30119581
       5512.1442      0.26013492
       5512.9430      0.21069331
       5513.7418      0.19432209
       5514.5405      0.22088770
       5515.3393      0.10909689
       5516.1381      0.37365054
       5516.9368      0.32700223
       5517.7356      0.24908227
       5518.5344      0.29914678
       5519.3331      0.29273850
       5520.1319      0.38462788
       5520.9306      0.18361967
       5521.7294      0.36058844
       5522.5282      0.28676919
       5523.3269      0.42737004
       5524.1257      0.25749312
       5524.9245      0.38104676
       5525.7232      0.32707614
       5526.5220      0.29902936
       5527.3208      0.39609614
       5528.1195      0.24875275
       5528.9183      0.30343917
       5529.7171      0.38698275
       5530.5158      0.31518612
       5531.3146      0.26478192
       5532.1134      0.33915225
       5532.9121      0.24475034
       5533.7109      0.33616597
       5534.5097      0.46022340
       5535.3084      0.34517319
       5536.1072      0.37604185
       5536.9060      0.25882582
       5537.7047      0.22120726
       5538.5035      0.27057774
       5539.3023      0.32782728
       5540.1010      0.35607878
       5540.8998      0.41768362
       5541.6986      0.32074993
       5542.4973      0.41210725
       5543.2961      0.28594961
       5544.0949      0.40243910
       5544.8936      0.33942809
       5545.6924      0.27730149
       5546.4912      0.36667682
       5547.2899      0.50877443
       5548.0887      0.36144742
       5548.8874      0.31498255
       5549.6862      0.22720773
       5550.4850      0.33337310
       5551.2837      0.29872158
       5552.0825      0.30377908
       5552.8813      0.37662724
       5553.6800      0.37904919
       5554.4788      0.44233767
       5555.2776      0.36209451
       5556.0763      0.32095856
       5556.8751      0.35032398
       5557.6739      0.42877638
       5558.4726      0.52700236
       5559.2714      0.32642016
       5560.0702      0.43296894
       5560.8689      0.31755306
       5561.6677      0.32685242
       5562.4665      0.25356325
       5563.2652      0.48179057
       5564.0640      0.39108526
       5564.8628      0.16015462
       5565.6615      0.28043382
       5566.4603      0.30370621
       5567.2591      0.30245587
       5568.0578      0.26788902
       5568.8566      0.33712963
       5569.6554      0.32809079
       5570.4541      0.38414390
       5571.2529      0.41929625
       5572.0517      0.37736675
       5572.8504      0.36999485
       5573.6492     0.091494822
       5574.4480      0.27886925
       5575.2467      0.23495009
       5576.0455      0.24337494
       5576.8442      0.39710436
       5577.6430      0.31007907
       5578.4418      0.34685871
       5579.2405      0.43499751
       5580.0393      0.34854886
       5580.8381      0.20460531
       5581.6368      0.23515018
       5582.4356      0.21749079
       5583.2344      0.34532912
       5584.0331      0.33332739
       5584.8319      0.33759410
       5585.6307      0.32541609
       5586.4294      0.37643994
       5587.2282      0.38824045
       5588.0270      0.38952968
       5588.8257      0.40160351
       5589.6245      0.34487430
       5590.4233      0.32120284
       5591.2220      0.35482854
       5592.0208      0.36245002
       5592.8196      0.42004398
       5593.6183      0.43415699
       5594.4171      0.26403059
       5595.2159      0.32972915
       5596.0146      0.33582344
       5596.8134      0.29487264
       5597.6122      0.33215410
       5598.4109      0.34687730
       5599.2097      0.39445646
       5600.0085      0.42206420
       5600.8072      0.41406355
       5601.6060      0.44019550
       5602.4048      0.15992300
       5603.2035      0.10626514
       5604.0023      0.32272580
       5604.8010      0.26159134
       5605.5998      0.26146376
       5606.3986      0.29289084
       5607.1973      0.17928415
       5607.9961      0.10414171
       5608.7949      0.39461523
       5609.5936      0.28920523
       5610.3924      0.13113552
       5611.1912      0.29540910
       5611.9899      0.35677656
       5612.7887      0.30394256
       5613.5875      0.32665033
       5614.3862      0.34192551
       5615.1850      0.30676010
       5615.9838      0.35974615
       5616.7825      0.24365068
       5617.5813      0.34010796
       5618.3801      0.34142784
       5619.1788      0.36488173
       5619.9776      0.33816807
       5620.7764      0.39795634
       5621.5751      0.43777846
       5622.3739      0.27665131
       5623.1727      0.33091262
       5623.9714      0.40054096
       5624.7702      0.34035095
       5625.5690      0.30001616
       5626.3677      0.36313236
       5627.1665      0.39435263
       5627.9653      0.34328509
       5628.7640      0.43859199
       5629.5628      0.29483842
       5630.3616      0.30725385
       5631.1603      0.30900540
       5631.9591      0.27886066
       5632.7578      0.29708143
       5633.5566      0.18262222
       5634.3554      0.44551504
       5635.1541      0.40519908
       5635.9529      0.40534389
       5636.7517      0.33207411
       5637.5504      0.38009390
       5638.3492      0.44582478
       5639.1480      0.43263011
       5639.9467      0.27176231
       5640.7455      0.35060852
       5641.5443      0.61093577
       5642.3430      0.41390582
       5643.1418      0.28628574
       5643.9406      0.40752848
       5644.7393      0.40659496
       5645.5381      0.35130967
       5646.3369      0.29799338
       5647.1356      0.35167279
       5647.9344      0.21983642
       5648.7332      0.41038123
       5649.5319      0.32228385
       5650.3307      0.32557567
       5651.1295      0.17956597
       5651.9282      0.29153234
       5652.7270      0.34893442
       5653.5258      0.29688496
       5654.3245      0.39495668
       5655.1233      0.44203184
       5655.9221      0.41082291
       5656.7208      0.31737186
       5657.5196      0.54146363
       5658.3184      0.34116630
       5659.1171      0.47033874
       5659.9159      0.30631303
       5660.7146      0.26301708
       5661.5134      0.39837356
       5662.3122      0.15717666
       5663.1109      0.25942836
       5663.9097      0.21347884
       5664.7085      0.29059748
       5665.5072      0.29019305
       5666.3060      0.37638857
       5667.1048      0.29876739
       5667.9035      0.33711559
       5668.7023      0.34221692
       5669.5011      0.31373784
       5670.2998      0.37685985
       5671.0986      0.43993776
       5671.8974      0.37896585
       5672.6961      0.39343082
       5673.4949      0.24271464
       5674.2937      0.46642584
       5675.0924      0.40839608
       5675.8912      0.27270123
       5676.6900      0.44976493
       5677.4887      0.26032571
       5678.2875      0.26955416
       5679.0863      0.29478375
       5679.8850      0.32710249
       5680.6838      0.35000539
       5681.4826      0.39966814
       5682.2813      0.34063811
       5683.0801      0.20146159
       5683.8789      0.35352510
       5684.6776      0.36428885
       5685.4764      0.24976910
       5686.2752      0.23556249
       5687.0739      0.20539214
       5687.8727      0.41612063
       5688.6714      0.44545772
       5689.4702      0.37353487
       5690.2690      0.36199226
       5691.0677      0.33160195
       5691.8665      0.40845015
       5692.6653      0.30512521
       5693.4640      0.38704624
       5694.2628      0.45942142
       5695.0616      0.41482963
       5695.8603      0.35005966
       5696.6591      0.35210908
       5697.4579      0.36360547
       5698.2566      0.42431491
       5699.0554      0.40264164
       5699.8542      0.34292614
       5700.6529      0.36058167
       5701.4517      0.37563263
       5702.2505      0.39070027
       5703.0492      0.42221068
       5703.8480      0.36632728
       5704.6468      0.26684518
       5705.4455      0.33755724
       5706.2443      0.40472350
       5707.0431      0.41390510
       5707.8418      0.27313995
       5708.6406      0.46186090
       5709.4394      0.41757696
       5710.2381      0.43287913
       5711.0369      0.32696144
       5711.8357      0.39103536
       5712.6344      0.41606591
       5713.4332      0.26225311
       5714.2320      0.16987302
       5715.0307      0.20481810
       5715.8295      0.31073002
       5716.6282      0.42871077
       5717.4270      0.49492927
       5718.2258      0.29579365
       5719.0245      0.34983807
       5719.8233      0.35802311
       5720.6221      0.36302260
       5721.4208      0.32680346
       5722.2196      0.35840829
       5723.0184      0.42706721
       5723.8171      0.35713932
       5724.6159      0.33820203
       5725.4147      0.34913693
       5726.2134      0.41439634
       5727.0122      0.35491369
       5727.8110      0.42973583
       5728.6097      0.43424759
       5729.4085      0.37631752
       5730.2073      0.42973864
       5731.0060      0.47536917
       5731.8048      0.35448568
       5732.6036      0.38423025
       5733.4023      0.30470168
       5734.2011      0.33532454
       5734.9999      0.36015691
       5735.7986      0.28296738
       5736.5974      0.35406984
       5737.3962      0.38943337
       5738.1949      0.45427081
       5738.9937      0.37591756
       5739.7925      0.27237994
       5740.5912      0.38660268
       5741.3900      0.38238818
       5742.1888      0.46758726
       5742.9875      0.57765546
       5743.7863      0.57278955
       5744.5850      0.48235721
       5745.3838      0.47799628
       5746.1826      0.47243839
       5746.9813      0.32226703
       5747.7801      0.38037008
       5748.5789      0.35118592
       5749.3776      0.44882264
       5750.1764      0.31792302
       5750.9752      0.25730517
       5751.7739      0.37730198
       5752.5727      0.40865248
       5753.3715      0.51697273
       5754.1702      0.35919891
       5754.9690      0.37716211
       5755.7678      0.32170212
       5756.5665      0.39619416
       5757.3653      0.40391499
       5758.1641      0.49097548
       5758.9628      0.36789236
       5759.7616      0.32787817
       5760.5604      0.34538261
       5761.3591      0.40540250
       5762.1579      0.36858975
       5762.9567      0.35208251
       5763.7554      0.38235553
       5764.5542      0.39271548
       5765.3530      0.47801041
       5766.1517      0.45579085
       5766.9505      0.39077243
       5767.7493      0.35875409
       5768.5480      0.37225726
       5769.3468      0.30167819
       5770.1456      0.44530333
       5770.9443      0.23478046
       5771.7431      0.33369668
       5772.5418      0.26809959
       5773.3406      0.26120356
       5774.1394      0.29409202
       5774.9381      0.29820707
       5775.7369      0.33990161
       5776.5357      0.45596715
       5777.3344      0.43149074
       5778.1332      0.39554871
       5778.9320      0.48104884
       5779.7307      0.48945617
       5780.5295      0.49353434
       5781.3283      0.53740771
       5782.1270      0.23038127
       5782.9258      0.38151312
       5783.7246      0.40944547
       5784.5233      0.40026435
       5785.3221      0.44492217
       5786.1209      0.35548519
       5786.9196      0.33516561
       5787.7184      0.21209277
       5788.5172      0.30152276
       5789.3159      0.28968136
       5790.1147      0.32204186
       5790.9135      0.55948084
       5791.7122      0.35330887
       5792.5110      0.58800150
       5793.3098      0.40480576
       5794.1085      0.74597684
       5794.9073      0.56496305
       5795.7061      0.36999478
       5796.5048      0.38264178
       5797.3036      0.34890792
       5798.1024      0.55405097
       5798.9011      0.55855451
       5799.6999      0.26835199
       5800.4986      0.40600655
       5801.2974      0.20517792
       5802.0962      0.37267482
       5802.8949      0.42847726
       5803.6937      0.54731599
       5804.4925      0.34320904
       5805.2912      0.29932482
       5806.0900      0.43722838
       5806.8888      0.42687397
       5807.6875      0.36325174
       5808.4863      0.44887398
       5809.2851      0.24534898
       5810.0838      0.43348725
       5810.8826      0.48577687
       5811.6814      0.34282207
       5812.4801      0.38547765
       5813.2789      0.81891779
       5814.0777       1.0586247
       5814.8764       1.1008713
       5815.6752      0.90142313
       5816.4740      0.81207077
       5817.2727      0.30609352
       5818.0715      0.40653927
       5818.8703      0.38627265
       5819.6690      0.56889053
       5820.4678     0.019391049
       5821.2666      0.35768436
       5822.0653      0.49130676
       5822.8641      0.41964582
       5823.6629      0.46390736
       5824.4616      0.53377542
       5825.2604      0.60072043
       5826.0592      0.49752680
       5826.8579      0.40325368
       5827.6567      0.47637465
       5828.4554      0.44333203
       5829.2542      0.20624600
       5830.0530      0.35375733
       5830.8517      0.42799386
       5831.6505      0.40125655
       5832.4493      0.39096934
       5833.2480      0.51654950
       5834.0468      0.38750314
       5834.8456      0.34814727
       5835.6443      0.45450319
       5836.4431      0.55633787
       5837.2419      0.52927079
       5838.0406      0.44595650
       5838.8394      0.31886447
       5839.6382      0.35622524
       5840.4369      0.45418489
       5841.2357      0.46130144
       5842.0345      0.46888065
       5842.8332      0.42414996
       5843.6320      0.34739527
       5844.4308      0.44742460
       5845.2295      0.43396330
       5846.0283      0.35583364
       5846.8271      0.48398259
       5847.6258      0.41265815
       5848.4246      0.51016917
       5849.2234      0.44827495
       5850.0221      0.39249043
       5850.8209      0.39617021
       5851.6197      0.38320094
       5852.4184      0.44248854
       5853.2172      0.35764190
       5854.0159      0.37446060
       5854.8147      0.40578218
       5855.6135      0.40097515
       5856.4122      0.41171297
       5857.2110      0.31826778
       5858.0098      0.24380965
       5858.8085      0.47657037
       5859.6073      0.32539549
       5860.4061      0.40964174
       5861.2048      0.31927582
       5862.0036      0.33711589
       5862.8024      0.36614409
       5863.6011      0.43739626
       5864.3999      0.44053348
       5865.1987      0.41033687
       5865.9974      0.41300683
       5866.7962      0.47607929
       5867.5950      0.35288112
       5868.3937      0.46765230
       5869.1925      0.49108996
       5869.9913      0.39218201
       5870.7900      0.29759690
       5871.5888      0.45594723
       5872.3876      0.34701193
       5873.1863      0.37661266
       5873.9851      0.41300300
       5874.7839      0.46193097
       5875.5826      0.34988329
       5876.3814      0.37394227
       5877.1802      0.47003826
       5877.9789      0.42624467
       5878.7777      0.54749526
       5879.5765      0.48589678
       5880.3752      0.59775172
       5881.1740      0.61885849
       5881.9727      0.53636327
       5882.7715      0.39770919
       5883.5703      0.11061834
       5884.3690      0.27488819
       5885.1678      0.28252897
       5885.9666      0.44977937
       5886.7653      0.15146642
       5887.5641      0.43450066
       5888.3629      0.35861751
       5889.1616      0.34920779
       5889.9604      0.25468569
       5890.7592      0.33616291
       5891.5579      0.34632038
       5892.3567      0.36147264
       5893.1555      0.17418502
       5893.9542      0.41700486
       5894.7530      0.33630816
       5895.5518      0.29933284
       5896.3505     0.090692481
       5897.1493      0.21608040
       5897.9481      0.29141674
       5898.7468      0.39138337
       5899.5456      0.17832747
       5900.3444      0.10030432
       5901.1431      0.13923104
       5901.9419      0.21405927
       5902.7407      0.41955985
       5903.5394      0.28736710
       5904.3382      0.19117585
       5905.1370      0.29018261
       5905.9357      0.23969455
       5906.7345      0.41291812
       5907.5333      0.38849168
       5908.3320      0.38411044
       5909.1308      0.37478180
       5909.9295      0.41703285
       5910.7283      0.41653245
       5911.5271      0.49329700
       5912.3258      0.44812073
       5913.1246      0.49963118
       5913.9234      0.39815284
       5914.7221      0.39893822
       5915.5209      0.34546465
       5916.3197      0.33221396
       5917.1184      0.55449485
       5917.9172      0.50693775
       5918.7160      0.45305779
       5919.5147      0.46002246
       5920.3135      0.50289768
       5921.1123      0.51697225
       5921.9110      0.53580559
       5922.7098      0.46267433
       5923.5086      0.83774533
       5924.3073      0.37119269
       5925.1061      0.32982675
       5925.9049      0.44849064
       5926.7036      0.51221702
       5927.5024      0.30558447
       5928.3012      0.23026736
       5929.0999      0.47246582
       5929.8987      0.59637184
       5930.6975      0.35261702
       5931.4962      0.25693312
       5932.2950      0.40398913
       5933.0938      0.20234853
       5933.8925      0.21837785
       5934.6913      0.36617598
       5935.4901      0.48176647
       5936.2888      0.43173253
       5937.0876      0.46957630
       5937.8863      0.40255265
       5938.6851      0.35397720
       5939.4839      0.40863737
       5940.2826      0.31169866
       5941.0814      0.35919918
       5941.8802      0.34695742
       5942.6789      0.25657188
       5943.4777      0.53134104
       5944.2765      0.45278328
       5945.0752      0.40250347
       5945.8740      0.37823475
       5946.6728      0.46557704
       5947.4715      0.43052197
       5948.2703      0.42059431
       5949.0691      0.48577661
       5949.8678      0.54589818
       5950.6666      0.38647444
       5951.4654      0.51406397
       5952.2641      0.41149043
       5953.0629      0.33576400
       5953.8617      0.41541035
       5954.6604      0.26004648
       5955.4592      0.26587779
       5956.2580      0.26666942
       5957.0567      0.32285598
       5957.8555      0.36540463
       5958.6543      0.40352193
       5959.4530      0.48248883
       5960.2518      0.56314588
       5961.0506      0.61206981
       5961.8493      0.50590453
       5962.6481      0.55521869
       5963.4469      0.80102248
       5964.2456      0.44889648
       5965.0444      0.48116408
       5965.8431      0.38804352
       5966.6419      0.14953859
       5967.4407     0.051081236
       5968.2394      0.23748541
       5969.0382      0.15003827
       5969.8370      0.42999832
       5970.6357      0.56796739
       5971.4345      0.51808625
       5972.2333      0.45662879
       5973.0320      0.39688000
       5973.8308      0.67763537
       5974.6296      0.42104590
       5975.4283      0.20425296
       5976.2271      0.50970197
       5977.0259      0.25375945
       5977.8246      0.33072893
       5978.6234      0.66097939
       5979.4222      0.86727931
       5980.2209       1.3828518
       5981.0197       1.4256479
       5981.8185      0.92932807
       5982.6172       1.3028069
       5983.4160       1.0866203
       5984.2148       1.1212724
       5985.0135      0.82481119
       5985.8123      0.87645549
       5986.6111      0.22634479
       5987.4098       1.6434837
       5988.2086      0.99210972
       5989.0074       1.1875337
       5989.8061      0.50874529
       5990.6049      0.21137908
       5991.4037      0.28819637
       5992.2024      0.23451286
       5993.0012      0.37113569
       5993.7999      0.33781881
       5994.5987      0.32358009
       5995.3975      0.44389316
       5996.1962      0.42512246
       5996.9950      0.49885299
       5997.7938      0.44967037
       5998.5925      0.45560393
       5999.3913      0.56613013
       6000.1901      0.54411140
       6000.9888      0.46334995
       6001.7876      0.41448082
       6002.5864      0.21175810
       6003.3851      0.14880769
       6004.1839      0.31453468
       6004.9827      0.28330448
       6005.7814      0.44745393
       6006.5802      0.31628215
       6007.3790      0.35710804
       6008.1777      0.35524671
       6008.9765      0.39316744
       6009.7753      0.58751401
       6010.5740      0.60440282
       6011.3728      0.39950734
       6012.1716      0.21767571
       6012.9703      0.26336676
       6013.7691      0.29995667
       6014.5679      0.40108019
       6015.3666      0.16116467
       6016.1654      0.46694910
       6016.9642      0.34675419
       6017.7629      0.26050353
       6018.5617      0.36833075
       6019.3605      0.35681019
       6020.1592      0.40228739
       6020.9580      0.41292894
       6021.7567      0.42099329
       6022.5555      0.41114603
       6023.3543      0.43909412
       6024.1530      0.36517548
       6024.9518      0.42588696
       6025.7506      0.38069235
       6026.5493      0.38720906
       6027.3481      0.44425249
       6028.1469      0.38265804
       6028.9456      0.46354207
       6029.7444      0.46225857
       6030.5432      0.44058496
       6031.3419      0.35011398
       6032.1407      0.21226893
       6032.9395      0.33671152
       6033.7382      0.40567972
       6034.5370      0.41892409
       6035.3358      0.36887007
       6036.1345      0.43774928
       6036.9333      0.50715677
       6037.7321      0.52103981
       6038.5308      0.53344306
       6039.3296      0.62124522
       6040.1284      0.55503671
       6040.9271      0.73327461
       6041.7259      0.32296114
       6042.5247      0.21815391
       6043.3234      0.49496195
       6044.1222      0.43238639
       6044.9210      0.73887742
       6045.7197      0.62241177
       6046.5185      0.64563667
       6047.3173      0.60543070
       6048.1160      0.48322547
       6048.9148      0.52160345
       6049.7135      0.56400418
       6050.5123      0.43662632
       6051.3111      0.40160679
       6052.1098      0.48512481
       6052.9086      0.57966707
       6053.7074      0.48042756
       6054.5061      0.46250868
       6055.3049      0.39597660
       6056.1037      0.38594004
       6056.9024      0.43106641
       6057.7012      0.41441483
       6058.5000      0.39617545
       6059.2987      0.45108331
       6060.0975      0.48601219
       6060.8963      0.44958945
       6061.6950      0.44926850
       6062.4938      0.44628438
       6063.2926      0.48755158
       6064.0913      0.53795291
       6064.8901      0.28868513
       6065.6889      0.54640890
       6066.4876      0.51016574
       6067.2864      0.51803930
       6068.0852      0.47177936
       6068.8839      0.39674542
       6069.6827      0.47008437
       6070.4815      0.49777404
       6071.2802      0.47575460
       6072.0790      0.51793487
       6072.8778      0.45581498
       6073.6765      0.45497877
       6074.4753      0.32974499
       6075.2741      0.41553880
       6076.0728      0.32487742
       6076.8716      0.46568040
       6077.6703      0.44066140
       6078.4691      0.34247728
       6079.2679      0.50766241
       6080.0666      0.56262687
       6080.8654      0.44611507
       6081.6642      0.49852740
       6082.4629      0.52133063
       6083.2617      0.49344274
       6084.0605      0.45164721
       6084.8592      0.44090836
       6085.6580      0.48093323
       6086.4568      0.44446317
       6087.2555      0.40871369
       6088.0543      0.54153287
       6088.8531      0.49967601
       6089.6518      0.26889776
       6090.4506      0.36076664
       6091.2494      0.53377291
       6092.0481      0.44691843
       6092.8469      0.44794906
       6093.6457      0.43682552
       6094.4444      0.57318865
       6095.2432      0.52180824
       6096.0420      0.48903718
       6096.8407      0.50103967
       6097.6395      0.47664570
       6098.4383      0.43442186
       6099.2370      0.40027183
       6100.0358      0.44142773
       6100.8346      0.33473219
       6101.6333      0.48845736
       6102.4321      0.58577202
       6103.2309      0.37191409
       6104.0296      0.35203143
       6104.8284      0.37263584
       6105.6271      0.56245723
       6106.4259      0.44781510
       6107.2247      0.50963724
       6108.0234      0.51624441
       6108.8222      0.35807730
       6109.6210      0.48593278
       6110.4197      0.38562757
       6111.2185      0.49060137
       6112.0173      0.52125428
       6112.8160      0.48958787
       6113.6148      0.47170864
       6114.4136      0.39656710
       6115.2123      0.37980959
       6116.0111      0.47724889
       6116.8099      0.58725028
       6117.6086      0.53626176
       6118.4074      0.42778403
       6119.2062      0.37406074
       6120.0049      0.44519797
       6120.8037      0.43740701
       6121.6025      0.42187296
       6122.4012      0.45000804
       6123.2000      0.42804142
       6123.9988      0.47870197
       6124.7975      0.34442461
       6125.5963      0.46408529
       6126.3951      0.38261180
       6127.1938      0.40023047
       6127.9926      0.43578011
       6128.7914      0.40458191
       6129.5901      0.46101848
       6130.3889      0.48107873
       6131.1877      0.37677644
       6131.9864      0.48257335
       6132.7852      0.46656691
       6133.5839      0.50508090
       6134.3827      0.51018938
       6135.1815      0.40651066
       6135.9802      0.50080860
       6136.7790      0.63628416
       6137.5778      0.54034694
       6138.3765      0.36467001
       6139.1753      0.51723189
       6139.9741      0.43090418
       6140.7728      0.50985820
       6141.5716      0.46774423
       6142.3704      0.37843543
       6143.1691      0.27860842
       6143.9679      0.50254101
       6144.7667      0.47344389
       6145.5654      0.57998588
       6146.3642      0.31611184
       6147.1630      0.32129017
       6147.9617      0.38211660
       6148.7605      0.43957526
       6149.5593      0.43646205
       6150.3580      0.51869365
       6151.1568      0.36154156
       6151.9556      0.34513192
       6152.7543      0.37227342
       6153.5531      0.54559317
       6154.3519      0.49232742
       6155.1506      0.51805801
       6155.9494      0.43312494
       6156.7482      0.35804113
       6157.5469      0.44691430
       6158.3457      0.50348674
       6159.1445      0.48562555
       6159.9432      0.40630777
       6160.7420      0.39693483
       6161.5407      0.50522514
       6162.3395      0.41581734
       6163.1383      0.48566124
       6163.9370      0.50638985
       6164.7358      0.45191829
       6165.5346      0.48478644
       6166.3333      0.54922449
       6167.1321      0.51750513
       6167.9309      0.46960609
       6168.7296      0.39458340
       6169.5284      0.44727233
       6170.3272      0.43753263
       6171.1259      0.44417963
       6171.9247      0.46440951
       6172.7235      0.50723003
       6173.5222      0.56674383
       6174.3210      0.40537272
       6175.1198      0.57714302
       6175.9185      0.58811143
       6176.7173      0.55153942
       6177.5161      0.45110626
       6178.3148      0.45383964
       6179.1136      0.67979737
       6179.9124      0.52542480
       6180.7111      0.41771136
       6181.5099      0.47868135
       6182.3087      0.53861820
       6183.1074      0.50685022
       6183.9062      0.44233105
       6184.7050      0.41208812
       6185.5037      0.50897741
       6186.3025      0.43935632
       6187.1013      0.31710759
       6187.9000      0.47191898
       6188.6988      0.53471870
       6189.4975      0.45048348
       6190.2963      0.46558809
       6191.0951      0.32510268
       6191.8938      0.44227406
       6192.6926      0.38773109
       6193.4914      0.44152747
       6194.2901      0.42469729
       6195.0889      0.32243232
       6195.8877      0.42785312
       6196.6864      0.56707209
       6197.4852      0.44721375
       6198.2840      0.57331760
       6199.0827      0.49482422
       6199.8815      0.53475609
       6200.6803      0.58659533
       6201.4790      0.41898560
       6202.2778      0.51247912
       6203.0766      0.47100522
       6203.8753      0.53041566
       6204.6741      0.42080733
       6205.4729      0.51307635
       6206.2716      0.56747643
       6207.0704      0.48301761
       6207.8692      0.53058731
       6208.6679      0.52527421
       6209.4667      0.51909970
       6210.2655      0.49987862
       6211.0642      0.47164239
       6211.8630      0.40358241
       6212.6618      0.49996070
       6213.4605      0.57328708
       6214.2593      0.38262258
       6215.0581      0.62872615
       6215.8568      0.49713147
       6216.6556      0.47635546
       6217.4543      0.52590976
       6218.2531      0.48573421
       6219.0519      0.56029781
       6219.8506      0.47519204
       6220.6494      0.43835321
       6221.4482      0.52673717
       6222.2469      0.53812727
       6223.0457      0.43740353
       6223.8445      0.42342843
       6224.6432      0.41334621
       6225.4420      0.44420705
       6226.2408      0.43610280
       6227.0395      0.38574986
       6227.8383      0.42283430
       6228.6371      0.56733637
       6229.4358      0.54840718
       6230.2346      0.60652718
       6231.0334      0.48699725
       6231.8321      0.51563646
       6232.6309      0.45374675
       6233.4297      0.57895797
       6234.2284      0.51729724
       6235.0272      0.60693970
       6235.8260      0.54432677
       6236.6247      0.43384483
       6237.4235      0.28249074
       6238.2223      0.33328020
       6239.0210      0.41745864
       6239.8198      0.36305298
       6240.6186      0.38646359
       6241.4173      0.44846394
       6242.2161      0.53276497
       6243.0149      0.57258819
       6243.8136      0.65422002
       6244.6124      0.54673091
       6245.4111      0.12928093
       6246.2099      0.61214514
       6247.0087      0.16137486
       6247.8074      0.64530006
       6248.6062     0.067353473
       6249.4050      0.25555498
       6250.2037      0.59326534
       6251.0025      0.21342898
       6251.8013      0.19576390
       6252.6000      0.34148669
       6253.3988      0.38825612
       6254.1976      0.47208690
       6254.9963      0.50581953
       6255.7951      0.84500086
       6256.5939      0.30693672
       6257.3926      0.53611188
       6258.1914      0.73815102
       6258.9902      0.15546096
       6259.7889      0.38173765
       6260.5877      0.44523565
       6261.3865      0.53332060
       6262.1852      0.31759407
       6262.9840      0.34749849
       6263.7828      0.40091951
       6264.5815      0.45283047
       6265.3803      0.14716268
       6266.1791      0.36019908
       6266.9778      0.24100679
       6267.7766      0.25187471
       6268.5754      0.19691957
       6269.3741      0.40040227
       6270.1729      0.42353950
       6270.9717      0.56147635
       6271.7704      0.55568871
       6272.5692      0.60075679
       6273.3679      0.56586009
       6274.1667      0.41992220
       6274.9655      0.44797729
       6275.7642      0.31896549
       6276.5630      0.34999491
       6277.3618      0.33836253
       6278.1605      0.28302237
       6278.9593      0.40418682
       6279.7581      0.42235992
       6280.5568      0.47586959
       6281.3556      0.38629784
       6282.1544      0.44793649
       6282.9531      0.38714683
       6283.7519      0.33278803
       6284.5507      0.43466145
       6285.3494      0.33159965
       6286.1482      0.49065947
       6286.9470      0.40527302
       6287.7457      0.23341236
       6288.5445      0.55825205
       6289.3433      0.14593057
       6290.1420      0.63760289
       6290.9408     0.065377440
       6291.7396      0.70248104
       6292.5383      0.49963936
       6293.3371    -0.011517244
       6294.1359     0.074052385
       6294.9346      0.17118867
       6295.7334      0.35285287
       6296.5322      0.36736611
       6297.3309      0.49246982
       6298.1297      0.46564245
       6298.9285      0.46291594
       6299.7272      0.54336669
       6300.5260      0.64259521
       6301.3247      0.44958407
       6302.1235      0.49992119
       6302.9223      0.48872708
       6303.7210      0.63877825
       6304.5198      0.62034628
       6305.3186      0.60233753
       6306.1173      0.51072960
       6306.9161      0.56310679
       6307.7149      0.41839957
       6308.5136      0.47267171
       6309.3124      0.37763795
       6310.1112      0.39072578
       6310.9099      0.47852663
       6311.7087      0.52398519
       6312.5075      0.58912131
       6313.3062      0.50218806
       6314.1050      0.52392173
       6314.9038      0.41854599
       6315.7025      0.40724849
       6316.5013      0.34564744
       6317.3001      0.56456724
       6318.0988      0.43910724
       6318.8976      0.60990495
       6319.6964      0.32686041
       6320.4951      0.43176497
       6321.2939      0.22567581
       6322.0927      0.47088425
       6322.8914      0.29617548
       6323.6902      0.19019822
       6324.4890      0.47490895
       6325.2877      0.39922261
       6326.0865      0.30689672
       6326.8852      0.39905364
       6327.6840      0.47728379
       6328.4828      0.49991482
       6329.2815      0.53708237
       6330.0803      0.60302154
       6330.8791      0.65777748
       6331.6778      0.81527044
       6332.4766      0.15934113
       6333.2754      0.14553959
       6334.0741      0.51176162
       6334.8729      0.14196782
       6335.6717     0.015245380
       6336.4704      0.12231499
       6337.2692      0.31566699
       6338.0680      0.41116283
       6338.8667      0.40828478
       6339.6655      0.50758069
       6340.4643      0.45020109
       6341.2630      0.41160465
       6342.0618      0.39353554
       6342.8606      0.50164365
       6343.6593      0.89031120
       6344.4581      0.58693802
       6345.2569      0.25072571
       6346.0556      0.22198514
       6346.8544      0.33497080
       6347.6532      0.37593170
       6348.4519      0.53515380
       6349.2507      0.32831255
       6350.0495      0.47640226
       6350.8482      0.50360010
       6351.6470      0.50779769
       6352.4458      0.53850036
       6353.2445      0.39705147
       6354.0433      0.61332404
       6354.8420      0.34725602
       6355.6408     -0.18194042
       6356.4396      0.45649261
       6357.2383      0.49413182
       6358.0371      0.59806587
       6358.8359      0.17216071
       6359.6346     0.036082110
       6360.4334      0.10157651
       6361.2322      0.29228963
       6362.0309      0.36554336
       6362.8297      0.53302874
       6363.6285      0.55128932
       6364.4272      0.45098937
       6365.2260      0.51694897
       6366.0248      0.52225906
       6366.8235      0.53957505
       6367.6223      0.43784199
       6368.4211      0.54488722
       6369.2198      0.34746536
       6370.0186      0.42773602
       6370.8174      0.37543345
       6371.6161      0.43868225
       6372.4149      0.58642287
       6373.2137      0.52902291
       6374.0124      0.54095976
       6374.8112      0.53829592
       6375.6100      0.31077559
       6376.4087      0.30488912
       6377.2075      0.51295899
       6378.0063      0.32411891
       6378.8050      0.31730789
       6379.6038      0.55137467
       6380.4026      0.53180211
       6381.2013      0.51672664
       6382.0001      0.62263859
       6382.7988      0.33958924
       6383.5976      0.28661533
       6384.3964      0.39816334
       6385.1951      0.97019273
       6385.9939      0.61124623
       6386.7927      0.49182056
       6387.5914      0.21599512
       6388.3902      0.17756285
       6389.1890      0.44407450
       6389.9877      0.29762255
       6390.7865      0.42973388
       6391.5853      0.37351776
       6392.3840      0.54611598
       6393.1828      0.48682587
       6393.9816      0.43206890
       6394.7803      0.48337481
       6395.5791      0.41153436
       6396.3779      0.25689198
       6397.1766      0.58143739
       6397.9754      0.31163372
       6398.7742      0.42264372
       6399.5729      0.54056581
       6400.3717      0.43195369
       6401.1705      0.33866059
       6401.9692      0.45035420
       6402.7680      0.31725658
       6403.5668      0.41915805
       6404.3655      0.56945638
       6405.1643      0.57050433
       6405.9631      0.62703623
       6406.7618      0.46955295
       6407.5606      0.50033310
       6408.3594      0.25994521
       6409.1581      0.52996789
       6409.9569      0.34280002
       6410.7556      0.51228224
       6411.5544      0.42064261
       6412.3532      0.42532076
       6413.1519      0.57003001
       6413.9507      0.42259125
       6414.7495      0.64135458
       6415.5482      0.35563542
       6416.3470      0.58098864
       6417.1458      0.53738118
       6417.9445      0.42138708
       6418.7433      0.22585299
       6419.5421      0.36731436
       6420.3408      0.36917565
       6421.1396      0.45566602
       6421.9384      0.38670779
       6422.7371      0.59454927
       6423.5359      0.54775640
       6424.3347      0.58426457
       6425.1334      0.45656051
       6425.9322      0.52671792
       6426.7310      0.36932099
       6427.5297      0.41681377
       6428.3285      0.31580263
       6429.1273      0.54461774
       6429.9260      0.46770613
       6430.7248      0.40754405
       6431.5236      0.35791996
       6432.3223      0.48528342
       6433.1211      0.47255209
       6433.9199      0.46952017
       6434.7186      0.50913748
       6435.5174      0.57492387
       6436.3162      0.63416674
       6437.1149      0.55831239
       6437.9137      0.52766679
       6438.7124      0.71854381
       6439.5112      0.63136987
       6440.3100      0.53273996
       6441.1087      0.47473441
       6441.9075      0.57491808
       6442.7063      0.59291578
       6443.5050      0.32258533
       6444.3038      0.37498158
       6445.1026      0.57011267
       6445.9013      0.22476441
       6446.7001      0.30860340
       6447.4989      0.43418756
       6448.2976      0.61823388
       6449.0964      0.31546606
       6449.8952      0.47167145
       6450.6939      0.65993474
       6451.4927      0.49253895
       6452.2915      0.26099337
       6453.0902      0.33678235
       6453.8890      0.39947004
       6454.6878      0.49615077
       6455.4865      0.29926415
       6456.2853      0.23547457
       6457.0841      0.39076744
       6457.8828      0.50061563
       6458.6816      0.53651817
       6459.4804      0.68236809
       6460.2791      0.49406917
       6461.0779      0.38885881
       6461.8767      0.45691647
       6462.6754      0.42052545
       6463.4742      0.40511202
       6464.2730      0.72766118
       6465.0717      0.58521983
       6465.8705      0.35918106
       6466.6692      0.49933535
       6467.4680      0.50189079
       6468.2668      0.47321015
       6469.0655      0.49052493
       6469.8643      0.42609943
       6470.6631      0.53089159
       6471.4618      0.60983788
       6472.2606      0.47091021
       6473.0594      0.43466089
       6473.8581      0.58526994
       6474.6569      0.58177268
       6475.4557      0.47691247
       6476.2544      0.53270075
       6477.0532      0.45559363
       6477.8520      0.49985527
       6478.6507      0.56948345
       6479.4495      0.41403926
       6480.2483      0.37726833
       6481.0470      0.53090976
       6481.8458      0.43587933
       6482.6446      0.46777596
       6483.4433      0.44618979
       6484.2421      0.42561490
       6485.0409      0.37234011
       6485.8396      0.63054441
       6486.6384      0.60905519
       6487.4372      0.44014096
       6488.2359      0.26741705
       6489.0347      0.42846458
       6489.8335      0.57462926
       6490.6322      0.55810560
       6491.4310      0.72792613
       6492.2298      0.38061626
       6493.0285      0.40932178
       6493.8273      0.41018155
       6494.6260      0.23128511
       6495.4248      0.50729892
       6496.2236      0.66499072
       6497.0223      0.26076520
       6497.8211      0.49731101
       6498.6199      0.20109782
       6499.4186      0.32794995
       6500.2174      0.14277537
       6501.0162     0.095096931
       6501.8149      0.40399735
       6502.6137      0.41868765
       6503.4125      0.77951237
       6504.2112       1.0693985
       6505.0100      0.88022576
       6505.8088      0.96622915
       6506.6075       1.2734624
       6507.4063       1.0883598
       6508.2051      0.70548902
       6509.0038      0.53293992
       6509.8026      0.43922344
       6510.6014      0.40859650
       6511.4001      0.40622327
       6512.1989     0.087562430
       6512.9977      0.15717983
       6513.7964      0.55733389
       6514.5952      0.18265143
       6515.3940      0.36184953
       6516.1927      0.32193908
       6516.9915      0.63450305
       6517.7903      0.25663286
       6518.5890      0.41008350
       6519.3878      0.37951754
       6520.1866      0.13125393
       6520.9853      0.50402282
       6521.7841      0.59554908
       6522.5828      0.48764338
       6523.3816      0.48791356
       6524.1804      0.46794027
       6524.9791      0.43974802
       6525.7779      0.44465846
       6526.5767      0.49262972
       6527.3754      0.59199420
       6528.1742      0.58173614
       6528.9730      0.45343537
       6529.7717      0.36535188
       6530.5705      0.40577470
       6531.3693      0.17963655
       6532.1680      0.42743326
       6532.9668      0.34877731
       6533.7656      0.39666094
       6534.5643      0.57462611
       6535.3631      0.42170188
       6536.1619      0.52012433
       6536.9606      0.46708048
       6537.7594      0.42830801
       6538.5582      0.47171201
       6539.3569      0.67734541
       6540.1557      0.70177391
       6540.9545      0.59723303
       6541.7532      0.67301753
       6542.5520      0.70345605
       6543.3508      0.70485356
       6544.1495      0.76747028
       6544.9483      0.77972161
       6545.7471      0.82759254
       6546.5458      0.76096028
       6547.3446      0.91072043
       6548.1434      0.74674973
       6548.9421      0.84920488
       6549.7409      0.63499432
       6550.5396      0.65060026
       6551.3384      0.51349184
       6552.1372      0.65538625
       6552.9359      0.63977162
       6553.7347      0.59948475
       6554.5335      0.80860871
       6555.3322      0.78931126
       6556.1310      0.83431663
       6556.9298       1.0602685
       6557.7285       1.1115734
       6558.5273       1.5070887
       6559.3261       1.8459994
       6560.1248       1.7341391
       6560.9236       1.5480182
       6561.7224       1.8022275
       6562.5211       1.7624863
       6563.3199       1.7172783
       6564.1187       2.6931611
       6564.9174       6.3386569
       6565.7162       6.3834614
       6566.5150       4.2923127
       6567.3137       1.1790996
       6568.1125      0.72329452
       6568.9113      0.88770688
       6569.7100      0.56018995
       6570.5088      0.51921430
       6571.3076      0.75373273
       6572.1063      0.67628047
       6572.9051      0.62135338
       6573.7039      0.65292138
       6574.5026      0.54710851
       6575.3014      0.89734538
       6576.1002      0.76326223
       6576.8989       1.0562033
       6577.6977       1.0029714
       6578.4964       1.0454495
       6579.2952       1.2046135
       6580.0940       1.2282311
       6580.8927       1.2382111
       6581.6915      0.89126473
       6582.4903       1.0011821
       6583.2890       1.0565278
       6584.0878       1.0499947
       6584.8866      0.81716209
       6585.6853       1.0703302
       6586.4841      0.94267929
       6587.2829       1.0082735
       6588.0816      0.83785776
       6588.8804      0.88135977
       6589.6792      0.82867550
       6590.4779      0.65924217
       6591.2767      0.61711953
       6592.0755      0.54503957
       6592.8742      0.44538196
       6593.6730      0.57558626
       6594.4718      0.50516302
       6595.2705      0.49687779
       6596.0693      0.51462884
       6596.8681      0.46743811
       6597.6668      0.50566204
       6598.4656      0.52940253
       6599.2644      0.52762949
       6600.0631      0.53631147
       6600.8619      0.49655452
       6601.6607      0.53380642
       6602.4594      0.31956775
       6603.2582      0.56669237
       6604.0570      0.34961043
       6604.8557      0.51577947
       6605.6545      0.53385064
       6606.4532      0.49864314
       6607.2520      0.44941784
       6608.0508      0.43306665
       6608.8495      0.59740735
       6609.6483      0.45240226
       6610.4471      0.59748026
       6611.2458      0.36596382
       6612.0446      0.54571681
       6612.8434      0.44096226
       6613.6421      0.67522481
       6614.4409      0.63980777
       6615.2397      0.76549525
       6616.0384      0.49899072
       6616.8372      0.49302172
       6617.6360      0.62240464
       6618.4347      0.94091470
       6619.2335      0.32339555
       6620.0323      0.61570329
       6620.8310       1.1154134
       6621.6298      0.59801332
       6622.4286      0.60006677
       6623.2273      0.30171283
       6624.0261      0.54474068
       6624.8249      0.39489428
       6625.6236      0.36092074
       6626.4224      0.37178918
       6627.2212      0.46101258
       6628.0199      0.60221366
       6628.8187      0.34453094
       6629.6175      0.50728768
       6630.4162      0.52784078
       6631.2150      0.38152426
       6632.0138      0.70745349
       6632.8125      0.73177791
       6633.6113      0.56559802
       6634.4100      0.20306409
       6635.2088      0.35301651
       6636.0076      0.41378765
       6636.8063     0.056012209
       6637.6051      0.17555140
       6638.4039      0.40870844
       6639.2026      0.33672051
       6640.0014      0.48055737
       6640.8002      0.41619660
       6641.5989      0.29642375
       6642.3977      0.42968131
       6643.1965      0.40702152
       6643.9952      0.36361847
       6644.7940      0.49208749
       6645.5928      0.55825310
       6646.3915      0.76826336
       6647.1903      0.61863224
       6647.9891      0.40964337
       6648.7878      0.35752076
       6649.5866      0.33803230
       6650.3854      0.82706336
       6651.1841      0.34049481
       6651.9829      0.22861971
       6652.7817      0.37018756
       6653.5804      0.34772780
       6654.3792      0.41100892
       6655.1780      0.64381431
       6655.9767      0.25673103
       6656.7755      0.24315906
       6657.5743      0.39301047
       6658.3730      0.39126098
       6659.1718      0.52565367
       6659.9706      0.57919308
       6660.7693      0.33341208
       6661.5681      0.43069148
       6662.3668      0.59016839
       6663.1656      0.51453334
       6663.9644      0.43769157
       6664.7631       1.0655713
       6665.5619      0.69829342
       6666.3607      0.73938516
       6667.1594      0.47846004
       6667.9582       1.2779360
       6668.7570      0.91563783
       6669.5557      0.62848944
       6670.3545     -0.57810223
       6671.1533     -0.48968675
       6671.9520      0.30688231
       6672.7508      0.10448220
       6673.5496      0.70346397
       6674.3483      0.79781108
       6675.1471      0.19955482
       6675.9459     0.054455554
       6676.7446      0.44608244
       6677.5434      0.18358683
       6678.3422      0.52731929
       6679.1409      0.43243476
       6679.9397      0.27289031
       6680.7385      0.29911795
       6681.5372      0.81594717
       6682.3360      0.26624689
       6683.1348      0.30436765
       6683.9335      0.50542058
       6684.7323      0.63977932
       6685.5311      0.60475084
       6686.3298      0.37707992
       6687.1286      0.23766718
       6687.9274     -0.15578193
       6688.7261      0.52791654
       6689.5249      0.51666454
       6690.3236      0.69673180
       6691.1224      0.49129755
       6691.9212      0.46562757
       6692.7199      0.37432396
       6693.5187      0.59719793
       6694.3175      0.49916615
       6695.1162      0.37967301
       6695.9150      0.33267144
       6696.7138      0.47848082
       6697.5125      0.66348633
       6698.3113      0.42349382
       6699.1101      0.42875341
       6699.9088      0.53866686
       6700.7076      0.60902995
       6701.5064      0.30486846
       6702.3051      0.47692666
       6703.1039      0.42928775
       6703.9027      0.75007062
       6704.7014      0.11495642
       6705.5002      0.53952653
       6706.2990      0.73384065
       6707.0977      0.35941307
       6707.8965      0.39070510
       6708.6953      0.59471341
       6709.4940      0.45814195
       6710.2928       1.1137190
       6711.0916      0.94736087
       6711.8903       1.3886545
       6712.6891      0.19566339
       6713.4879      0.90160030
       6714.2866      0.72570714
       6715.0854       1.0308682
       6715.8842      0.57431559
       6716.6829      0.50650490
       6717.4817      0.71490931
       6718.2804       1.0240632
       6719.0792       1.1220250
       6719.8780       1.3233712
       6720.6767       1.3450213
       6721.4755       1.2189495
       6722.2743       1.6021164
       6723.0730       1.1243400
       6723.8718      0.44182906
       6724.6706      0.11064152
       6725.4693      0.17977074
       6726.2681      0.57200313
       6727.0669      0.52235218
       6727.8656      0.38693689
       6728.6644      0.43726723
       6729.4632      0.58576785
       6730.2619      0.45582918
       6731.0607      0.59547673
       6731.8595      0.68224631
       6732.6582      0.58546838
       6733.4570      0.62718654
       6734.2558      0.28502319
       6735.0545      0.50857907
       6735.8533      0.19941635
       6736.6521      0.57318211
       6737.4508      0.45879569
       6738.2496      0.28634893
       6739.0484      0.54575942
       6739.8471      0.38351605
       6740.6459      0.46758057
       6741.4447      0.51829840
       6742.2434      0.33374406
       6743.0422      0.52808990
       6743.8410      0.48732719
       6744.6397      0.50786551
       6745.4385      0.15924190
       6746.2372      0.10926238
       6747.0360      0.15530391
       6747.8348      0.33996613
       6748.6335      0.53122682
       6749.4323      0.48163435
       6750.2311      0.52062095
       6751.0298      0.60038539
       6751.8286      0.57533031
       6752.6274      0.22690523
       6753.4261      0.54923523
       6754.2249      0.19772709
       6755.0237      0.16725829
       6755.8224      0.39139017
       6756.6212      0.57888612
       6757.4200      0.86241645
       6758.2187     0.027921252
       6759.0175      0.36727288
       6759.8163      0.62741796
       6760.6150      0.47249240
       6761.4138      0.61828913
       6762.2126      0.25229247
       6763.0113     0.068461911
       6763.8101      0.22801073
       6764.6089      0.34760930
       6765.4076      0.35952225
       6766.2064      0.30331808
       6767.0052      0.28103448
       6767.8039      0.26171798
       6768.6027      0.43220950
       6769.4015      0.44360292
       6770.2002      0.30381066
       6770.9990      0.86276083
       6771.7978      0.97920368
       6772.5965      0.21927121
       6773.3953      0.88225612
       6774.1940      0.55104443
       6774.9928   0.00046434562
       6775.7916      0.26105336
       6776.5903     0.044674835
       6777.3891      0.12630412
       6778.1879      0.33283377
       6778.9866      0.52189385
       6779.7854      0.39413862
       6780.5842      0.41899118
       6781.3829      0.30327208
       6782.1817      0.51185704
       6782.9805      0.34269729
       6783.7792      0.47450547
       6784.5780      0.21136706
       6785.3768      0.95644947
       6786.1755      0.76624681
       6786.9743     0.032456431
       6787.7731       1.1525921
       6788.5718      0.82863545
       6789.3706     0.089580500
       6790.1694      0.16623838
       6790.9681      0.14647360
       6791.7669      0.32028024
       6792.5657      0.25689475
       6793.3644      0.26762049
       6794.1632      0.41116670
       6794.9620      0.26047779
       6795.7607      0.24547845
       6796.5595      0.36032177
       6797.3583      0.52594234
       6798.1570      0.35154116
       6798.9558      0.77240528
       6799.7545      0.54289531
       6800.5533      0.43316809
       6801.3521      0.47798215
       6802.1508      0.47336370
       6802.9496      0.43880777
       6803.7484      0.46562894
       6804.5471      0.67484147
       6805.3459      0.14100316
       6806.1447     0.014112602
       6806.9434      0.59641347
       6807.7422      0.25930043
       6808.5410      0.24451018
       6809.3397      0.54881695
       6810.1385      0.49029618
       6810.9373      0.61786827
       6811.7360      0.43281806
       6812.5348     0.011726812
       6813.3336     0.086459046
       6814.1323      0.59769240
       6814.9311      0.45919501
       6815.7299      0.68133422
       6816.5286      0.58661078
       6817.3274      0.97574243
       6818.1262      0.46306645
       6818.9249     0.067116336
       6819.7237     0.017011241
       6820.5225      0.45603957
       6821.3212      0.45095070
       6822.1200      0.53111474
       6822.9188      0.29450739
       6823.7175      0.50699029
       6824.5163      0.66642664
       6825.3151      0.41005398
       6826.1138    -0.040161437
       6826.9126      0.39526005
       6827.7113      0.39259522
       6828.5101      0.43536955
       6829.3089      0.60498220
       6830.1076      0.13118658
       6830.9064      0.71697543
       6831.7052      0.63308401
       6832.5039      0.68462818
       6833.3027      0.42696223
       6834.1015      0.15038395
       6834.9002      0.31196448
       6835.6990      0.43779460
       6836.4978      0.23597107
       6837.2965      0.30560027
       6838.0953      0.72374006
       6838.8941      0.45790266
       6839.6928      0.68471574
       6840.4916      0.14889562
       6841.2904      0.53017104
       6842.0891      0.72273521
       6842.8879     -0.16206467
       6843.6867      0.22731283
       6844.4854      0.33257547
       6845.2842      0.31074466
       6846.0830    -0.040239610
       6846.8817      0.68722061
       6847.6805     0.017388383
       6848.4793      0.31934090
       6849.2780      0.48334868
       6850.0768      0.23248180
       6850.8756      0.27693131
       6851.6743      0.70022319
       6852.4731      0.38734257
       6853.2719      0.92219155
       6854.0706       1.2516974
       6854.8694      0.65955871
       6855.6681      0.77462269
       6856.4669      0.16308320
       6857.2657      0.39723279
       6858.0644     0.049033288
       6858.8632     -0.32004314
       6859.6620      0.60278183
       6860.4607      0.51530629
       6861.2595      0.42866598
       6862.0583      0.28530397
       6862.8570      0.11171315
       6863.6558      0.30021542
       6864.4546      0.11276851
       6865.2533      0.32081063
       6866.0521      0.49006558
       6866.8509      0.13421398
       6867.6496      0.17804744
       6868.4484      0.15084097
