# wavelength flux
       2217.0504     0.013777141
       2217.7991    0.0087615446
       2218.5478    0.0080126114
       2219.2965     0.033773943
       2220.0452     0.014815920
       2220.7938     0.012023166
       2221.5425     0.014249055
       2222.2912     0.028103919
       2223.0399     0.022397716
       2223.7886     0.042783324
       2224.5372   -0.0044074339
       2225.2859    0.0035134176
       2226.0346     0.031447716
       2226.7833    -0.015551694
       2227.5320    0.0020898404
       2228.2806     0.025286166
       2229.0293     0.056942774
       2229.7780     0.027945896
       2230.5267     0.029693006
       2231.2754     0.014760528
       2232.0241    0.0051935030
       2232.7727     0.054800176
       2233.5214     0.090688262
       2234.2701     0.026812603
       2235.0188    0.0049665461
       2235.7675     0.012203677
       2236.5161   -0.0029816346
       2237.2648     0.015016341
       2238.0135     0.039539545
       2238.7622    0.0045395503
       2239.5109     0.014802484
       2240.2595     0.023459677
       2241.0082   -0.0070095967
       2241.7569   -0.0048056104
       2242.5056     0.021323507
       2243.2543     0.018762173
       2244.0029     0.014984513
       2244.7516     0.045688841
       2245.5003     0.038298430
       2246.2490     0.011590688
       2246.9977     0.030369613
       2247.7463    0.0089419812
       2248.4950     0.014088585
       2249.2437     0.041558895
       2249.9924     0.033967936
       2250.7411    -0.011529733
       2251.4897     0.090744611
       2252.2384     0.063152925
       2252.9871     0.046160810
       2253.7358     0.044320539
       2254.4845     0.028390177
       2255.2331     0.016432724
       2255.9818   -0.0094767113
       2256.7305     0.029238045
       2257.4792     0.032652157
       2258.2279     0.033598588
       2258.9766     0.040280201
       2259.7252     0.028744441
       2260.4739     0.032941274
       2261.2226     0.024159976
       2261.9713     0.049660388
       2262.7200     0.068062165
       2263.4686   -0.0020099144
       2264.2173     0.012513108
       2264.9660     0.019410184
       2265.7147     0.016901983
       2266.4634    0.0091003032
       2267.2120     0.051985251
       2267.9607     0.038129362
       2268.7094     0.036768679
       2269.4581     0.041383139
       2270.2068     0.011003944
       2270.9554     0.063578743
       2271.7041     0.021368182
       2272.4528    -0.013005164
       2273.2015     0.022706126
       2273.9502     0.012414375
       2274.6988     0.012231075
       2275.4475     0.028505269
       2276.1962     0.047020538
       2276.9449    0.0037321601
       2277.6936     0.014430276
       2278.4422     0.012861088
       2279.1909     0.021879489
       2279.9396     0.037242805
       2280.6883    0.0020982756
       2281.4370     0.027883042
       2282.1857     0.042055674
       2282.9343     0.071565623
       2283.6830     0.019904144
       2284.4317    -0.021362211
       2285.1804   -0.0046713961
       2285.9291     0.025035855
       2286.6777     0.019462698
       2287.4264   -0.0043004200
       2288.1751     0.023720473
       2288.9238   -0.0038738930
       2289.6725     0.011672617
       2290.4211     0.036816238
       2291.1698     0.012042569
       2291.9185   -0.0035162856
       2292.6672     0.041732447
       2293.4159   -0.0040628924
       2294.1645     0.051349411
       2294.9132     0.027095219
       2295.6619     0.029047731
       2296.4106     0.034792219
       2297.1593     0.048669386
       2297.9079     0.050881765
       2298.6566     0.023886249
       2299.4053   -0.0020245735
       2300.1540     0.032620643
       2300.9027    0.0017325956
       2301.6513     0.055296636
       2302.4000     0.068169046
       2303.1487     0.016570135
       2303.8974     0.035772896
       2304.6461     0.032500255
       2305.3948     0.035662598
       2306.1434     0.046479834
       2306.8921     0.019726439
       2307.6408     0.025559811
       2308.3895    0.0043880986
       2309.1382     0.048709729
       2309.8868     0.046296692
       2310.6355     0.022836179
       2311.3842     0.024224952
       2312.1329     0.043194531
       2312.8816     0.029343935
       2313.6302     0.031154060
       2314.3789     0.015357172
       2315.1276     0.025929144
       2315.8763     0.021404224
       2316.6250     0.048179624
       2317.3736     0.026326094
       2318.1223     0.032497881
       2318.8710   0.00024191544
       2319.6197    -0.024126414
       2320.3684     0.012072805
       2321.1170    0.0039956478
       2321.8657    0.0095308937
       2322.6144     0.028561470
       2323.3631     0.033138800
       2324.1118    0.0080589979
       2324.8604     0.028387457
       2325.6091     0.013083522
       2326.3578     0.027619464
       2327.1065     0.031430616
       2327.8552   -0.0091133386
       2328.6039     0.035117785
       2329.3525     0.045586384
       2330.1012     0.017826190
       2330.8499     0.019913955
       2331.5986    -0.019275047
       2332.3473     0.017036006
       2333.0959     0.023501651
       2333.8446     0.020972986
       2334.5933     0.020616061
       2335.3420    0.0059523906
       2336.0907     0.034988982
       2336.8393     0.034614300
       2337.5880     0.032913315
       2338.3367     0.035733509
       2339.0854     0.026050247
       2339.8341     0.040390394
       2340.5827     0.042206982
       2341.3314     0.046620646
       2342.0801     0.042101944
       2342.8288    0.0027981736
       2343.5775     0.018768268
       2344.3261     0.019651785
       2345.0748     0.034516847
       2345.8235    0.0038383723
       2346.5722     0.020910433
       2347.3209     0.012665793
       2348.0695     0.029710383
       2348.8182     0.012427107
       2349.5669     0.047453690
       2350.3156     0.017381983
       2351.0643    0.0048467876
       2351.8130     0.020151022
       2352.5616    0.0035314882
       2353.3103     0.024180865
       2354.0590     0.021219954
       2354.8077     0.038703619
       2355.5564    0.0049783545
       2356.3050     0.015793249
       2357.0537   -0.0031326666
       2357.8024     0.030132368
       2358.5511     0.043532418
       2359.2998     0.023596567
       2360.0484     0.032323508
       2360.7971     0.023263292
       2361.5458     0.020048384
       2362.2945     0.021298991
       2363.0432     0.021044955
       2363.7918     0.029413900
       2364.5405     0.020994231
       2365.2892     0.026370019
       2366.0379     0.032590938
       2366.7866     0.022837720
       2367.5352     0.031600328
       2368.2839     0.042499724
       2369.0326     0.034265106
       2369.7813     0.022266469
       2370.5300     0.020191138
       2371.2786     0.029873880
       2372.0273   -0.0010742341
       2372.7760     0.048985369
       2373.5247     0.045695216
       2374.2734     0.023984641
       2375.0221     0.015520990
       2375.7707     0.024882450
       2376.5194     0.029634068
       2377.2681     0.046985226
       2378.0168     0.030342074
       2378.7655     0.013718136
       2379.5141     0.023060388
       2380.2628     0.015606503
       2381.0115    0.0086816471
       2381.7602     0.032454179
       2382.5089     0.012032284
       2383.2575     0.018566098
       2384.0062     0.037112402
       2384.7549     0.022594958
       2385.5036    0.0038616483
       2386.2523    0.0037065889
       2387.0009     0.019676092
       2387.7496     0.028712479
       2388.4983     0.024104044
       2389.2470     0.014919539
       2389.9957     0.032570196
       2390.7443    0.0089048587
       2391.4930     0.038347479
       2392.2417     0.047041109
       2392.9904     0.036622696
       2393.7391     0.029460995
       2394.4877     0.010130310
       2395.2364     0.036132198
       2395.9851     0.031403032
       2396.7338     0.024116215
       2397.4825     0.022920715
       2398.2312     0.022449849
       2398.9798     0.028544553
       2399.7285     0.025653579
       2400.4772     0.018689795
       2401.2259     0.055905711
       2401.9746     0.024471307
       2402.7232     0.048470831
       2403.4719    0.0038734335
       2404.2206     0.020610766
       2404.9693     0.014572679
       2405.7180     0.018980196
       2406.4666     0.028710904
       2407.2153     0.034615517
       2407.9640     0.015380296
       2408.7127     0.041747312
       2409.4614   -0.0098057988
       2410.2100     0.039501879
       2410.9587   0.00019247039
       2411.7074     0.033307398
       2412.4561     0.011322206
       2413.2048     0.024880428
       2413.9534     0.018309581
       2414.7021     0.016096377
       2415.4508     0.049862853
       2416.1995     0.022220359
       2416.9482     0.055516841
       2417.6968     0.033070120
       2418.4455     0.010548144
       2419.1942     0.020094445
       2419.9429     0.025057449
       2420.6916     0.033733522
       2421.4403     0.010901825
       2422.1889     0.021171994
       2422.9376     0.014434629
       2423.6863     0.013538705
       2424.4350     0.054764326
       2425.1837     0.026958836
       2425.9323     0.038184919
       2426.6810     0.020308309
       2427.4297     0.030928100
       2428.1784     0.031256733
       2428.9271     0.013443936
       2429.6757     0.050024005
       2430.4244     0.017210430
       2431.1731     0.053633903
       2431.9218     0.022940896
       2432.6705     0.032635547
       2433.4191     0.018506023
       2434.1678     0.020964191
       2434.9165     0.019935603
       2435.6652     0.024551021
       2436.4139     0.041787730
       2437.1625     0.048673417
       2437.9112     0.020545494
       2438.6599    0.0091628248
       2439.4086     0.015467834
       2440.1573     0.010265630
       2440.9059    0.0039525124
       2441.6546    0.0067175864
       2442.4033     0.022598501
       2443.1520     0.032959048
       2443.9007     0.019359916
       2444.6494     0.037552195
       2445.3980     0.018768145
       2446.1467     0.031577261
       2446.8954     0.013300345
       2447.6441     0.035556943
       2448.3928     0.031363543
       2449.1414     0.011370630
       2449.8901     0.038646249
       2450.6388    0.0088981569
       2451.3875     0.020688007
       2452.1362     0.046836574
       2452.8848     0.027278865
       2453.6335     0.063650202
       2454.3822     0.047354494
       2455.1309     0.065611945
       2455.8796     0.046429271
       2456.6282     0.012565329
       2457.3769     0.027248997
       2458.1256     0.044529956
       2458.8743     0.033687276
       2459.6230     0.019702718
       2460.3716     0.017598098
       2461.1203     0.056862182
       2461.8690     0.052099997
       2462.6177     0.018157424
       2463.3664     0.030819535
       2464.1150     0.020842762
       2464.8637     0.025925114
       2465.6124     0.037307482
       2466.3611     0.038822527
       2467.1098     0.028286091
       2467.8584     0.061997665
       2468.6071     0.041201910
       2469.3558     0.034846469
       2470.1045     0.039884904
       2470.8532     0.043146003
       2471.6019     0.018999523
       2472.3505     0.019730557
       2473.0992     0.026734817
       2473.8479     0.018360048
       2474.5966     0.052774424
       2475.3453     0.042274368
       2476.0939   -0.0014747628
       2476.8426     0.037272323
       2477.5913     0.052351344
       2478.3400     0.046251561
       2479.0887     0.039755587
       2479.8373     0.031625300
       2480.5860     0.028122580
       2481.3347     0.030419244
       2482.0834     0.017852005
       2482.8321     0.043090482
       2483.5807     0.040100479
       2484.3294     0.034698799
       2485.0781     0.020705328
       2485.8268     0.044247250
       2486.5755     0.052496331
       2487.3241     0.010812920
       2488.0728     0.039519880
       2488.8215     0.028332887
       2489.5702     0.034625087
       2490.3189     0.062529289
       2491.0675     0.021718472
       2491.8162     0.038062364
       2492.5649     0.041128208
       2493.3136     0.019604263
       2494.0623     0.028988799
       2494.8110     0.014519037
       2495.5596     0.038256425
       2496.3083    0.0063519663
       2497.0570     0.035025839
       2497.8057     0.030957382
       2498.5544     0.059711145
       2499.3030     0.040140708
       2500.0517     0.022064022
       2500.8004     0.050455025
       2501.5491     0.022126015
       2502.2978     0.037263974
       2503.0464    0.0021318340
       2503.7951     0.015656317
       2504.5438     0.021071827
       2505.2925     0.040223898
       2506.0412     0.030263767
       2506.7898     0.038191901
       2507.5385     0.020274541
       2508.2872     0.042218504
       2509.0359     0.022232019
       2509.7846     0.044365728
       2510.5332    0.0044601143
       2511.2819    0.0094440054
       2512.0306     0.034250360
       2512.7793     0.034491524
       2513.5280     0.031272613
       2514.2766     0.042630721
       2515.0253     0.030734066
       2515.7740     0.028340380
       2516.5227     0.014673966
       2517.2714     0.046307884
       2518.0201     0.026374844
       2518.7687     0.024797745
       2519.5174     0.044395214
       2520.2661     0.034175187
       2521.0148     0.020289827
       2521.7635     0.027790441
       2522.5121     0.035857801
       2523.2608     0.024967407
       2524.0095     0.066423797
       2524.7582     0.043979758
       2525.5069     0.011762470
       2526.2555     0.040281989
       2527.0042     0.052368497
       2527.7529     0.047455064
       2528.5016     0.030242713
       2529.2503     0.011571802
       2529.9989     0.041416007
       2530.7476     0.027921912
       2531.4963     0.038672770
       2532.2450     0.042282882
       2532.9937     0.066007668
       2533.7423    0.0078400096
       2534.4910     0.035192911
       2535.2397     0.048408474
       2535.9884     0.043696810
       2536.7371     0.025900175
       2537.4857     0.037853837
       2538.2344     0.045929850
       2538.9831     0.013560872
       2539.7318     0.060791796
       2540.4805     0.033752218
       2541.2292     0.036436186
       2541.9778     0.046065036
       2542.7265     0.027334704
       2543.4752     0.036952751
       2544.2239     0.039426305
       2544.9726     0.038627729
       2545.7212     0.050522430
       2546.4699     0.022797611
       2547.2186     0.016458890
       2547.9673     0.039677233
       2548.7160     0.013330314
       2549.4646   -0.0021105559
       2550.2133     0.036291789
       2550.9620     0.043417928
       2551.7107     0.029812571
       2552.4594     0.046104222
       2553.2080     0.019754273
       2553.9567     0.047235491
       2554.7054     0.049368552
       2555.4541     0.045293698
       2556.2028     0.036519225
       2556.9514     0.024747072
       2557.7001    0.0098925514
       2558.4488    0.0076911994
       2559.1975     0.041226430
       2559.9462     0.025544702
       2560.6948     0.065675833
       2561.4435     0.041322209
       2562.1922     0.029002362
       2562.9409     0.032582988
       2563.6896     0.045305938
       2564.4383     0.038951695
       2565.1869     0.024124962
       2565.9356     0.030437272
       2566.6843     0.059427140
       2567.4330     0.048565401
       2568.1817     0.043268469
       2568.9303     0.040173386
       2569.6790     0.036256210
       2570.4277     0.051463456
       2571.1764     0.039444387
       2571.9251     0.025877706
       2572.6737     0.033632060
       2573.4224     0.035993793
       2574.1711     0.042198208
       2574.9198     0.035889385
       2575.6685     0.031350653
       2576.4171     0.037883529
       2577.1658     0.045830511
       2577.9145     0.033554630
       2578.6632     0.042309708
       2579.4119     0.031442290
       2580.1605     0.047091493
       2580.9092     0.053976080
       2581.6579     0.053444575
       2582.4066     0.019665500
       2583.1553     0.019628002
       2583.9039     0.037974810
       2584.6526     0.041545056
       2585.4013     0.054346391
       2586.1500     0.041909813
       2586.8987     0.026440085
       2587.6474     0.035472944
       2588.3960     0.028332507
       2589.1447     0.046622504
       2589.8934     0.016566373
       2590.6421     0.040272560
       2591.3908     0.043871260
       2592.1394     0.024632456
       2592.8881     0.020406723
       2593.6368     0.030866609
       2594.3855     0.043683406
       2595.1342     0.054149598
       2595.8828     0.018122448
       2596.6315     0.062973057
       2597.3802     0.013198937
       2598.1289     0.053829857
       2598.8776   -0.0032584902
       2599.6262     0.028517617
       2600.3749     0.026331839
       2601.1236     0.030271499
       2601.8723     0.027932280
       2602.6210    0.0099267716
       2603.3696     0.032403308
       2604.1183     0.041467540
       2604.8670     0.043792848
       2605.6157     0.031784528
       2606.3644     0.032321215
       2607.1130     0.054123360
       2607.8617     0.038151588
       2608.6104     0.026961195
       2609.3591     0.038016027
       2610.1078     0.028464084
       2610.8565     0.027330883
       2611.6051     0.051801446
       2612.3538     0.043665541
       2613.1025     0.032423113
       2613.8512     0.038686321
       2614.5999    0.0062853597
       2615.3485    0.0087676066
       2616.0972     0.025743871
       2616.8459     0.038683696
       2617.5946     0.016971390
       2618.3433     0.016122593
       2619.0919     0.037297914
       2619.8406     0.051242260
       2620.5893     0.049502010
       2621.3380     0.048428684
       2622.0867     0.053762391
       2622.8353     0.045704919
       2623.5840     0.033623882
       2624.3327     0.049328674
       2625.0814     0.044011722
       2625.8301     0.027326438
       2626.5787     0.047573218
       2627.3274     0.028231849
       2628.0761     0.039016270
       2628.8248     0.021264284
       2629.5735     0.071054947
       2630.3221     0.053439303
       2631.0708     0.013424043
       2631.8195     0.023720635
       2632.5682     0.055287502
       2633.3169     0.049477524
       2634.0656     0.063380796
       2634.8142     0.047082130
       2635.5629     0.051398551
       2636.3116     0.013088165
       2637.0603     0.040169520
       2637.8090     0.044537826
       2638.5576     0.036851537
       2639.3063     0.046446682
       2640.0550     0.049712560
       2640.8037     0.046364665
       2641.5524     0.053992775
       2642.3010     0.040300614
       2643.0497     0.068998882
       2643.7984     0.057191235
       2644.5471     0.019017617
       2645.2958     0.033357843
       2646.0444     0.047572753
       2646.7931     0.035125389
       2647.5418     0.017589548
       2648.2905     0.037871297
       2649.0392     0.022898625
       2649.7878     0.047090745
       2650.5365     0.044686580
       2651.2852     0.031202809
       2652.0339     0.065949936
       2652.7826     0.046190104
       2653.5312     0.034875627
       2654.2799     0.043457813
       2655.0286     0.069954109
       2655.7773     0.032698434
       2656.5260     0.034843113
       2657.2746     0.036360102
       2658.0233     0.018914041
       2658.7720     0.059849225
       2659.5207     0.038061754
       2660.2694     0.039243696
       2661.0181     0.024301700
       2661.7667     0.036054938
       2662.5154     0.025654969
       2663.2641     0.031019165
       2664.0128     0.046858589
       2664.7615     0.046975472
       2665.5101     0.025943376
       2666.2588     0.054317415
       2667.0075     0.041291883
       2667.7562     0.028268981
       2668.5049     0.039484053
       2669.2535     0.048295644
       2670.0022     0.043003385
       2670.7509     0.034802014
       2671.4996     0.028756368
       2672.2483     0.039094913
       2672.9969     0.033372795
       2673.7456     0.032919067
       2674.4943     0.040609027
       2675.2430     0.051620328
       2675.9917     0.049674387
       2676.7403     0.047058764
       2677.4890     0.037341108
       2678.2377     0.039230676
       2678.9864     0.041912591
       2679.7351     0.043969309
       2680.4837     0.058021450
       2681.2324     0.032768029
       2681.9811     0.047450411
       2682.7298     0.029108808
       2683.4785     0.039473784
       2684.2272     0.034875822
       2684.9758     0.038996812
       2685.7245     0.028141596
       2686.4732     0.052619694
       2687.2219     0.026640771
       2687.9706     0.049736336
       2688.7192     0.047788010
       2689.4679     0.036027922
       2690.2166     0.030271774
       2690.9653     0.035436781
       2691.7140     0.043986392
       2692.4626     0.044245785
       2693.2113     0.039864475
       2693.9600     0.027439035
       2694.7087     0.055249129
       2695.4574     0.034852575
       2696.2060     0.041066471
       2696.9547     0.037724389
       2697.7034     0.037024899
       2698.4521     0.053753911
       2699.2008     0.038310486
       2699.9494     0.051440733
       2700.6981     0.045162947
       2701.4468     0.045329425
       2702.1955     0.030232980
       2702.9442     0.033241686
       2703.6928     0.037206221
       2704.4415     0.027032540
       2705.1902     0.061422427
       2705.9389     0.029185059
       2706.6876     0.029511783
       2707.4363     0.055320306
       2708.1849     0.053103254
       2708.9336     0.044942935
       2709.6823     0.043185118
       2710.4310     0.022990629
       2711.1797     0.024750820
       2711.9283     0.053579285
       2712.6770     0.033300980
       2713.4257     0.054912427
       2714.1744     0.045682496
       2714.9231     0.043526677
       2715.6717     0.070574712
       2716.4204     0.047784695
       2717.1691     0.061084654
       2717.9178     0.066858531
       2718.6665     0.031121123
       2719.4151     0.051302441
       2720.1638     0.032207208
       2720.9125     0.051819113
       2721.6612     0.036541974
       2722.4099     0.058018279
       2723.1585     0.046481174
       2723.9072     0.028448902
       2724.6559     0.019667165
       2725.4046     0.046184567
       2726.1533     0.050493680
       2726.9019     0.052431229
       2727.6506     0.026260132
       2728.3993     0.049075384
       2729.1480     0.038638527
       2729.8967     0.043689967
       2730.6454     0.044731217
       2731.3940     0.035562393
       2732.1427     0.055106314
       2732.8914     0.031558863
       2733.6401     0.045696949
       2734.3888     0.049990998
       2735.1374     0.065081967
       2735.8861     0.071207174
       2736.6348     0.053512672
       2737.3835     0.039720230
       2738.1322     0.055979029
       2738.8808     0.053291290
       2739.6295     0.040595528
       2740.3782     0.045510513
       2741.1269     0.049297782
       2741.8756     0.051506176
       2742.6242     0.052726687
       2743.3729     0.036957967
       2744.1216     0.045683078
       2744.8703     0.052142496
       2745.6190     0.023118118
       2746.3676     0.049690618
       2747.1163     0.039802844
       2747.8650     0.028760620
       2748.6137     0.031016852
       2749.3624     0.047135654
       2750.1110     0.047880654
       2750.8597     0.059688715
       2751.6084     0.049009578
       2752.3571     0.043059945
       2753.1058     0.033346086
       2753.8545     0.032048945
       2754.6031     0.049988910
       2755.3518     0.035904235
       2756.1005     0.051299448
       2756.8492     0.041387241
       2757.5979     0.045869255
       2758.3465     0.041928670
       2759.0952     0.043653489
       2759.8439     0.025877190
       2760.5926     0.042316335
       2761.3413     0.049024718
       2762.0899     0.042414644
       2762.8386     0.034588262
       2763.5873     0.058662011
       2764.3360     0.038144824
       2765.0847     0.046021772
       2765.8333     0.020146443
       2766.5820     0.037586577
       2767.3307     0.016875881
       2768.0794     0.050397177
       2768.8281     0.056560807
       2769.5767     0.041370113
       2770.3254     0.050043396
       2771.0741     0.037527844
       2771.8228     0.027943210
       2772.5715     0.062354100
       2773.3201     0.047718492
       2774.0688     0.061995537
       2774.8175     0.056981076
       2775.5662     0.041776154
       2776.3149     0.048661671
       2777.0636     0.048594240
       2777.8122     0.043213645
       2778.5609     0.051991559
       2779.3096     0.060872475
       2780.0583     0.054640577
       2780.8070     0.050689775
       2781.5556     0.051239873
       2782.3043     0.030733563
       2783.0530     0.046305621
       2783.8017     0.030484545
       2784.5504     0.028885455
       2785.2990     0.048631590
       2786.0477     0.060312133
       2786.7964     0.060403623
       2787.5451     0.024062357
       2788.2938     0.057595400
       2789.0424     0.043757120
       2789.7911     0.046410390
       2790.5398     0.056802898
       2791.2885     0.059864292
       2792.0372     0.065297880
       2792.7858     0.048244547
       2793.5345     0.039197775
       2794.2832     0.070540006
       2795.0319     0.043914252
       2795.7806     0.052503270
       2796.5292     0.046122870
       2797.2779     0.062378157
       2798.0266     0.034581750
       2798.7753     0.047539485
       2799.5240     0.050643918
       2800.2727     0.071342718
       2801.0213     0.045873308
       2801.7700     0.031143395
       2802.5187     0.020114313
       2803.2674     0.033386148
       2804.0161     0.077148923
       2804.7647     0.054819158
       2805.5134     0.062547286
       2806.2621     0.052754878
       2807.0108     0.035243250
       2807.7595     0.044124014
       2808.5081     0.059188685
       2809.2568     0.055850099
       2810.0055     0.053683129
       2810.7542     0.041670492
       2811.5029     0.022878380
       2812.2515     0.010400123
       2813.0002   -0.0048194617
       2813.7489    0.0026516280
       2814.4976     0.011307895
       2815.2463     0.024286170
       2815.9949     0.012518678
       2816.7436     0.025362996
       2817.4923     0.041877077
       2818.2410     0.017303447
       2818.9897     0.014196536
       2819.7383     0.044117972
       2820.4870     0.031295204
       2821.2357     0.032515593
       2821.9844     0.028187557
       2822.7331     0.037154270
       2823.4818     0.046355534
       2824.2304     0.032497124
       2824.9791     0.048520028
       2825.7278     0.061554351
       2826.4765     0.027134491
       2827.2252     0.052489541
       2827.9738     0.039942107
       2828.7225     0.056123907
       2829.4712     0.066310153
       2830.2199     0.059335058
       2830.9686     0.047123126
       2831.7172     0.054998079
       2832.4659     0.069741359
       2833.2146     0.029643007
       2833.9633     0.055589740
       2834.7120     0.036955173
       2835.4606     0.049568603
       2836.2093     0.040571341
       2836.9580     0.058782832
       2837.7067     0.049938043
       2838.4554     0.037973801
       2839.2040     0.058745389
       2839.9527     0.028898909
       2840.7014     0.055392312
       2841.4501     0.065418489
       2842.1988     0.048505578
       2842.9474     0.035310000
       2843.6961     0.036658610
       2844.4448     0.043869027
       2845.1935     0.041236892
       2845.9422     0.057702057
       2846.6909     0.060211998
       2847.4395     0.061397160
       2848.1882     0.020609387
       2848.9369     0.035107784
       2849.6856     0.051802820
       2850.4343     0.055865606
       2851.1829     0.047840518
       2851.9316     0.053274191
       2852.6803     0.052187348
       2853.4290     0.042501722
       2854.1777     0.065126778
       2854.9263     0.057547517
       2855.6750     0.061439410
       2856.4237     0.059546151
       2857.1724     0.042518466
       2857.9211     0.053790806
       2858.6697     0.047291626
       2859.4184     0.058118349
       2860.1671     0.039425990
       2860.9158     0.051431028
       2861.6645     0.075638455
       2862.4131     0.069337418
       2863.1618     0.011601888
       2863.9105     0.041323319
       2864.6592     0.053837763
       2865.4079     0.063611099
       2866.1565     0.083715642
       2866.9052     0.054142808
       2867.6539     0.054143359
       2868.4026     0.045327200
       2869.1513     0.047471472
       2869.8999     0.044239317
       2870.6486     0.046970648
       2871.3973     0.035341292
       2872.1460     0.061760595
       2872.8947     0.074902668
       2873.6434     0.043650801
       2874.3920     0.064632510
       2875.1407     0.019783064
       2875.8894     0.035800599
       2876.6381     0.035158053
       2877.3868     0.066801685
       2878.1354     0.058149095
       2878.8841     0.067476218
       2879.6328     0.071385442
       2880.3815     0.055840789
       2881.1302     0.076546617
       2881.8788     0.048525331
       2882.6275     0.046972082
       2883.3762     0.054508948
       2884.1249     0.036050446
       2884.8736     0.055680941
       2885.6222     0.058895266
       2886.3709     0.066133553
       2887.1196     0.051583689
       2887.8683     0.044458487
       2888.6170     0.067011790
       2889.3656     0.050862845
       2890.1143     0.062897217
       2890.8630     0.053537531
       2891.6117     0.064796096
       2892.3604     0.050007323
       2893.1090     0.068510258
       2893.8577     0.057730946
       2894.6064     0.050971805
       2895.3551     0.028032664
       2896.1038     0.043061052
       2896.8525     0.062297089
       2897.6011     0.060033370
       2898.3498     0.043462837
       2899.0985     0.057286456
       2899.8472     0.072808893
       2900.5959     0.078872585
       2901.3445     0.064661219
       2902.0932     0.050933379
       2902.8419     0.071173648
       2903.5906     0.072597219
       2904.3393     0.057766588
       2905.0879     0.050026942
       2905.8366     0.071779400
       2906.5853     0.069997533
       2907.3340     0.045270210
       2908.0827     0.063041839
       2908.8313     0.068494500
       2909.5800     0.051210796
       2910.3287     0.072405343
       2911.0774     0.055283490
       2911.8261     0.061627349
       2912.5747     0.058990105
       2913.3234     0.052731950
       2914.0721     0.070741347
       2914.8208     0.050525447
       2915.5695     0.053267329
       2916.3181     0.069385755
       2917.0668     0.069096243
       2917.8155     0.050659231
       2918.5642     0.033476726
       2919.3129     0.083512975
       2920.0616     0.043527196
       2920.8102     0.058946499
       2921.5589     0.042477507
       2922.3076     0.042541915
       2923.0563     0.059833027
       2923.8050     0.082298449
       2924.5536     0.073404935
       2925.3023     0.062429036
       2926.0510     0.069809280
       2926.7997     0.087260389
       2927.5484     0.042037142
       2928.2970     0.050765874
       2929.0457     0.047239431
       2929.7944     0.062453917
       2930.5431     0.049490358
       2931.2918     0.067944686
       2932.0404     0.056386123
       2932.7891     0.055175378
       2933.5378     0.042135747
       2934.2865     0.057980838
       2935.0352     0.065315510
       2935.7838     0.056197428
       2936.5325     0.035744161
       2937.2812     0.060439892
       2938.0299     0.056584660
       2938.7786     0.049348577
       2939.5272     0.057442365
       2940.2759     0.042672330
       2941.0246     0.059163156
       2941.7733     0.057718150
       2942.5220     0.066937721
       2943.2707     0.054920226
       2944.0193     0.076617944
       2944.7680     0.047937091
       2945.5167     0.054320591
       2946.2654     0.068782657
       2947.0141     0.062009619
       2947.7627     0.045843148
       2948.5114     0.058930186
       2949.2601     0.075371385
       2950.0088     0.076983240
       2950.7575     0.045579277
       2951.5061     0.064478460
       2952.2548     0.066306000
       2953.0035     0.052050743
       2953.7522     0.044845202
       2954.5009     0.060852017
       2955.2495     0.039139625
       2955.9982     0.060224214
       2956.7469     0.069933755
       2957.4956     0.066160532
       2958.2443     0.060703804
       2958.9929     0.064839434
       2959.7416     0.059606202
       2960.4903     0.036457015
       2961.2390     0.074473812
       2961.9877     0.066771135
       2962.7363     0.080964732
       2963.4850     0.047015142
       2964.2337     0.060448287
       2964.9824     0.055178767
       2965.7311     0.048358804
       2966.4798     0.054185258
       2967.2284     0.047394463
       2967.9771     0.059118711
       2968.7258     0.063600495
       2969.4745     0.053999351
       2970.2232     0.054133271
       2970.9718     0.043159611
       2971.7205     0.090545553
       2972.4692     0.066479645
       2973.2179     0.068595444
       2973.9666     0.054305871
       2974.7152     0.065649137
       2975.4639     0.087519596
       2976.2126     0.056876078
       2976.9613     0.067330383
       2977.7100     0.061178357
       2978.4586     0.080034004
       2979.2073     0.095978431
       2979.9560     0.060275278
       2980.7047     0.071847506
       2981.4534     0.072161818
       2982.2020     0.064809969
       2982.9507     0.080023953
       2983.6994     0.076851573
       2984.4481     0.072325866
       2985.1968     0.085113927
       2985.9454     0.072816868
       2986.6941     0.058357496
       2987.4428     0.074252315
       2988.1915     0.077301904
       2988.9402     0.055303263
       2989.6889     0.072613376
       2990.4375     0.083158670
       2991.1862     0.063009835
       2991.9349     0.057902070
       2992.6836     0.050330575
       2993.4323     0.065531548
       2994.1809     0.039744528
       2994.9296     0.074061810
       2995.6783     0.067539831
       2996.4270     0.087656161
       2997.1757     0.072018044
       2997.9243     0.063933046
       2998.6730     0.056818427
       2999.4217     0.065971734
       3000.1704     0.076077209
       3000.9191     0.078029192
       3001.6677     0.055255288
       3002.4164     0.070848201
       3003.1651     0.080114600
       3003.9138     0.056527418
       3004.6625     0.058940940
       3005.4111     0.071527784
       3006.1598     0.079903982
       3006.9085     0.082855027
       3007.6572     0.057527255
       3008.4059     0.058040387
       3009.1545     0.064708668
       3009.9032     0.064306253
       3010.6519     0.083765027
       3011.4006     0.054300951
       3012.1493     0.072882392
       3012.8980     0.062712380
       3013.6466     0.057798106
       3014.3953     0.051223503
       3015.1440     0.078964775
       3015.8927      0.10914502
       3016.6414     0.051756633
       3017.3900     0.036231100
       3018.1387     0.053115644
       3018.8874     0.064334410
       3019.6361     0.055279547
       3020.3848     0.053921680
       3021.1334     0.059538264
       3021.8821     0.067710451
       3022.6308     0.052322624
       3023.3795     0.042739987
       3024.1282     0.048860809
       3024.8768     0.057479355
       3025.6255     0.058708227
       3026.3742     0.055427377
       3027.1229     0.086471730
       3027.8716     0.098848285
       3028.6202     0.071451238
       3029.3689     0.050589529
       3030.1176     0.088042790
       3030.8663     0.057499534
       3031.6150     0.083626039
       3032.3636     0.059672376
       3033.1123     0.067386841
       3033.8610     0.064255502
       3034.6097     0.065503072
       3035.3584     0.056770444
       3036.1071     0.041214155
       3036.8557     0.066319159
       3037.6044     0.076673741
       3038.3531     0.081867873
       3039.1018     0.059009981
       3039.8505     0.085838762
       3040.5991     0.053688381
       3041.3478     0.097716710
       3042.0965     0.081283044
       3042.8452     0.073504340
       3043.5939      0.11280939
       3044.3425     0.060737991
       3045.0912     0.080707543
       3045.8399     0.079723306
       3046.5886     0.063905644
       3047.3373     0.063305981
       3048.0859     0.069085897
       3048.8346     0.067781304
       3049.5833     0.052908477
       3050.3320     0.091023504
       3051.0807     0.062708926
       3051.8293     0.059341305
       3052.5780     0.096608020
       3053.3267     0.060571175
       3054.0754     0.082174823
       3054.8241     0.068494556
       3055.5727     0.071106480
       3056.3214     0.063376788
       3057.0701     0.047758778
       3057.8188     0.056813323
       3058.5675     0.065505240
       3059.3162     0.050278921
       3060.0648     0.074415230
       3060.8135     0.074058697
       3061.5622     0.077086740
       3062.3109     0.093862248
       3063.0596     0.060428639
       3063.8082     0.075791237
       3064.5569     0.051593253
       3065.3056     0.069238862
       3066.0543     0.088030483
       3066.8030     0.054878413
       3067.5516     0.088835199
       3068.3003     0.080909286
       3069.0490     0.087209533
       3069.7977     0.075213503
       3070.5464     0.063828582
       3071.2950     0.079142511
       3072.0437     0.094268331
       3072.7924     0.057015129
       3073.5411     0.089059722
       3074.2898     0.073444088
       3075.0384      0.10226209
       3075.7871     0.062465350
       3076.5358     0.080769494
       3077.2845     0.069925199
       3078.0332     0.073669440
       3078.7818     0.083685749
       3079.5305     0.086915768
       3080.2792     0.059883844
       3081.0279     0.066215525
       3081.7766     0.089007779
       3082.5252     0.067306686
       3083.2739     0.082517654
       3084.0226     0.059378157
       3084.7713     0.073034948
       3085.5200     0.071581959
       3086.2687     0.057383336
       3087.0173     0.063343974
       3087.7660     0.092654823
       3088.5147     0.063678896
       3089.2634     0.074007083
       3090.0121     0.054343609
       3090.7607     0.090428676
       3091.5094     0.099133029
       3092.2581     0.047870405
       3093.0068     0.052330178
       3093.7555     0.078510480
       3094.5041     0.067686385
       3095.2528     0.071911801
       3096.0015     0.082187247
       3096.7502     0.066578396
       3097.4989     0.058787889
       3098.2475     0.072650996
       3098.9962     0.070737165
       3099.7449     0.076864188
       3100.4936     0.094615113
       3101.2423     0.069187714
       3101.9909     0.033339035
       3102.7396     0.076500953
       3103.4883     0.063090058
       3104.2370     0.053613728
       3104.9857     0.069514430
       3105.7343     0.058689166
       3106.4830     0.055654261
       3107.2317     0.055270195
       3107.9804     0.040971228
       3108.7291     0.080681059
       3109.4778     0.073240087
       3110.2264     0.068411544
       3110.9751     0.075826500
       3111.7238     0.060590299
       3112.4725     0.061145761
       3113.2212     0.061081223
       3113.9698     0.054062688
       3114.7185     0.095053459
       3115.4672     0.064028056
       3116.2159     0.063549467
       3116.9646     0.064090176
       3117.7132     0.078005564
       3118.4619     0.066289961
       3119.2106     0.068088973
       3119.9593     0.072439472
       3120.7080      0.10918728
       3121.4566     0.042600968
       3122.2053     0.067539050
       3122.9540      0.10133414
       3123.7027     0.084050742
       3124.4514     0.075008891
       3125.2000     0.078456873
       3125.9487     0.097715680
       3126.6974     0.082458252
       3127.4461     0.091178097
       3128.1948     0.065971151
       3128.9434     0.080797104
       3129.6921     0.087537704
       3130.4408     0.071353816
       3131.1895     0.068058763
       3131.9382     0.049265873
       3132.6869     0.076930978
       3133.4355     0.070790129
       3134.1842     0.086094401
       3134.9329     0.068212142
       3135.6816     0.078873144
       3136.4303     0.056250065
       3137.1789     0.054251216
       3137.9276     0.070844193
       3138.6763     0.069059287
       3139.4250     0.089654222
       3140.1737     0.069699722
       3140.9223     0.052772075
       3141.6710     0.072012955
       3142.4197     0.076218475
       3143.1684     0.051624239
       3143.9171     0.057389529
       3144.6657     0.096781521
       3145.4144     0.071332655
       3146.1631     0.078883868
       3146.9118     0.080249306
       3147.6605     0.074453826
       3148.4091      0.10618801
       3149.1578     0.082724857
       3149.9065     0.060951872
       3150.6552     0.072455535
       3151.4039     0.034177246
       3152.1525     0.089671225
       3152.9012     0.098782984
       3153.6499     0.086259164
       3154.3986     0.085916760
       3155.1473     0.076491230
       3155.8960     0.069468719
       3156.6446     0.055275394
       3157.3933     0.052629255
       3158.1420     0.075314900
       3158.8907     0.062281659
       3159.6394     0.060242749
       3160.3880     0.061477655
       3161.1367     0.077228675
       3161.8854     0.081439946
       3162.6341      0.10515992
       3163.3828     0.063516805
       3164.1314     0.064228045
       3164.8801     0.070461302
       3165.6288     0.079187317
       3166.3775     0.052932148
       3167.1262     0.059719203
       3167.8748     0.076492403
       3168.6235     0.088142555
       3169.3722     0.084693211
       3170.1209     0.055436918
       3170.8696     0.056011498
       3171.6182     0.065645593
       3172.3669     0.086137643
       3173.1156     0.080229492
       3173.8643     0.057053493
       3174.6130     0.060841075
       3175.3616     0.058065002
       3176.1103     0.079058606
       3176.8590     0.070581834
       3177.6077     0.079888034
       3178.3564     0.077102722
       3179.1051     0.090225999
       3179.8537     0.057041468
       3180.6024     0.078555812
       3181.3511     0.081773229
       3182.0998     0.068928879
       3182.8485     0.070826040
       3183.5971     0.056593383
       3184.3458      0.10089926
       3185.0945     0.079740189
       3185.8432     0.070848250
       3186.5919     0.071769995
       3187.3405     0.073097106
       3188.0892     0.068200967
       3188.8379     0.053885306
       3189.5866     0.084792758
       3190.3353     0.075263764
       3191.0839     0.082377284
       3191.8326     0.082660446
       3192.5813     0.073767796
       3193.3300     0.075153298
       3194.0787     0.091641668
       3194.8273     0.072010310
       3195.5760     0.082045505
       3196.3247     0.084296101
       3197.0734     0.072459644
       3197.8221     0.092205395
       3198.5707     0.041427766
       3199.3194     0.080115798
       3200.0681     0.080699273
       3200.8168     0.063932937
       3201.5655     0.065899251
       3202.3142     0.099158851
       3203.0628      0.10371430
       3203.8115     0.082824810
       3204.5602     0.072726290
       3205.3089     0.059478424
       3206.0576     0.073955330
       3206.8062     0.063914899
       3207.5549     0.060038873
       3208.3036     0.063280201
       3209.0523     0.077571480
       3209.8010     0.056670773
       3210.5496     0.051322352
       3211.2983     0.089355764
       3212.0470     0.073280540
       3212.7957     0.072236387
       3213.5444     0.071295997
       3214.2930     0.073719082
       3215.0417     0.070356771
       3215.7904     0.089328267
       3216.5391     0.066289093
       3217.2878     0.079498168
       3218.0364      0.10563555
       3218.7851     0.092314357
       3219.5338     0.092053073
       3220.2825     0.045165829
       3221.0312     0.081255045
       3221.7798     0.069705170
       3222.5285     0.068488159
       3223.2772     0.093932967
       3224.0259     0.081723659
       3224.7746     0.073826928
       3225.5233     0.077305117
       3226.2719     0.069358674
       3227.0206     0.080567927
       3227.7693     0.058827154
       3228.5180     0.046084888
       3229.2667     0.060679485
       3230.0153      0.10921735
       3230.7640     0.060431741
       3231.5127     0.095042349
       3232.2614     0.060541133
       3233.0101     0.089184489
       3233.7587     0.064254781
       3234.5074     0.057043905
       3235.2561     0.070850911
       3236.0048      0.10189989
       3236.7535     0.079671862
       3237.5021      0.10192256
       3238.2508     0.075001012
       3238.9995     0.081278967
       3239.7482     0.043481168
       3240.4969     0.077095284
       3241.2455     0.060429348
       3241.9942     0.053120757
       3242.7429     0.073578314
       3243.4916     0.077476046
       3244.2403     0.043386136
       3244.9889     0.075638010
       3245.7376     0.064934112
       3246.4863     0.061686815
       3247.2350     0.034908362
       3247.9837     0.078907843
       3248.7324     0.055100595
       3249.4810     0.037061755
       3250.2297     0.069517415
       3250.9784     0.056374370
       3251.7271     0.079259393
       3252.4758      0.11219490
       3253.2244      0.10730771
       3253.9731     0.063583346
       3254.7218     0.080869504
       3255.4705     0.073362357
       3256.2192     0.092375157
       3256.9678     0.070036485
       3257.7165      0.10200262
       3258.4652     0.094834031
       3259.2139     0.070431391
       3259.9626     0.066913786
       3260.7112     0.058968704
       3261.4599     0.076313403
       3262.2086     0.042092229
       3262.9573     0.040759705
       3263.7060     0.074377496
       3264.4546     0.083688879
       3265.2033     0.068849146
       3265.9520      0.10449096
       3266.7007     0.081095427
       3267.4494     0.075062639
       3268.1980     0.091077532
       3268.9467     0.090043042
       3269.6954     0.095633800
       3270.4441     0.070658874
       3271.1928     0.080871808
       3271.9414      0.11219437
       3272.6901      0.10085404
       3273.4388     0.085472076
       3274.1875     0.080863046
       3274.9362     0.070598850
       3275.6849     0.097971629
       3276.4335     0.068938690
       3277.1822     0.090517726
       3277.9309     0.088677198
       3278.6796      0.10055446
       3279.4283     0.078410306
       3280.1769     0.061941047
       3280.9256     0.073439599
       3281.6743     0.084751489
       3282.4230     0.072291027
       3283.1717     0.069266588
       3283.9203     0.068701491
       3284.6690     0.067496385
       3285.4177     0.069750758
       3286.1664     0.072919791
       3286.9151     0.099937925
       3287.6637     0.098003906
       3288.4124     0.072951852
       3289.1611      0.11806663
       3289.9098     0.063427759
       3290.6585     0.083544456
       3291.4071     0.084861905
       3292.1558     0.093640430
       3292.9045     0.058113419
       3293.6532     0.075779036
       3294.4019     0.064905414
       3295.1505     0.094523303
       3295.8992     0.081917954
       3296.6479     0.086787291
       3297.3966     0.077473548
       3298.1453     0.077302771
       3298.8940      0.10685468
       3299.6426     0.068816350
       3300.3913     0.094689581
       3301.1400     0.067798934
       3301.8887     0.074945342
       3302.6374     0.067615249
       3303.3860     0.083271337
       3304.1347      0.11417664
       3304.8834     0.079514175
       3305.6321     0.078766753
       3306.3808     0.070693541
       3307.1294     0.075316512
       3307.8781     0.063059638
       3308.6268     0.073682908
       3309.3755     0.080303826
       3310.1242     0.086979922
       3310.8728     0.082879134
       3311.6215     0.064384234
       3312.3702     0.090334409
       3313.1189     0.065560274
       3313.8676     0.071353091
       3314.6162     0.070797610
       3315.3649     0.081143406
       3316.1136     0.095261858
       3316.8623     0.066832797
       3317.6110     0.078938316
       3318.3596     0.097909384
       3319.1083     0.084347898
       3319.8570      0.10680471
       3320.6057     0.071453670
       3321.3544     0.091053653
       3322.1031     0.065822294
       3322.8517     0.071426721
       3323.6004     0.074062830
       3324.3491     0.090507811
       3325.0978     0.081974995
       3325.8465     0.062195165
       3326.5951     0.074014278
       3327.3438      0.12456357
       3328.0925     0.092100722
       3328.8412     0.065867451
       3329.5899     0.090653135
       3330.3385     0.098984178
       3331.0872     0.070587080
       3331.8359     0.076938966
       3332.5846     0.083466840
       3333.3333     0.080631194
       3334.0819     0.091522547
       3334.8306     0.081394787
       3335.5793     0.087641429
       3336.3280      0.10810318
       3337.0767     0.064953797
       3337.8253     0.038683710
       3338.5740     0.076366033
       3339.3227     0.068205165
       3340.0714     0.070052431
       3340.8201     0.080816186
       3341.5687      0.11210302
       3342.3174     0.084552890
       3343.0661     0.098057106
       3343.8148     0.085647698
       3344.5635     0.099466295
       3345.3122     0.099653966
       3346.0608     0.068075999
       3346.8095     0.090836233
       3347.5582     0.068498690
       3348.3069     0.090113559
       3349.0556     0.094011406
       3349.8042     0.085003236
       3350.5529     0.051069127
       3351.3016      0.10727942
       3352.0503      0.10614820
       3352.7990     0.089582745
       3353.5476     0.086707939
       3354.2963     0.068504600
       3355.0450     0.088110876
       3355.7937     0.083009456
       3356.5424      0.10467557
       3357.2910     0.041640767
       3358.0397     0.059676583
       3358.7884     0.065840357
       3359.5371     0.080085981
       3360.2858     0.098106932
       3361.0344     0.081943099
       3361.7831     0.077623026
       3362.5318     0.087391963
       3363.2805      0.12042343
       3364.0292     0.088526748
       3364.7778      0.10089871
       3365.5265     0.089586926
       3366.2752     0.066413518
       3367.0239     0.080222405
       3367.7726     0.067310731
       3368.5213     0.080693723
       3369.2699     0.063577401
       3370.0186      0.10016488
       3370.7673     0.077015051
       3371.5160     0.062680740
       3372.2647     0.066458854
       3373.0133     0.086630749
       3373.7620     0.090503045
       3374.5107     0.097947731
       3375.2594     0.076834692
       3376.0081     0.092890018
       3376.7567     0.076214870
       3377.5054     0.055509355
       3378.2541     0.074670691
       3379.0028     0.055293454
       3379.7515     0.076250180
       3380.5001      0.11325299
       3381.2488     0.080478939
       3381.9975     0.064855843
       3382.7462     0.094233999
       3383.4949     0.079078435
       3384.2435     0.095909944
       3384.9922     0.096464361
       3385.7409     0.083714553
       3386.4896     0.070300609
       3387.2383     0.094537438
       3387.9869     0.087457004
       3388.7356     0.081631723
       3389.4843     0.085317597
       3390.2330     0.082266008
       3390.9817     0.095100505
       3391.7304     0.066133300
       3392.4790     0.083347970
       3393.2277      0.10347161
       3393.9764     0.087769685
       3394.7251      0.13717171
       3395.4738      0.10325914
       3396.2224     0.096628640
       3396.9711     0.085486627
       3397.7198     0.056883939
       3398.4685     0.066570797
       3399.2172      0.10246595
       3399.9658     0.066534851
       3400.7145     0.067567717
       3401.4632     0.063859920
       3402.2119     0.048683253
       3402.9606     0.074304475
       3403.7092     0.077797630
       3404.4579     0.086026259
       3405.2066     0.080248575
       3405.9553     0.090682668
       3406.7040      0.13238463
       3407.4526      0.12526655
       3408.2013     0.078901005
       3408.9500      0.11765252
       3409.6987      0.10634898
       3410.4474     0.099506298
       3411.1960     0.086307296
       3411.9447      0.10511481
       3412.6934     0.090662302
       3413.4421      0.10200428
       3414.1908      0.10148468
       3414.9395      0.10796597
       3415.6881     0.075753548
       3416.4368     0.060912569
       3417.1855     0.066517174
       3417.9342     0.076188428
       3418.6829     0.086381205
       3419.4315     0.067721607
       3420.1802     0.093139464
       3420.9289     0.091380285
       3421.6776     0.081026928
       3422.4263     0.087627052
       3423.1749     0.065930936
       3423.9236     0.090077652
       3424.6723     0.090818471
       3425.4210     0.067845249
       3426.1697      0.11210774
       3426.9183     0.084923400
       3427.6670      0.11931073
       3428.4157     0.087288261
       3429.1644     0.088844489
       3429.9131     0.094117303
       3430.6617     0.097567804
       3431.4104     0.066979877
       3432.1591      0.10103984
       3432.9078     0.092831091
       3433.6565     0.091419742
       3434.4051     0.083175449
       3435.1538     0.095299028
       3435.9025     0.081997646
       3436.6512     0.099389028
       3437.3999      0.10474988
       3438.1486     0.097211592
       3438.8972     0.083260401
       3439.6459     0.097511916
       3440.3946      0.10257243
       3441.1433     0.043780204
       3441.8920     0.077057371
       3442.6406     0.088976640
       3443.3893     0.054215003
       3444.1380     0.071785780
       3444.8867      0.10583046
       3445.6354     0.078314520
       3446.3840     0.064905000
       3447.1327     0.081154741
       3447.8814      0.10302297
       3448.6301      0.12470659
       3449.3788     0.091795995
       3450.1274     0.076876600
       3450.8761     0.086165426
       3451.6248     0.081555035
       3452.3735     0.098547346
       3453.1222     0.061594635
       3453.8708     0.071261465
       3454.6195      0.10307224
       3455.3682      0.10112207
       3456.1169     0.075434731
       3456.8656      0.10818045
       3457.6142     0.092746292
       3458.3629     0.066448942
       3459.1116     0.054507633
       3459.8603     0.052691259
       3460.6090     0.097229090
       3461.3577     0.081529956
       3462.1063     0.095123427
       3462.8550      0.10765454
       3463.6037     0.090417111
       3464.3524     0.090494097
       3465.1011     0.068398774
       3465.8497      0.10347662
       3466.5984     0.083465114
       3467.3471     0.072458777
       3468.0958     0.072248898
       3468.8445     0.083511682
       3469.5931      0.11613560
       3470.3418     0.077130674
       3471.0905     0.093395693
       3471.8392      0.11565525
       3472.5879      0.10609723
       3473.3365     0.074441052
       3474.0852     0.080541637
       3474.8339     0.082932778
       3475.5826      0.11788885
       3476.3313     0.083553562
       3477.0799     0.081324470
       3477.8286      0.10001113
       3478.5773     0.080393721
       3479.3260     0.083428854
       3480.0747     0.090359678
       3480.8233      0.12535592
       3481.5720     0.099772988
       3482.3207      0.10251286
       3483.0694     0.085899420
       3483.8181     0.079100270
       3484.5667     0.087688063
       3485.3154     0.099338785
       3486.0641     0.089539394
       3486.8128     0.082495184
       3487.5615     0.065898814
       3488.3102     0.085509341
       3489.0588     0.096672969
       3489.8075     0.072785200
       3490.5562     0.086341379
       3491.3049     0.071395022
       3492.0536     0.059872829
       3492.8022      0.10147201
       3493.5509     0.075189665
       3494.2996     0.065885945
       3495.0483     0.091049972
       3495.7970     0.075036259
       3496.5456     0.092065339
       3497.2943      0.10679593
       3498.0430     0.082199482
       3498.7917     0.086272829
       3499.5404     0.085988548
       3500.2890     0.079763723
       3501.0377     0.068539935
       3501.7864     0.074069146
       3502.5351     0.055979288
       3503.2838     0.078882440
       3504.0324      0.10397878
       3504.7811     0.081544792
       3505.5298     0.092524691
       3506.2785      0.11054197
       3507.0272      0.10270742
       3507.7758      0.10546667
       3508.5245      0.10997986
       3509.2732      0.10016237
       3510.0219      0.13821306
       3510.7706      0.12514815
       3511.5193     0.086523351
       3512.2679     0.069169310
       3513.0166     0.089140597
       3513.7653     0.090659815
       3514.5140     0.099538820
       3515.2627     0.069948636
       3516.0113     0.083880959
       3516.7600     0.071454269
       3517.5087     0.062959192
       3518.2574     0.081435398
       3519.0061      0.10326836
       3519.7547      0.11792307
       3520.5034      0.10430176
       3521.2521     0.089293593
       3522.0008     0.086508292
       3522.7495     0.069645533
       3523.4981      0.10380714
       3524.2468     0.063326899
       3524.9955     0.076248425
       3525.7442     0.077786145
       3526.4929     0.071276533
       3527.2415     0.082314439
       3527.9902     0.094177624
       3528.7389     0.080587269
       3529.4876     0.093867278
       3530.2363     0.066073466
       3530.9849     0.057025616
       3531.7336     0.086493029
       3532.4823      0.10217728
       3533.2310      0.10615921
       3533.9797     0.050135893
       3534.7284      0.10178717
       3535.4770      0.10303289
       3536.2257     0.072222516
       3536.9744      0.10753932
       3537.7231     0.049607919
       3538.4718     0.043377070
       3539.2204     0.071232386
       3539.9691      0.10177076
       3540.7178     0.095553119
       3541.4665     0.099793171
       3542.2152     0.094474207
       3542.9638     0.088320178
       3543.7125     0.084615616
       3544.4612     0.089723093
       3545.2099      0.13466958
       3545.9586      0.10288919
       3546.7072      0.10925846
       3547.4559      0.11905471
       3548.2046      0.14589909
       3548.9533      0.11404794
       3549.7020      0.11703715
       3550.4506      0.12278465
       3551.1993     0.090920635
       3551.9480     0.086807168
       3552.6967     0.094290093
       3553.4454     0.095717949
       3554.1940     0.091793475
       3554.9427     0.092060727
       3555.6914     0.074837857
       3556.4401      0.10408116
       3557.1888     0.086102635
       3557.9375     0.086400833
       3558.6861     0.081200466
       3559.4348      0.10104495
       3560.1835     0.078600854
       3560.9322      0.12343801
       3561.6809     0.079400614
       3562.4295     0.085602550
       3563.1782     0.087589053
       3563.9269      0.10362195
       3564.6756     0.094439960
       3565.4243     0.088521844
       3566.1729     0.096806607
       3566.9216     0.084129726
       3567.6703     0.063694754
       3568.4190      0.10225622
       3569.1677      0.10437220
       3569.9163     0.058131973
       3570.6650     0.068879628
       3571.4137     0.098618629
       3572.1624      0.11531773
       3572.9111      0.10423748
       3573.6597     0.065987022
       3574.4084     0.099481088
       3575.1571     0.096482015
       3575.9058      0.11404768
       3576.6545     0.083720985
       3577.4031     0.087128501
       3578.1518     0.082124347
       3578.9005     0.092392149
       3579.6492     0.085479954
       3580.3979      0.11473552
       3581.1466      0.10815577
       3581.8952      0.10623924
       3582.6439     0.085344086
       3583.3926     0.090317909
       3584.1413     0.086592773
       3584.8900     0.065936276
       3585.6386     0.072205463
       3586.3873     0.067036986
       3587.1360      0.10583323
       3587.8847      0.10550467
       3588.6334      0.10678566
       3589.3820     0.061084860
       3590.1307      0.11290203
       3590.8794     0.053281309
       3591.6281      0.10241300
       3592.3768     0.077664805
       3593.1254     0.021966070
       3593.8741     0.046419889
       3594.6228     0.065079138
       3595.3715     0.097885027
       3596.1202      0.10441853
       3596.8688      0.10102548
       3597.6175     0.086321768
       3598.3662     0.081551716
       3599.1149      0.10188893
       3599.8636     0.083886611
       3600.6122     0.089057347
       3601.3609      0.11926947
       3602.1096      0.10331671
       3602.8583      0.10544274
       3603.6070      0.10174394
       3604.3557     0.083871518
       3605.1043     0.072086637
       3605.8530     0.069929383
       3606.6017     0.080811328
       3607.3504      0.10008214
       3608.0991     0.090094052
       3608.8477      0.11109081
       3609.5964     0.074613309
       3610.3451      0.10425145
       3611.0938     0.073984503
       3611.8425     0.092505048
       3612.5911     0.086671755
       3613.3398     0.090979887
       3614.0885     0.088379773
       3614.8372     0.088744449
       3615.5859      0.10229112
       3616.3345      0.10321815
       3617.0832     0.083837256
       3617.8319     0.075611249
       3618.5806     0.097190037
       3619.3293      0.11791487
       3620.0779     0.088046064
       3620.8266      0.10416112
       3621.5753     0.098896086
       3622.3240     0.082277635
       3623.0727     0.078163863
       3623.8213     0.051380302
       3624.5700      0.12060962
       3625.3187     0.098617741
       3626.0674     0.091814631
       3626.8161      0.11972356
       3627.5648     0.087559460
       3628.3134     0.082026101
       3629.0621     0.095657445
       3629.8108      0.10914060
       3630.5595     0.095112538
       3631.3082     0.091896065
       3632.0568     0.089008785
       3632.8055      0.12276712
       3633.5542      0.11102328
       3634.3029     0.081245597
       3635.0516     0.089455874
       3635.8002     0.088451558
       3636.5489     0.091301842
       3637.2976     0.074505972
       3638.0463     0.098920915
       3638.7950     0.075750316
       3639.5436     0.096535998
       3640.2923      0.11484596
       3641.0410     0.082906879
       3641.7897      0.10897168
       3642.5384     0.094733577
       3643.2870      0.10078841
       3644.0357      0.11866054
       3644.7844      0.11390147
       3645.5331     0.092262787
       3646.2818     0.071618690
       3647.0304      0.10648212
       3647.7791     0.068175072
       3648.5278     0.068574870
       3649.2765     0.071635022
       3650.0252     0.075565940
       3650.7739      0.12394477
       3651.5225      0.10535847
       3652.2712      0.11346968
       3653.0199      0.10962191
       3653.7686     0.095244239
       3654.5173     0.066032482
       3655.2659     0.078826744
       3656.0146      0.10756334
       3656.7633      0.10276878
       3657.5120     0.085794820
       3658.2607      0.10432961
       3659.0093      0.13414602
       3659.7580     0.096273876
       3660.5067     0.042289773
       3661.2554      0.10828569
       3662.0041     0.086687800
       3662.7527     0.095427843
       3663.5014     0.094393924
       3664.2501      0.12344358
       3664.9988     0.093494915
       3665.7475     0.071992513
       3666.4961      0.10640136
       3667.2448      0.10131772
       3667.9935     0.088855847
       3668.7422     0.099104164
       3669.4909     0.087244025
       3670.2395     0.060213482
       3670.9882     0.092145644
       3671.7369      0.11060498
       3672.4856     0.076608256
       3673.2343     0.071017978
       3673.9830     0.088981871
       3674.7316     0.090617349
       3675.4803     0.079823884
       3676.2290      0.10955404
       3676.9777     0.091866429
       3677.7264      0.11757631
       3678.4750      0.11206550
       3679.2237      0.10374223
       3679.9724      0.11439029
       3680.7211     0.079403413
       3681.4698     0.075687924
       3682.2184     0.084436943
       3682.9671     0.086750151
       3683.7158     0.064642558
       3684.4645     0.085833520
       3685.2132     0.092189857
       3685.9618     0.079483471
       3686.7105     0.054238471
       3687.4592     0.041841286
       3688.2079     0.073249016
       3688.9566      0.10414927
       3689.7052     0.099028584
       3690.4539     0.097701984
       3691.2026      0.12676493
       3691.9513     0.097090041
       3692.7000     0.082296990
       3693.4486     0.095399494
       3694.1973      0.10811987
       3694.9460     0.090634232
       3695.6947      0.10584836
       3696.4434     0.087351623
       3697.1920      0.10550562
       3697.9407      0.11584464
       3698.6894     0.098355525
       3699.4381     0.049701984
       3700.1868     0.087309246
       3700.9355     0.083257331
       3701.6841      0.10243310
       3702.4328     0.093835794
       3703.1815     0.067838452
       3703.9302      0.10472768
       3704.6789     0.098133244
       3705.4275     0.087423264
       3706.1762     0.069331807
       3706.9249     0.074369885
       3707.6736     0.099941992
       3708.4223     0.091794791
       3709.1709     0.098013067
       3709.9196     0.088733467
       3710.6683      0.11351409
       3711.4170      0.13132153
       3712.1657      0.11061119
       3712.9143      0.11618438
       3713.6630     0.091119302
       3714.4117     0.098841054
       3715.1604     0.094357203
       3715.9091      0.10041503
       3716.6577     0.084853844
       3717.4064     0.090775442
       3718.1551     0.079570849
       3718.9038      0.11243503
       3719.6525     0.081791793
       3720.4011     0.077790550
       3721.1498     0.097827677
       3721.8985      0.12432016
       3722.6472      0.10240598
       3723.3959      0.10782061
       3724.1446      0.20803707
       3724.8932      0.21102534
       3725.6419      0.26493670
       3726.3906      0.31270339
       3727.1393      0.36427953
       3727.8880      0.38211013
       3728.6366      0.38993590
       3729.3853      0.36848134
       3730.1340      0.31691314
       3730.8827      0.24214611
       3731.6314      0.21459827
       3732.3800      0.15312907
       3733.1287      0.12664226
       3733.8774     0.076261785
       3734.6261     0.087787576
       3735.3748     0.089487709
       3736.1234     0.079714599
       3736.8721     0.051247750
       3737.6208      0.11660279
       3738.3695      0.11956027
       3739.1182     0.093953754
       3739.8668      0.10469856
       3740.6155      0.11953776
       3741.3642     0.085438099
       3742.1129      0.11363312
       3742.8616     0.076276967
       3743.6102      0.10202790
       3744.3589      0.12428245
       3745.1076      0.11381894
       3745.8563      0.10185163
       3746.6050     0.097740013
       3747.3537     0.072374181
       3748.1023      0.10433643
       3748.8510     0.063435648
       3749.5997     0.088105270
       3750.3484     0.054915679
       3751.0971     0.086992286
       3751.8457     0.073134345
       3752.5944      0.14244716
       3753.3431      0.10263444
       3754.0918      0.12474350
       3754.8405      0.11900956
       3755.5891      0.12188799
       3756.3378     0.097549064
       3757.0865      0.10509355
       3757.8352      0.11868440
       3758.5839      0.10633240
       3759.3325      0.12411706
       3760.0812      0.12915689
       3760.8299      0.14745132
       3761.5786      0.11658025
       3762.3273      0.10423353
       3763.0759     0.094815104
       3763.8246      0.13630420
       3764.5733     0.089944773
       3765.3220     0.097605089
       3766.0707     0.098704426
       3766.8193      0.11926715
       3767.5680     0.073308029
       3768.3167     0.079740713
       3769.0654      0.10348425
       3769.8141     0.093533582
       3770.5628     0.051860541
       3771.3114     0.069138269
       3772.0601      0.10473862
       3772.8088     0.079940586
       3773.5575      0.10335430
       3774.3062      0.11107571
       3775.0548      0.14287615
       3775.8035     0.092843032
       3776.5522     0.097886458
       3777.3009      0.11686234
       3778.0496      0.13911023
       3778.7982      0.13101096
       3779.5469      0.12246048
       3780.2956      0.16752384
       3781.0443      0.10781303
       3781.7930      0.12410495
       3782.5416      0.11710483
       3783.2903      0.14491803
       3784.0390      0.14875637
       3784.7877      0.16139931
       3785.5364      0.12109140
       3786.2850      0.13897681
       3787.0337      0.12885279
       3787.7824      0.10468184
       3788.5311      0.10058498
       3789.2798      0.11587845
       3790.0284     0.067100205
       3790.7771     0.097529147
       3791.5258     0.098605333
       3792.2745      0.10358064
       3793.0232     0.076507024
       3793.7719     0.088138346
       3794.5205     0.060885847
       3795.2692     0.061405304
       3796.0179     0.096518364
       3796.7666     0.079811407
       3797.5153      0.11303881
       3798.2639      0.12518696
       3799.0126     0.080535199
       3799.7613      0.10283802
       3800.5100     0.082839434
       3801.2587     0.095817104
       3802.0073      0.10420649
       3802.7560      0.10892644
       3803.5047      0.12697512
       3804.2534      0.10974936
       3805.0021      0.14774699
       3805.7507      0.10554043
       3806.4994      0.11381050
       3807.2481     0.074621403
       3807.9968      0.12348879
       3808.7455      0.11330051
       3809.4941      0.12978719
       3810.2428      0.11689421
       3810.9915      0.13689909
       3811.7402      0.13157880
       3812.4889      0.13969296
       3813.2375      0.10503035
       3813.9862      0.11657276
       3814.7349      0.12371461
       3815.4836      0.13248705
       3816.2323      0.11545561
       3816.9810     0.094451913
       3817.7296     0.085779409
       3818.4783      0.12354519
       3819.2270      0.12421735
       3819.9757      0.12462423
       3820.7244      0.11054006
       3821.4730     0.098532648
       3822.2217     0.097317850
       3822.9704      0.12363504
       3823.7191     0.082765407
       3824.4678     0.077909380
       3825.2164     0.080462290
       3825.9651     0.091885878
       3826.7138      0.13407080
       3827.4625      0.12099918
       3828.2112      0.12824882
       3828.9598     0.082950612
       3829.7085     0.053192732
       3830.4572     0.064423167
       3831.2059     0.059422572
       3831.9546     0.058284717
       3832.7032     0.046190351
       3833.4519     0.065769195
       3834.2006     0.086938249
       3834.9493     0.078377359
       3835.6980     0.078272486
       3836.4466     0.088959896
       3837.1953      0.11389640
       3837.9440     0.086819163
       3838.6927      0.14134229
       3839.4414      0.12995943
       3840.1901      0.12034709
       3840.9387      0.12427888
       3841.6874     0.085742702
       3842.4361     0.078192670
       3843.1848      0.12068219
       3843.9335      0.16653209
       3844.6821      0.10475868
       3845.4308      0.16220075
       3846.1795     0.025937483
       3846.9282    -0.070403959
       3847.6769     0.030753069
       3848.4255    -0.065988978
       3849.1742     0.025902799
       3849.9229     0.082940907
       3850.6716      0.11052920
       3851.4203      0.11839105
       3852.1689     0.085175352
       3852.9176      0.10323146
       3853.6663     0.093664184
       3854.4150     0.081454768
       3855.1637     0.093175241
       3855.9123      0.11896349
       3856.6610      0.11290736
       3857.4097      0.11913538
       3858.1584     0.084156402
       3858.9071      0.10001083
       3859.6557      0.12499345
       3860.4044      0.12408781
       3861.1531      0.10533164
       3861.9018      0.12737431
       3862.6505     0.092596480
       3863.3992      0.10050909
       3864.1478      0.12485793
       4344.2534      0.33227244
       4345.0772     0.030392641
       4345.9011      0.71969260
       4346.7249       1.0988917
       4347.5488       1.6889413
       4348.3726       1.7468121
       4349.1965       1.0357881
       4350.0204      0.28926590
       4350.8442      0.37585234
       4351.6681      0.27743285
       4352.4919      0.29650361
       4353.3158      0.42138833
       4354.1396      0.45425025
       4354.9635      0.53217132
       4355.7873      0.47441965
       4356.6112      0.39297467
       4357.4350      0.40735792
       4358.2589      0.53546444
       4359.0828      0.47186496
       4359.9066      0.43883241
       4360.7305      0.53891394
       4361.5543      0.52367805
       4362.3782      0.50630287
       4363.2020      0.57575513
       4364.0259      0.62367805
       4364.8497      0.50134987
       4365.6736      0.52296048
       4366.4974      0.56111888
       4367.3213      0.44098752
       4368.1452      0.52408871
       4368.9690      0.59487294
       4369.7929      0.44603215
       4370.6167      0.48705336
       4371.4406      0.55746272
       4372.2644      0.53264391
       4373.0883      0.52759137
       4373.9121      0.49365939
       4374.7360      0.45853860
       4375.5598      0.49010327
       4376.3837      0.54674093
       4377.2076      0.53127469
       4378.0314      0.55883579
       4378.8553      0.45686104
       4379.6791      0.37364252
       4380.5030      0.39058717
       4381.3268      0.46691998
       4382.1507      0.35561210
       4382.9745      0.46548198
       4383.7984      0.50335779
       4384.6222      0.58149475
       4385.4461      0.51311134
       4386.2700      0.32429236
       4387.0938     -0.13773829
       4387.9177      0.13525567
       4388.7415     -0.15164247
       4389.5654      0.22491270
       4390.3892      0.19926090
       4391.2131      0.57610902
       4392.0369      0.70920080
       4392.8608      0.50220017
       4393.6846      0.46200817
       4394.5085      0.54236619
       4395.3324      0.56337647
       4396.1562      0.44798482
       4396.9801      0.43150534
       4397.8039      0.51015459
       4398.6278      0.51356691
       4399.4516      0.50380304
       4400.2755      0.51238840
       4401.0993      0.48931088
       4401.9232      0.50340844
       4402.7470      0.54624446
       4403.5709      0.54282309
       4404.3948      0.47239551
       4405.2186      0.47378727
       4406.0425      0.45372643
       4406.8663      0.50814352
       4407.6902      0.54429671
       4408.5140      0.43716799
       4409.3379      0.49041584
       4410.1617      0.52573552
       4410.9856      0.57207107
       4411.8094      0.46104941
       4412.6333      0.30849745
       4413.4572      0.51517692
       4414.2810      0.56185791
       4415.1049      0.60789531
       4415.9287      0.55950247
       4416.7526      0.56631167
       4417.5764      0.53814374
       4418.4003      0.50100077
       4419.2241      0.52204417
       4420.0480      0.48805903
       4420.8718      0.52231685
       4421.6957      0.55321737
       4422.5196      0.45864404
       4423.3434      0.56733775
       4424.1673      0.58803109
       4424.9911      0.49862583
       4425.8150      0.50423245
       4426.6388      0.47425530
       4427.4627      0.56648189
       4428.2865      0.52712666
       4429.1104      0.54287348
       4429.9342      0.56383602
       4430.7581      0.55730771
       4431.5820      0.51021767
       4432.4058      0.60579088
       4433.2297      0.52472697
       4434.0535      0.51500629
       4434.8774      0.44383140
       4435.7012      0.47371757
       4436.5251      0.47567890
       4437.3489      0.46745352
       4438.1728      0.51878644
       4438.9966      0.59759945
       4439.8205      0.51911435
       4440.6444      0.50332949
       4441.4682      0.53028046
       4442.2921      0.45964034
       4443.1159      0.51827057
       4443.9398      0.53063651
       4444.7636      0.58114638
       4445.5875      0.60959469
       4446.4113      0.59663701
       4447.2352      0.53442370
       4448.0590      0.55073131
       4448.8829      0.54837375
       4449.7068      0.50502467
       4450.5306      0.56889111
       4451.3545      0.60870328
       4452.1783      0.52850863
       4453.0022      0.50348161
       4453.8260      0.54436071
       4454.6499      0.58086673
       4455.4737      0.53711753
       4456.2976      0.56807692
       4457.1214      0.47417385
       4457.9453      0.45184958
       4458.7692      0.55581302
       4459.5930      0.58034353
       4460.4169      0.52442471
       4461.2407      0.58180663
       4462.0646      0.55900644
       4462.8884      0.63211445
       4463.7123      0.51341731
       4464.5361      0.58915640
       4465.3600      0.64966818
       4466.1838      0.43699833
       4467.0077      0.45167851
       4467.8316      0.44224707
       4468.6554      0.48922808
       4469.4793      0.52622923
       4470.3031      0.55516525
       4471.1270      0.45269130
       4471.9508      0.47490834
       4472.7747      0.55229786
       4473.5985      0.56184343
       4474.4224      0.56042023
       4475.2462      0.51617191
       4476.0701      0.51904854
       4476.8940      0.49847737
       4477.7178      0.55589517
       4478.5417      0.59746569
       4479.3655      0.61625076
       4480.1894      0.66574077
       4481.0132      0.58530439
       4481.8371      0.55020599
       4482.6609      0.57382823
       4483.4848      0.39701368
       4484.3086      0.39665643
       4485.1325      0.49727232
       4485.9564      0.46988838
       4486.7802      0.42367500
       4487.6041      0.30567126
       4488.4279      0.37379438
       4489.2518      0.45029869
       4490.0756      0.60198241
       4490.8995      0.61024644
       4491.7233      0.55004317
       4492.5472      0.57684929
       4493.3710      0.55421845
       4494.1949      0.50583919
       4495.0188      0.56507379
       4495.8426      0.52766389
       4496.6665      0.54312389
       4497.4903      0.62339583
       4498.3142      0.55823077
       4499.1380      0.60533117
       4499.9619      0.60339238
       4500.7857      0.52625526
       4501.6096      0.49851499
       4502.4334      0.56592291
       4503.2573      0.63677428
       4504.0812      0.53179047
       4504.9050      0.48713830
       4505.7289      0.53103654
       4506.5527      0.51905508
       4507.3766      0.62585213
       4508.2004      0.53854590
       4509.0243      0.49788165
       4509.8481      0.58291186
       4510.6720      0.64753497
       4511.4958      0.68310557
       4512.3197      0.74704396
       4513.1436      0.55896827
       4513.9674      0.49098463
       4514.7913      0.59074183
       4515.6151      0.57125269
       4516.4390      0.61762284
       4517.2628      0.60000977
       4518.0867      0.57079461
       4518.9105      0.52310385
       4519.7344      0.53971791
       4520.5582      0.59118007
       4521.3821      0.52578850
       4522.2060      0.51544753
       4523.0298      0.57359360
       4523.8537      0.59469147
       4524.6775      0.56699568
       4525.5014      0.48585088
       4526.3252      0.38508168
       4527.1491      0.44055472
       4527.9729      0.48993328
       4528.7968      0.54733027
       4529.6206      0.53199506
       4530.4445      0.57682322
       4531.2684      0.51454865
       4532.0922      0.47628383
       4532.9161      0.60713764
       4533.7399      0.44453982
       4534.5638      0.37725322
       4535.3876      0.45567812
       4536.2115      0.60898208
       4537.0353      0.52323894
       4537.8592      0.54105021
       4538.6830      0.66141677
       4539.5069      0.64830347
       4540.3308      0.58110942
       4541.1546      0.55597771
       4541.9785      0.48763597
       4542.8023      0.62858350
       4543.6262      0.46639756
       4544.4500      0.45654397
       4545.2739      0.57972154
       4546.0977      0.53106269
       4546.9216      0.50597616
       4547.7454      0.51270294
       4548.5693      0.58383522
       4549.3932      0.60709416
       4550.2170      0.61377973
       4551.0409      0.55158137
       4551.8647      0.47247100
       4552.6886      0.55776872
       4553.5124      0.50595989
       4554.3363      0.48350849
       4555.1601      0.51656084
       4555.9840      0.51238056
       4556.8078      0.66113429
       4557.6317      0.63299242
       4558.4555      0.66411037
       4559.2794      0.63042555
       4560.1033      0.59522050
       4560.9271      0.60512455
       4561.7510      0.54678083
       4562.5748      0.52436233
       4563.3987      0.55898715
       4564.2225      0.66032600
       4565.0464      0.64009730
       4565.8702      0.55760043
       4566.6941      0.55072171
       4567.5179      0.63103646
       4568.3418      0.55089352
       4569.1657      0.52960445
       4569.9895      0.53362792
       4570.8134      0.53812610
       4571.6372      0.53175241
       4572.4611      0.55851440
       4573.2849      0.56032939
       4574.1088      0.54016929
       4574.9326      0.60983314
       4575.7565      0.54356294
       4576.5803      0.61964606
       4577.4042      0.62030060
       4578.2281      0.51529567
       4579.0519      0.52282109
       4579.8758      0.58659609
       4580.6996      0.54692424
       4581.5235      0.45871558
       4582.3473      0.51305398
       4583.1712      0.52676826
       4583.9950      0.60360070
       4584.8189      0.56579860
       4585.6427      0.55950538
       4586.4666      0.52613370
       4587.2905      0.45409145
       4588.1143      0.52064203
       4588.9382      0.55714560
       4589.7620      0.52842587
       4590.5859      0.48867977
       4591.4097      0.49079505
       4592.2336      0.41601325
       4593.0574      0.52740996
       4593.8813      0.53166291
       4594.7051      0.57261900
       4595.5290      0.57060648
       4596.3529      0.49132306
       4597.1767      0.47832276
       4598.0006      0.45262841
       4598.8244      0.59643986
       4599.6483      0.56015913
       4600.4721      0.47173524
       4601.2960      0.53649618
       4602.1198      0.54534844
       4602.9437      0.53378584
       4603.7675      0.57839820
       4604.5914      0.57120081
       4605.4153      0.57249417
       4606.2391      0.53998496
       4607.0630      0.59258083
       4607.8868      0.65782111
       4608.7107      0.62944787
       4609.5345      0.55456092
       4610.3584      0.56746855
       4611.1822      0.59886985
       4612.0061      0.53356880
       4612.8299      0.61140009
       4613.6538      0.59159780
       4614.4777      0.62238487
       4615.3015      0.61014425
       4616.1254      0.58449119
       4616.9492      0.55022247
       4617.7731      0.60338672
       4618.5969      0.62310914
       4619.4208      0.52884744
       4620.2446      0.61261201
       4621.0685      0.65504662
       4621.8923      0.54079800
       4622.7162      0.55818288
       4623.5401      0.44694729
       4624.3639      0.57361782
       4625.1878      0.59867828
       4626.0116      0.53870652
       4626.8355      0.62553152
       4627.6593      0.60677363
       4628.4832      0.59351599
       4629.3070      0.64908207
       4630.1309      0.56132529
       4630.9547      0.51156538
       4631.7786      0.65786227
       4632.6025      0.63700960
       4633.4263      0.57631145
       4634.2502      0.49760086
       4635.0740      0.57023656
       4635.8979      0.59743742
       4636.7217      0.58716626
       4637.5456      0.51821358
       4638.3694      0.54247677
       4639.1933      0.56552056
       4640.0171      0.53175406
       4640.8410      0.62637900
       4641.6649      0.59982710
       4642.4887      0.52550088
       4643.3126      0.59949087
       4644.1364      0.57065065
       4644.9603      0.60038494
       4645.7841      0.59912708
       4646.6080      0.55388395
       4647.4318      0.46608707
       4648.2557      0.42921786
       4649.0795      0.55906334
       4649.9034      0.49202752
       4650.7273      0.43269472
       4651.5511      0.56599212
       4652.3750      0.52574586
       4653.1988      0.52880763
       4654.0227      0.59488720
       4654.8465      0.60684222
       4655.6704      0.61746895
       4656.4942      0.60613471
       4657.3181      0.53805072
       4658.1419      0.54817028
       4658.9658      0.52473598
       4659.7897      0.57584990
       4660.6135      0.64261960
       4661.4374      0.55459959
       4662.2612      0.50670183
       4663.0851      0.47964942
       4663.9089      0.51693467
       4664.7328      0.59051585
       4665.5566      0.63913050
       4666.3805      0.52044096
       4667.2043      0.47193313
       4668.0282      0.52777831
       4668.8521      0.62296805
       4669.6759      0.56874346
       4670.4998      0.50442388
       4671.3236      0.49857369
       4672.1475      0.49542551
       4672.9713      0.52355226
       4673.7952      0.57726900
       4674.6190      0.52177057
       4675.4429      0.55330533
       4676.2667      0.53817780
       4677.0906      0.53879338
       4677.9145      0.56353342
       4678.7383      0.50581321
       4679.5622      0.54953434
       4680.3860      0.57527910
       4681.2099      0.56241774
       4682.0337      0.55167079
       4682.8576      0.55223490
       4683.6814      0.60308781
       4684.5053      0.57435902
       4685.3291      0.53213086
       4686.1530      0.52742948
       4686.9769      0.51681917
       4687.8007      0.57246569
       4688.6246      0.63092076
       4689.4484      0.54576312
       4690.2723      0.54967689
       4691.0961      0.51713765
       4691.9200      0.53078820
       4692.7438      0.53810345
       4693.5677      0.57256439
       4694.3915      0.58116551
       4695.2154      0.56037657
       4696.0393      0.57542964
       4696.8631      0.53791241
       4697.6870      0.55749340
       4698.5108      0.57127585
       4699.3347      0.54243848
       4700.1585      0.60279381
       4700.9824      0.57457300
       4701.8062      0.54049269
       4702.6301      0.58924813
       4703.4539      0.57344505
       4704.2778      0.54699159
       4705.1017      0.50880509
       4705.9255      0.54554759
       4706.7494      0.62300826
       4707.5732      0.60266823
       4708.3971      0.59757153
       4709.2209      0.54231170
       4710.0448      0.51065141
       4710.8686      0.58998660
       4711.6925      0.60589884
       4712.5163      0.57015092
       4713.3402      0.59552439
       4714.1641      0.56398668
       4714.9879      0.58053961
       4715.8118      0.59599130
       4716.6356      0.62852727
       4717.4595      0.54304172
       4718.2833      0.59586005
       4719.1072      0.53322599
       4719.9310      0.48997583
       4720.7549      0.50546459
       4721.5787      0.39685400
       4722.4026      0.36044935
       4723.2265      0.51671453
       4724.0503      0.54599168
       4724.8742      0.51843212
       4725.6980      0.53944560
       4726.5219      0.42993279
       4727.3457      0.46818303
       4728.1696      0.75446820
       4728.9934      0.71109267
       4729.8173      0.66188395
       4730.6411      0.63017082
       4731.4650      0.54166766
       4732.2889      0.65747827
       4733.1127      0.66586657
       4733.9366      0.71465921
       4734.7604      0.67394834
       4735.5843      0.60748002
       4736.4081      0.56473498
       4737.2320      0.59786734
       4738.0558      0.54645127
       4738.8797      0.51623924
       4739.7035      0.49021891
       4740.5274      0.54328530
       4741.3513      0.54416926
       4742.1751      0.57393192
       4742.9990      0.54732791
       4743.8228      0.55230803
       4744.6467      0.60109705
       4745.4705      0.62291186
       4746.2944      0.69524982
       4747.1182      0.54808608
       4747.9421      0.39039620
       4748.7659      0.56957709
       4749.5898      0.39080294
       4750.4137      0.32653879
       4751.2375      0.47100279
       4752.0614      0.45201568
       4752.8852      0.50017296
       4753.7091      0.51153594
       4754.5329      0.44549118
       4755.3568      0.47464942
       4756.1806      0.51900744
       4757.0045      0.46882847
       4757.8283      0.49675886
       4758.6522      0.51302224
       4759.4761      0.52733935
       4760.2999      0.52058004
       4761.1238      0.47305452
       4761.9476      0.54439422
       4762.7715      0.60709371
       4763.5953      0.57082974
       4764.4192      0.54663419
       4765.2430      0.60174475
       4766.0669      0.57424718
       4766.8907      0.50304461
       4767.7146      0.47726571
       4768.5385      0.49450136
       4769.3623      0.50794570
       4770.1862      0.48970912
       4771.0100      0.51327785
       4771.8339      0.45740626
       4772.6577      0.49938190
       4773.4816      0.56524785
       4774.3054      0.61282578
       4775.1293      0.52177723
       4775.9531      0.52396174
       4776.7770      0.65363385
       4777.6009      0.49832156
       4778.4247      0.50728565
       4779.2486      0.51317838
       4780.0724      0.50401409
       4780.8963      0.69205485
       4781.7201      0.68460315
       4782.5440      0.53200112
       4783.3678      0.68063883
       4784.1917      0.69537585
       4785.0155      0.64377480
       4785.8394      0.64083984
       4786.6633      0.56463149
       4787.4871      0.60527878
       4788.3110      0.58160743
       4789.1348      0.69248789
       4789.9587      0.61768971
       4790.7825      0.51798930
       4791.6064      0.68895810
       4792.4302      0.54692345
       4793.2541      0.48893269
       4794.0779      0.57637742
       4794.9018      0.67319497
       4795.7257      0.62659880
       4796.5495      0.56675013
       4797.3734      0.56865019
       4798.1972      0.58182714
       4799.0211      0.66426802
       4799.8449      0.62472258
       4800.6688      0.57394119
       4801.4926      0.55787025
       4802.3165      0.54590281
       4803.1403      0.57830261
       4803.9642      0.69025247
       4804.7881      0.58471167
       4805.6119      0.55314696
       4806.4358      0.67965641
       4807.2596      0.74485279
       4808.0835      0.86485700
       4808.9073      0.59096280
       4809.7312      0.40853041
       4810.5550      0.66508042
       4811.3789      0.65562721
       4812.2027      0.66618816
       4813.0266      0.60485411
       4813.8505      0.57938901
       4814.6743      0.57233629
       4815.4982      0.59146013
       4816.3220      0.51685827
       4817.1459      0.55629328
       4817.9697      0.57024486
       4818.7936      0.62813739
       4819.6174      0.53602302
       4820.4413      0.60508102
       4821.2651      0.58865072
       4822.0890      0.50636346
       4822.9129      0.61984109
       4823.7367      0.59601645
       4824.5606      0.67646467
       4825.3844      0.59882471
       4826.2083      0.58320702
       4827.0321      0.59176811
       4827.8560      0.59720206
       4828.6798      0.67762496
       4829.5037      0.66448345
       4830.3275      0.54278427
       4831.1514      0.58991726
       4831.9753      0.58386036
       4832.7991      0.57707171
       4833.6230      0.55694135
       4834.4468      0.58082948
       4835.2707      0.60383250
       4836.0945      0.60150751
       4836.9184      0.56364927
       4837.7422      0.58712620
       4838.5661      0.55991918
       4839.3899      0.46518836
       4840.2138      0.56451605
       4841.0377      0.50380473
       4841.8615      0.53151886
       4842.6854      0.52951631
       4843.5092      0.58449775
       4844.3331      0.63299667
       4845.1569      0.59137672
       4845.9808      0.61093160
       4846.8046      0.59163254
       4847.6285      0.56220187
       4848.4523      0.56000340
       4849.2762      0.58343223
       4850.1001      0.56934580
       4850.9239      0.58936612
       4851.7478      0.47595157
       4852.5716      0.56989703
       4853.3955      0.50332249
       4854.2193      0.51833949
       4855.0432      0.71126582
       4855.8670      0.58166611
       4856.6909      0.51702088
       4857.5147      0.47484585
       4858.3386      0.59366846
       4859.1625      0.63630725
       4859.9863      0.61502593
       4860.8102      0.57208622
       4861.6340      0.53067017
       4862.4579      0.54914769
       4863.2817      0.52302873
       4864.1056      0.51474335
       4864.9294      0.47716876
       4865.7533      0.49158298
       4866.5771      0.47061298
       4867.4010      0.55936341
       4868.2249      0.53880625
       4869.0487      0.56167809
       4869.8726      0.61096117
       4870.6964      0.60991360
       4871.5203      0.68093041
       4872.3441      0.88403353
       4873.1680       1.1942032
       4873.9918       1.3631539
       4874.8157       1.4202226
       4875.6395       1.4215855
       4876.4634       1.4039287
       4877.2873       1.2315460
       4878.1111      0.94840070
       4878.9350      0.74809328
       4879.7588      0.61983357
       4880.5827      0.69427640
       4881.4065      0.67211754
       4882.2304      0.57115615
       4883.0542      0.52157727
       4883.8781      0.43662341
       4884.7019      0.50361030
       4885.5258      0.51728025
       4886.3497      0.51218854
       4887.1735      0.51435148
       4887.9974      0.48076473
       4888.8212      0.51545550
       4889.6451      0.58066875
       4890.4689      0.55390662
       4891.2928      0.63741179
       4892.1166      0.61689955
       4892.9405      0.57617322
       4893.7643      0.55108770
       4894.5882      0.55802058
       4895.4121      0.52679833
       4896.2359      0.50207846
       4897.0598      0.49877840
       4897.8836      0.54342281
       4898.7075      0.58941810
       4899.5313      0.49064593
       4900.3552      0.59727231
       4901.1790      0.58398050
       4902.0029      0.56158369
       4902.8267      0.58162869
       4903.6506      0.59300835
       4904.4745      0.52361422
       4905.2983      0.52072226
       4906.1222      0.51531536
       4906.9460      0.56534662
       4907.7699      0.52889851
       4908.5937      0.59423072
       4909.4176      0.62282445
       4910.2414      0.66451997
       4911.0653      0.68176388
       4911.8891      0.60767432
       4912.7130      0.63954455
       4913.5368      0.64310767
       4914.3607      0.62257913
       4915.1846      0.57961359
       4916.0084      0.57664867
       4916.8323      0.54739189
       4917.6561      0.65669295
       4918.4800      0.58820583
       4919.3038      0.55594648
       4920.1277      0.60333062
       4920.9515      0.53041934
       4921.7754      0.60282125
       4922.5992      0.65832760
       4923.4231      0.57089484
       4924.2470      0.58014914
       4925.0708      0.59003690
       4925.8947      0.57337627
       4926.7185      0.61888988
       4927.5424      0.70499232
       4928.3662      0.62410553
       4929.1901      0.55202630
       4930.0139      0.55555054
       4930.8378      0.66040405
       4931.6616      0.55097092
       4932.4855      0.52411409
       4933.3094      0.64628678
       4934.1332      0.64842619
       4934.9571      0.56792203
       4935.7809      0.52558952
       4936.6048      0.56610988
       4937.4286      0.61600605
       4938.2525      0.54835783
       4939.0763      0.53951266
       4939.9002      0.61843786
       4940.7240      0.65554128
       4941.5479      0.64572585
       4942.3718      0.61440706
       4943.1956      0.64907084
       4944.0195      0.64686239
       4944.8433      0.62974841
       4945.6672      0.61832588
       4946.4910      0.67176915
       4947.3149      0.61158196
       4948.1387      0.56094136
       4948.9626      0.56343925
       4949.7864      0.60498785
       4950.6103      0.60999953
       4951.4342      0.66870084
       4952.2580      0.56783118
       4953.0819      0.56367808
       4953.9057      0.53328124
       4954.7296      0.54559883
       4955.5534      0.57199963
       4956.3773      0.49959158
       4957.2011      0.64759018
       4958.0250      0.60264419
       4958.8488      0.59058715
       4959.6727      0.58077076
       4960.4966      0.63364172
       4961.3204      0.73260255
       4962.1443      0.69220397
       4962.9681      0.59595818
       4963.7920      0.58186956
       4964.6158      0.65242263
       4965.4397      0.64217669
       4966.2635      0.56713674
       4967.0874      0.55435512
       4967.9112      0.62646810
       4968.7351      0.57666021
       4969.5590      0.55577054
       4970.3828      0.58312389
       4971.2067      0.61283694
       4972.0305      0.65416233
       4972.8544      0.69066839
       4973.6782      0.72097139
       4974.5021      0.65774718
       4975.3259      0.70648382
       4976.1498      0.82501621
       4976.9736      0.72141280
       4977.7975      0.70760695
       4978.6214      0.66730829
       4979.4452      0.63801807
       4980.2691      0.62803882
       4981.0929      0.57282407
       4981.9168      0.62304593
       4982.7406      0.61548706
       4983.5645      0.58829432
       4984.3883      0.53279926
       4985.2122      0.53899767
       4986.0360      0.58432263
       4986.8599      0.60298355
       4987.6838      0.62026181
       4988.5076      0.60484959
       4989.3315      0.59234118
       4990.1553      0.57462318
       4990.9792      0.59587041
       4991.8030      0.60321604
       4992.6269      0.66071893
       4993.4507      0.63012302
       4994.2746      0.59206385
       4995.0984      0.58254996
       4995.9223      0.59544459
       4996.7462      0.63699382
       4997.5700      0.66817933
       4998.3939      0.61405034
       4999.2177      0.55402840
       5000.0416      0.54099652
       5000.8654      0.56017492
       5001.6893      0.63092286
       5002.5131      0.56713752
       5003.3370      0.59501061
       5004.1608      0.56604913
       5004.9847      0.64907636
       5005.8086      0.65306259
       5006.6324      0.59661336
       5007.4563      0.63646854
       5008.2801      0.61071583
       5009.1040      0.53783052
       5009.9278      0.59133313
       5010.7517      0.55637469
       5011.5755      0.59230839
       5012.3994      0.53289093
       5013.2232      0.62814250
       5014.0471      0.64657584
       5014.8710      0.44100588
       5015.6948      0.56904907
       5016.5187      0.45546000
       5017.3425      0.61779445
       5018.1664      0.61832229
       5018.9902      0.74784843
       5019.8141      0.60059491
       5020.6379      0.64704106
       5021.4618      0.64800967
       5022.2856      0.81718460
       5023.1095      0.89223929
       5023.9334      0.99178003
       5024.7572      0.89304626
       5025.5811      0.98967803
       5026.4049      0.78432767
       5027.2288      0.74783331
       5028.0526      0.73540402
       5028.8765      0.61587975
       5029.7003      0.55093015
       5030.5242      0.63992946
       5031.3480      0.62346537
       5032.1719      0.53900054
       5032.9958      0.53256261
       5033.8196      0.54330609
       5034.6435      0.54942410
       5035.4673      0.58501550
       5036.2912      0.56769482
       5037.1150      0.53868999
       5037.9389      0.68233216
       5038.7627      0.82028972
       5039.5866      0.60729548
       5040.4104      0.67210441
       5041.2343      0.48734229
       5042.0582      0.55583252
       5042.8820      0.69799353
       5043.7059      0.56157159
       5044.5297      0.63544334
       5045.3536      0.68895062
       5046.1774      0.66487319
       5047.0013      0.61347021
       5047.8251      0.65575981
       5048.6490      0.57187875
       5049.4728      0.51106046
       5050.2967      0.57699840
       5051.1206      0.58420449
       5051.9444      0.60461641
       5052.7683      0.67907306
       5053.5921      0.62286528
       5054.4160      0.66428647
       5055.2398      0.61020358
       5056.0637      0.66796853
       5056.8875      0.70187021
       5057.7114      0.66568122
       5058.5352      0.56942384
       5059.3591      0.61587224
       5060.1830      0.58197633
       5061.0068      0.55329247
       5061.8307      0.66243735
       5062.6545      0.77790500
       5063.4784      0.74058575
       5064.3022      0.61070571
       5065.1261      0.57026031
       5065.9499      0.62785999
       5066.7738      0.48376490
       5067.5976      0.42155398
       5068.4215      0.63334552
       5069.2454      0.46735873
       5070.0692      0.74277594
       5070.8931      0.83333933
       5071.7169      0.74139780
       5072.5408      0.61480829
       5073.3646      0.58697521
       5074.1885      0.67973859
       5075.0123      0.62851235
       5075.8362      0.66701042
       5076.6600      0.91289784
       5077.4839      0.67143624
       5078.3078      0.64334316
       5079.1316      0.76459323
       5079.9555      0.71966562
       5080.7793      0.69860964
       5081.6032      0.72105134
       5082.4270      0.59340089
       5083.2509      0.67103346
       5084.0747      0.77188239
       5084.8986      0.65336354
       5085.7224      0.50249977
       5086.5463      0.54112758
       5087.3702      0.76261903
       5088.1940      0.67063521
       5089.0179      0.69474093
       5089.8417      0.68746365
       5090.6656      0.71963289
       5091.4894      0.67490651
       5092.3133      0.67628281
       5093.1371      0.58989123
       5093.9610      0.56713201
       5094.7848      0.54278537
       5095.6087      0.65878920
       5096.4326      0.77484905
       5097.2564      0.76371666
       5098.0803      0.73372155
       5098.9041      0.73176867
       5099.7280      0.68411469
       5100.5518      0.58965868
       5101.3757      0.55556712
       5102.1995      0.54277981
       5103.0234      0.49431250
       5103.8472      0.50797352
       5104.6711      0.64069141
       5105.4950      0.56644077
       5106.3188      0.59419118
       5107.1427      0.65794863
       5107.9665      0.65011129
       5108.7904      0.54888360
       5109.6142      0.62890143
       5110.4381      0.66321652
       5111.2619      0.63355039
       5112.0858      0.67374926
       5112.9096      0.66653937
       5113.7335      0.65203615
       5114.5574      0.65569756
       5115.3812      0.61895304
       5116.2051      0.64212289
       5117.0289      0.65806926
       5117.8528      0.63231493
       5118.6766      0.63324686
       5119.5005      0.60231475
       5120.3243      0.65489536
       5121.1482      0.61062282
       5121.9720      0.64079847
       5122.7959      0.63388338
       5123.6198      0.70884649
       5124.4436      0.72265539
       5125.2675      0.64602228
       5126.0913      0.59602813
       5126.9152      0.44013763
       5127.7390      0.53232796
       5128.5629      0.40961998
       5129.3867      0.38642586
       5130.2106      0.44727151
       5131.0344      0.61415284
       5131.8583      0.65490482
       5132.6822      0.59518528
       5133.5060      0.57028193
       5134.3299      0.57435330
       5135.1537      0.64838259
       5135.9776      0.63478335
       5136.8014      0.68588024
       5137.6253      0.63454716
       5138.4491      0.67097471
       5139.2730      0.69635247
       5140.0968      0.63161956
       5140.9207      0.60331429
       5141.7446      0.61119928
       5142.5684      0.65483419
       5143.3923      0.68389046
       5144.2161      0.71866334
       5145.0400      0.67538570
       5145.8638      0.70951505
       5146.6877      0.70434071
       5147.5115      0.64982852
       5148.3354      0.68140828
       5149.1592      0.65935717
       5149.9831      0.56953869
       5150.8070      0.58675067
       5151.6308      0.71081351
       5152.4547      0.71264711
       5153.2785      0.68155079
       5154.1024      0.50958008
       5154.9262      0.81100439
       5155.7501      0.63740560
       5156.5739      0.60916520
       5157.3978      0.69269419
       5158.2216      0.65015314
       5159.0455      0.64685776
       5159.8694      0.74679665
       5160.6932      0.71626345
       5161.5171      0.72871384
       5162.3409      0.65750088
       5163.1648      0.62632918
       5163.9886      0.56232731
       5164.8125      0.55356423
       5165.6363      0.68078267
       5166.4602      0.62349353
       5167.2840      0.67924992
       5168.1079      0.61057803
       5168.9318      0.57755520
       5169.7556      0.54164959
       5170.5795      0.58152098
       5171.4033      0.66957737
       5172.2272      0.54688810
       5173.0510      0.70703956
       5173.8749      0.71559881
       5174.6987      0.68044057
       5175.5226      0.66673448
       5176.3464      0.71190016
       5177.1703      0.64735060
       5177.9942      0.73303148
       5178.8180      0.57154947
       5179.6419      0.52446686
       5180.4657      0.66739420
       5181.2896      0.67690697
       5182.1134      0.59728610
       5182.9373      0.63670989
       5183.7611      0.83629467
       5184.5850      0.71258970
       5185.4088      0.79259885
       5186.2327      0.59052064
       5187.0566      0.44887976
       5187.8804      0.62200113
       5188.7043      0.67950605
       5189.5281      0.49871516
       5190.3520      0.44576732
       5191.1758      0.60082647
       5191.9997      0.63852363
       5192.8235      0.62133867
       5193.6474      0.62086516
       5194.4712      0.67411958
       5195.2951      0.61154253
       5196.1190      0.58660542
       5196.9428      0.65182474
       5197.7667      0.71082456
       5198.5905      0.64381004
       5199.4144      0.62897678
       5200.2382      0.60329191
       5201.0621      0.61930286
       5201.8859      0.63410886
       5202.7098      0.67219892
       5203.5336      0.71558011
       5204.3575      0.68475883
       5205.1814      0.69644252
       5206.0052      0.64661777
       5206.8291      0.64792540
       5207.6529      0.69062172
       5208.4768      0.64478384
       5209.3006      0.69829103
       5210.1245      0.69541131
       5210.9483      0.63720713
       5211.7722      0.69285078
       5212.5960      0.54138266
       5213.4199      0.45063368
       5214.2438      0.45885104
       5215.0676      0.82796727
       5215.8915      0.45904311
       5216.7153      0.76796017
       5217.5392      0.71819167
       5218.3630      0.67290830
       5219.1869      0.73901630
       5220.0107      0.73036437
       5220.8346      0.64960446
       5221.6584      0.64043525
       5222.4823      0.67982639
       5223.3062      0.67254134
       5224.1300      0.64912188
       5224.9539      0.65740507
       5225.7777      0.69691258
       5226.6016      0.65074534
       5227.4254      0.61987734
       5228.2493      0.58972760
       5229.0731      0.58013776
       5229.8970      0.56977555
       5230.7208      0.67654121
       5231.5447      0.68137375
       5232.3686      0.65174456
       5233.1924      0.69398781
       5234.0163      0.78963813
       5234.8401      0.70257741
       5235.6640      0.61257416
       5236.4878      0.61178232
       5237.3117      0.76201715
       5238.1355      0.67682286
       5238.9594      0.70876771
       5239.7832      0.63174203
       5240.6071      0.59570195
       5241.4310      0.61357519
       5242.2548      0.69497859
       5243.0787      0.73051111
       5243.9025      0.68338154
       5244.7264      0.61578012
       5245.5502      0.58305753
       5246.3741      0.81461353
       5247.1979      0.64625954
       5248.0218      0.59284152
       5248.8456      0.86021375
       5249.6695      0.61963846
       5250.4934      0.68172777
       5251.3172      0.55390027
       5252.1411      0.67603462
       5252.9649      0.55354688
       5253.7888      0.65457223
       5254.6126      0.61237048
       5255.4365      0.54820574
       5256.2603      0.62283459
       5257.0842      0.69349135
       5257.9080      0.62434413
       5258.7319      0.70565645
       5259.5557      0.76950959
       5260.3796      0.54118781
       5261.2035      0.57289931
       5262.0273      0.67905452
       5262.8512      0.58554646
       5263.6750      0.45643326
       5264.4989      0.38567984
       5265.3227      0.44585154
       5266.1466      0.38929519
       5266.9704             NaN
       5267.7943             NaN
       5268.6181             NaN
       5269.4420             NaN
       5270.2659             NaN
       5271.0897             NaN
       5271.9136             NaN
       5272.7374             NaN
       5273.5613             NaN
       5274.3851             NaN
       5275.2090             NaN
       5276.0328             NaN
       5276.8567             NaN
       5277.6805             NaN
       5278.5044             NaN
       5279.3283             NaN
       5280.1521             NaN
       5280.9760             NaN
       5281.7998             NaN
       5282.6237             NaN
       5283.4475             NaN
       5284.2714             NaN
       5285.0952             NaN
       5285.9191             NaN
       5286.7429             NaN
       5287.5668             NaN
       5288.3907             NaN
       5289.2145             NaN
       5290.0384             NaN
       5290.8622             NaN
       5291.6861             NaN
       5292.5099             NaN
       5293.3338             NaN
       5294.1576             NaN
       5294.9815             NaN
       5295.8053             NaN
       5296.6292             NaN
       5297.4531             NaN
       5298.2769             NaN
       5299.1008             NaN
       5299.9246             NaN
       5300.7485             NaN
       5301.5723             NaN
       5302.3962             NaN
       5303.2200             NaN
       5304.0439             NaN
       5304.8677             NaN
       5305.6916             NaN
       5306.5155             NaN
       5307.3393             NaN
       5308.1632             NaN
       5308.9870             NaN
       5309.8109             NaN
       5310.6347             NaN
       5311.4586             NaN
       5312.2824             NaN
       5313.1063             NaN
       5313.9301             NaN
       5314.7540             NaN
       5315.5779             NaN
       5316.4017             NaN
       5317.2256             NaN
       5318.0494             NaN
       5318.8733             NaN
       5319.6971             NaN
       5320.5210             NaN
       5321.3448             NaN
       5322.1687             NaN
       5322.9925             NaN
       5323.8164             NaN
       5324.6403             NaN
       5325.4641             NaN
       5326.2880             NaN
       5327.1118             NaN
       5327.9357             NaN
       5328.7595             NaN
       5329.5834             NaN
       5330.4072             NaN
       5331.2311             NaN
       5332.0549             NaN
       5332.8788             NaN
       5333.7027             NaN
       5334.5265             NaN
       5335.3504             NaN
       5336.1742             NaN
       5336.9981             NaN
       5337.8219             NaN
       5338.6458             NaN
       5339.4696             NaN
       5340.2935      0.66111642
       5341.1173      0.67249667
       5341.9412      0.71079176
       5342.7651      0.86441574
       5343.5889      0.65721996
       5344.4128      0.61750863
       5345.2366      0.62711337
       5346.0605      0.49357977
       5346.8843      0.70321394
       5347.7082      0.87515480
       5348.5320      0.94851248
       5349.3559      0.86933215
       5350.1797      0.52823390
       5351.0036      0.59662731
       5351.8275      0.73987106
       5352.6513      0.62813086
       5353.4752      0.71978913
       5354.2990      0.83789896
       5355.1229      0.77885159
       5355.9467      0.72208855
       5356.7706      0.63032388
       5357.5944      0.66900027
       5358.4183      0.59987734
       5359.2421      0.62954511
       5360.0660      0.75415382
       5360.8899      0.67324653
       5361.7137      0.69542313
       5362.5376      0.74680378
       5363.3614      0.66894513
       5364.1853      0.61886176
       5365.0091      0.76407300
       5365.8330      0.72602577
       5366.6568      0.83288120
       5367.4807      0.74868151
       5368.3045      0.77141937
       5369.1284      0.58987430
       5369.9523      0.67668484
       5370.7761      0.82857982
       5371.6000       1.0018799
       5372.4238       1.3442662
       5373.2477       1.1621325
       5374.0715      0.58758969
       5374.8954      0.17543124
       5375.7192      0.21629204
       5376.5431      0.11658633
       5377.3669      0.31840311
       5378.1908      0.66649037
       5379.0147      0.71223621
       5379.8385      0.69130054
       5380.6624      0.75981223
       5381.4862      0.60218267
       5382.3101      0.54761135
       5383.1339      0.66542863
       5383.9578      0.74028442
       5384.7816      0.69413452
       5385.6055      0.73017033
       5386.4293      0.64025474
       5387.2532      0.71411213
       5388.0771      0.74072436
       5388.9009      0.63746764
       5389.7248      0.71587812
       5390.5486      0.68795488
       5391.3725      0.52496541
       5392.1963      0.55883759
       5393.0202      0.66077996
       5393.8440      0.71575193
       5394.6679      0.55472852
       5395.4917      0.61799944
       5396.3156      0.59521990
       5397.1395      0.70861741
       5397.9633      0.83459606
       5398.7872      0.66784639
       5399.6110      0.71307139
       5400.4349      0.60164562
       5401.2587      0.67026927
       5402.0826      0.78445652
       5402.9064      0.68153669
       5403.7303      0.55790177
       5404.5541      0.95190280
       5405.3780      0.77050910
       5406.2019      0.71062357
       5407.0257      0.66634889
       5407.8496      0.62935294
       5408.6734      0.71599916
       5409.4973      0.68715180
       5410.3211      0.72405305
       5411.1450      0.66471537
       5411.9688      0.81297411
       5412.7927      0.74200154
       5413.6165      0.71407433
       5414.4404      0.78447192
       5415.2643      0.59884790
       5416.0881      0.85255463
       5416.9120      0.64109803
       5417.7358      0.64325863
       5418.5597      0.51088511
       5419.3835      0.56392553
       5420.2074      0.59872260
       5421.0312      0.89754586
       5421.8551      0.81202144
       5422.6789      0.57833789
       5423.5028       1.0841649
       5424.3267      0.83188056
       5425.1505      0.60659548
       5425.9744      0.72553393
       5426.7982      0.72787816
       5427.6221      0.67599966
       5428.4459      0.76071324
       5429.2698      0.72525683
       5430.0936      0.69301389
       5430.9175      0.68798124
       5431.7413      0.64922086
       5432.5652      0.71186243
       5433.3891      0.71458960
       5434.2129      0.69134436
       5435.0368      0.64753898
       5435.8606      0.74717819
       5436.6845      0.80206604
       5437.5083      0.68443386
       5438.3322      0.61045909
       5439.1560      0.62818110
       5439.9799      0.82098576
       5440.8037      0.68472793
       5441.6276      0.63054345
       5442.4515      0.65737491
       5443.2753      0.90496122
       5444.0992      0.79953835
       5444.9230      0.45859470
       5445.7469      0.73999593
       5446.5707      0.67643583
       5447.3946      0.72197806
       5448.2184      0.65858542
       5449.0423      0.64970703
       5449.8661      0.67812060
       5450.6900      0.64514469
       5451.5139      0.61643826
       5452.3377      0.70358287
       5453.1616      0.78256829
       5453.9854      0.64012991
       5454.8093      0.92408343
       5455.6331      0.66453119
       5456.4570      0.72382804
       5457.2808      0.52986080
       5458.1047      0.66185517
       5458.9285      0.83829487
       5459.7524      0.71967634
       5460.5763      0.56666342
       5461.4001      0.65086647
       5462.2240      0.72684809
       5463.0478      0.84060309
       5463.8717      0.84082528
       5464.6955      0.76477461
       5465.5194      0.73000284
       5466.3432      0.79782716
       5467.1671      0.80452261
       5467.9909      0.79660676
       5468.8148      0.76016577
       5469.6387      0.79825742
       5470.4625      0.75399505
       5471.2864      0.82221524
       5472.1102      0.61721654
       5472.9341      0.73899469
       5473.7579      0.76334249
       5474.5818      0.84316360
       5475.4056      0.61630312
       5476.2295      0.69118735
       5477.0533      0.66644019
       5477.8772      0.61612939
       5478.7011      0.61009069
       5479.5249      0.73588203
       5480.3488      0.71709999
       5481.1726      0.67541227
       5481.9965      0.70690683
       5482.8203      0.58444272
       5483.6442      0.45382989
       5484.4680      0.50997091
       5485.2919      0.99890962
       5486.1157      0.60595713
       5486.9396      0.50171655
       5487.7635      0.43709140
       5488.5873      0.59232459
       5489.4112      0.41359292
       5490.2350      0.50308166
       5491.0589      0.69220222
       5491.8827      0.76919017
       5492.7066      0.49159093
       5493.5304      0.50115904
       5494.3543      0.70262848
       5495.1781      0.52811475
       5496.0020      0.74149247
       5496.8259      0.78726212
       5497.6497      0.65362163
       5498.4736      0.86356816
       5499.2974      0.70543561
       5500.1213      0.58843017
       5500.9451      0.60168866
       5501.7690      0.63368697
       5502.5928      0.72717294
       5503.4167      0.75905614
       5504.2405      0.82101191
       5505.0644      0.83371124
       5505.8883      0.64955315
       5506.7121      0.61788160
       5507.5360      0.68186208
       5508.3598      0.70448809
       5509.1837      0.84828284
       5510.0075      0.82446944
       5510.8314      0.69881252
       5511.6552      0.68535965
       5512.4791      0.63500363
       5513.3029      0.70144441
       5514.1268      0.68025660
       5514.9507      0.76426023
       5515.7745      0.69285866
       5516.5984      0.72632207
       5517.4222      0.66629280
       5518.2461      0.57318080
       5519.0699      0.54455166
       5519.8938      0.79574574
       5520.7176      0.75586081
       5521.5415      0.60138982
       5522.3653      0.94384943
       5523.1892      0.70895339
       5524.0131      0.57985691
       5524.8369      0.74001975
       5525.6608      0.76728798
       5526.4846      0.73715951
       5527.3085      0.60739552
       5528.1323      0.58835953
       5528.9562      0.58913126
       5529.7800      0.50142161
       5530.6039      0.54434059
       5531.4277      0.70824141
       5532.2516      0.88763970
       5533.0755      0.75707166
       5533.8993      0.75112213
       5534.7232      0.72531423
       5535.5470      0.74392654
       5536.3709      0.73525120
       5537.1947      0.61819456
       5538.0186      0.55228912
       5538.8424      0.62704026
       5539.6663      0.70243510
       5540.4901      0.69030538
       5541.3140      0.65256755
       5542.1379      0.76883420
       5542.9617      0.70106280
       5543.7856      0.78266890
       5544.6094      0.77875147
       5545.4333      0.75182626
       5546.2571      0.75015158
       5547.0810      0.69233991
       5547.9048      0.71889937
       5548.7287      0.76856618
       5549.5525      0.75001882
       5550.3764      0.70155415
       5551.2003      0.61604742
       5552.0241      0.60825520
       5552.8480      0.58438681
       5553.6718      0.76181878
       5554.4957      0.72359738
       5555.3195      0.60995119
       5556.1434      0.47730188
       5556.9672      0.61889367
       5557.7911      0.71049353
       5558.6149      0.54522796
       5559.4388      0.57519832
       5560.2627      0.56940946
       5561.0865      0.71820470
       5561.9104      0.75544695
       5562.7342      0.93890744
       5563.5581      0.65212893
       5564.3819      0.77271600
       5565.2058      0.39114487
       5566.0296      0.89588202
       5566.8535      0.88449654
       5567.6773      0.57079243
       5568.5012      0.58345337
       5569.3251      0.77281157
       5570.1489      0.83840100
       5570.9728      0.72808827
       5571.7966      0.64413493
       5572.6205      0.70632637
       5573.4443      0.66610478
       5574.2682      0.70702704
       5575.0920      0.74827128
       5575.9159      0.80927863
       5576.7397      0.57843881
       5577.5636      0.71763150
       5578.3875      0.70158034
       5579.2113      0.66755262
       5580.0352      0.61831753
       5580.8590      0.57592692
       5581.6829      0.66648594
       5582.5067      0.75859313
       5583.3306      0.82931500
       5584.1544      0.58513282
       5584.9783      0.79619757
       5585.8021      0.82110754
       5586.6260      0.72597137
       5587.4499      0.57676050
       5588.2737      0.27289941
       5589.0976      0.39335341
       5589.9214       1.1267963
       5590.7453       1.2685745
       5591.5691       1.0755773
       5592.3930      0.90960334
       5593.2168      0.66102623
       5594.0407      0.49679796
       5594.8645      0.64689661
       5595.6884      0.72782924
       5596.5123      0.83087312
       5597.3361      0.62404445
       5598.1600      0.68669617
       5598.9838      0.77192369
       5599.8077      0.76308410
       5600.6315      0.86013675
       5601.4554      0.70270629
       5602.2792      0.68714904
       5603.1031      0.77099764
       5603.9269      0.73927320
       5604.7508      0.73640109
       5605.5747      0.71688312
       5606.3985      0.76822261
       5607.2224      0.76086495
       5608.0462      0.73338209
       5608.8701      0.74214656
       5609.6939      0.73271285
       5610.5178      0.70494326
       5611.3416      0.53841790
       5612.1655      0.65813624
       5612.9893      0.76509760
       5613.8132      0.71856751
       5614.6370      0.71037556
       5615.4609      0.61698679
       5616.2848      0.61724259
       5617.1086      0.71471687
       5617.9325      0.62227444
       5618.7563      0.71094852
       5619.5802      0.83541379
       5620.4040      0.84216356
       5621.2279      0.80112653
       5622.0517      0.62971400
       5622.8756      0.70759979
       5623.6994      0.72045824
       5624.5233      0.64529504
       5625.3472      0.65307761
       5626.1710      0.70303107
       5626.9949      0.64310415
       5627.8187      0.55997024
       5628.6426      0.67564596
       5629.4664      0.61897935
       5630.2903      0.81574113
       5631.1141      0.78015394
       5631.9380      0.60546805
       5632.7618      0.71565767
       5633.5857      0.59864875
       5634.4096      0.71697935
       5635.2334      0.76990283
       5636.0573      0.76195111
       5636.8811      0.76284786
       5637.7050      0.68353719
       5638.5288      0.65979790
       5639.3527      0.65582962
       5640.1765      0.69757840
       5641.0004      0.72172313
       5641.8242      0.70987422
       5642.6481      0.66420665
       5643.4720      0.56024694
       5644.2958      0.79658440
       5645.1197      0.71212768
       5645.9435      0.71275274
       5646.7674      0.75553800
       5647.5912      0.56362583
       5648.4151      0.65826416
       5649.2389      0.69186031
       5650.0628      0.66057684
       5650.8866      0.74968344
       5651.7105      0.75479787
       5652.5344      0.58548931
       5653.3582      0.62684989
       5654.1821      0.76601877
       5655.0059      0.70306139
       5655.8298      0.66209105
       5656.6536      0.68990585
       5657.4775      0.75060470
       5658.3013      0.76806174
       5659.1252      0.72845757
       5659.9490      0.67737825
       5660.7729      0.64388659
       5661.5968      0.62547918
       5662.4206      0.86808245
       5663.2445      0.69890690
       5664.0683      0.83581105
       5664.8922      0.74937355
       5665.7160      0.77059616
       5666.5399      0.71296719
       5667.3637      0.75774688
       5668.1876      0.74369961
       5669.0114      0.69560852
       5669.8353      0.67270688
       5670.6592      0.70879155
       5671.4830      0.68361056
       5672.3069      0.76396502
       5673.1307      0.60679871
       5673.9546      0.56107436
       5674.7784      0.67217782
       5675.6023      0.65952227
       5676.4261      0.76450336
       5677.2500      0.74424968
       5678.0738      0.71633336
       5678.8977      0.81506002
       5679.7216      0.58203551
       5680.5454      0.60759064
       5681.3693      0.58632208
       5682.1931      0.67893806
       5683.0170      0.62393906
       5683.8408      0.81649647
       5684.6647      0.84481120
       5685.4885      0.62425882
       5686.3124      0.67924775
       5687.1362      0.63144107
       5687.9601      0.70466890
       5688.7840      0.73455900
       5689.6078      0.75269329
       5690.4317      0.67802646
       5691.2555      0.83191155
       5692.0794      0.74485972
       5692.9032      0.73312132
       5693.7271      0.63039719
       5694.5509      0.75667551
       5695.3748      0.71778327
       5696.1986      0.68379243
       5697.0225      0.75735391
       5697.8464      0.64253623
       5698.6702      0.72459052
       5699.4941      0.67076327
       5700.3179      0.69191745
       5701.1418      0.72455715
       5701.9656      0.65663803
       5702.7895      0.74073408
       5703.6133      0.72295933
       5704.4372      0.69009507
       5705.2610      0.71863477
       5706.0849      0.71808544
       5706.9088      0.65915934
       5707.7326      0.66454006
       5708.5565      0.70418602
       5709.3803      0.62390887
       5710.2042      0.59594250
       5711.0280      0.62834898
       5711.8519      0.72330658
       5712.6757      0.78843517
       5713.4996      0.67758891
       5714.3234      0.65846891
       5715.1473      0.65269844
       5715.9712      0.64860358
       5716.7950      0.69170810
       5717.6189      0.72987966
       5718.4427      0.77645650
       5719.2666      0.69715036
       5720.0904      0.69051384
       5720.9143      0.68879309
       5721.7381      0.68602352
       5722.5620      0.76240486
       5723.3858      0.76247334
       5724.2097      0.67118211
       5725.0336      0.65163840
       5725.8574      0.65848045
       5726.6813      0.70591636
       5727.5051      0.75962553
       5728.3290      0.80403642
       5729.1528      0.74357093
       5729.9767      0.84106920
       5730.8005      0.71128602
       5731.6244      0.63588271
       5732.4482      0.64479502
       5733.2721      0.65632776
       5734.0960      0.63702368
       5734.9198      0.75281256
       5735.7437      0.63611962
       5736.5675      0.62648788
       5737.3914      0.56587990
       5738.2152      0.68610064
       5739.0391      0.79806069
       5739.8629      0.57596319
       5740.6868      0.47931410
       5741.5106      0.58761123
       5742.3345      0.91217963
       5743.1584      0.70632213
       5743.9822      0.68643184
       5744.8061      0.63936338
       5745.6299      0.63334381
       5746.4538      0.94232689
       5747.2776      0.65683183
       5748.1015      0.66398224
       5748.9253      0.70451244
       5749.7492      0.71836710
       5750.5730      0.61259382
       5751.3969      0.66915309
       5752.2208      0.98850338
       5753.0446       1.0378488
       5753.8685      0.57755124
       5754.6923      0.55516664
       5755.5162       1.0075208
       5756.3400      0.55481028
       5757.1639      0.58194341
       5757.9877      0.59600533
       5758.8116      0.88657738
       5759.6354      0.74467676
       5760.4593      0.83124818
       5761.2832      0.95796839
       5762.1070      0.72992664
       5762.9309      0.75942990
       5763.7547      0.27762545
       5764.5786      0.49442821
       5765.4024      0.67735433
       5766.2263      0.70403496
       5767.0501      0.64223085
       5767.8740      0.74046591
       5768.6978      0.69818644
       5769.5217      0.81913092
       5770.3456      0.89389969
       5771.1694      0.76761254
       5771.9933      0.73199741
       5772.8171      0.76868263
       5773.6410      0.75719995
       5774.4648      0.69702108
       5775.2887      0.73312504
       5776.1125      0.72674504
       5776.9364      0.72673015
       5777.7602      0.70312853
       5778.5841      0.79473666
       5779.4080      0.78986803
       5780.2318      0.73422589
       5781.0557      0.62738899
       5781.8795      0.88235113
       5782.7034      0.38255931
       5783.5272      0.74513640
       5784.3511      0.63804251
       5785.1749      0.62814140
       5785.9988      0.46101624
       5786.8226      0.88639081
       5787.6465      0.59487961
       5788.4704      0.39355622
       5789.2942      0.54689183
       5790.1181      0.82374175
       5790.9419      0.91257335
       5791.7658      0.45645812
       5792.5896      0.76020119
       5793.4135      0.67071787
       5794.2373      0.63173151
       5795.0612      0.85133686
       5795.8850      0.75030913
       5796.7089      0.72889631
       5797.5328      0.59887999
       5798.3566      0.78679015
       5799.1805      0.78217882
       5800.0043      0.73257605
       5800.8282      0.62043760
       5801.6520      0.80436999
       5802.4759      0.73073730
       5803.2997      0.71875148
       5804.1236      0.76471569
       5804.9474      0.67932264
       5805.7713      0.62335227
       5806.5952      0.62447245
       5807.4190      0.68418943
       5808.2429      0.66848405
       5809.0667      0.54549978
       5809.8906      0.75563816
       5810.7144       1.0763090
       5811.5383      0.64620613
       5812.3621      0.66413198
       5813.1860      0.79854016
       5814.0098      0.58141364
       5814.8337      0.29728512
       5815.6576      0.46181907
       5816.4814      0.51305665
       5817.3053      0.66695858
       5818.1291      0.76510191
       5818.9530      0.67478855
       5819.7768      0.66669059
       5820.6007      0.64666202
       5821.4245      0.35580654
       5822.2484      0.92379321
       5823.0722      0.58491973
       5823.8961      0.60506181
       5824.7200      0.74827168
       5825.5438      0.39198402
       5826.3677      0.58161566
       5827.1915      0.61679595
       5828.0154      0.67589909
       5828.8392      0.70200096
       5829.6631      0.71213731
       5830.4869      0.67143445
       5831.3108      0.60901394
       5832.1346      0.90601662
       5832.9585      0.61309895
       5833.7824      0.88938039
       5834.6062      0.71143151
       5835.4301      0.65905172
       5836.2539      0.61168452
       5837.0778      0.74894288
       5837.9016      0.82732303
       5838.7255      0.73345749
       5839.5493      0.69940678
       5840.3732      0.73071596
       5841.1970      0.67594736
       5842.0209      0.63208444
       5842.8448      0.68347736
       5843.6686      0.72025064
       5844.4925      0.53286118
       5845.3163      0.49091522
       5846.1402      0.32529404
       5846.9640      0.39612346
       5847.7879      0.51088544
       5848.6117      0.61073169
       5849.4356      0.74100372
       5850.2594      0.62043426
       5851.0833      0.69584962
       5851.9072      0.77605034
       5852.7310      0.78044794
       5853.5549      0.78237614
       5854.3787      0.82278597
       5855.2026      0.75081756
       5856.0264      0.74583110
       5856.8503      0.62378256
       5857.6741      0.50309043
       5858.4980      0.48676566
       5859.3218      0.72356382
       5860.1457      0.59113811
       5860.9696      0.72349328
       5861.7934      0.67333075
       5862.6173      0.73224742
       5863.4411      0.73678830
       5864.2650      0.75896947
       5865.0888      0.70030929
       5865.9127      0.66454172
       5866.7365      0.89886084
       5867.5604      0.88337098
       5868.3842      0.60066562
       5869.2081      0.66460733
       5870.0320      0.69893759
       5870.8558      0.58988801
       5871.6797      0.95208777
       5872.5035      0.87048676
       5873.3274      0.82699981
       5874.1512      0.74838917
       5874.9751      0.65694742
       5875.7989      0.78190740
       5876.6228      0.72398986
       5877.4466      0.73833744
       5878.2705      0.76225097
       5879.0944      0.75485836
       5879.9182      0.79044932
       5880.7421      0.70438384
       5881.5659      0.72230763
       5882.3898      0.72306866
       5883.2136      0.74538348
       5884.0375      0.72802643
       5884.8613      0.74668696
       5885.6852      0.61035509
       5886.5090      0.80468652
       5887.3329      0.67958260
       5888.1568      0.69902960
       5888.9806      0.93889827
       5889.8045      0.60739126
       5890.6283      0.63924723
       5891.4522      0.71039400
       5892.2760      0.74342071
       5893.0999      0.62372770
       5893.9237      0.78060559
       5894.7476      0.46287864
       5895.5714      0.13220497
       5896.3953      0.32433407
       5897.2192     -0.22919920
       5898.0430     -0.24796858
       5898.8669      0.42983902
       5899.6907      0.61076300
       5900.5146      0.59878029
       5901.3384      0.81244456
       5902.1623      0.90481645
       5902.9861      0.81332526
       5903.8100      0.68218045
       5904.6338      0.74000534
       5905.4577      0.76403527
       5906.2816      0.72232485
       5907.1054      0.73682784
       5907.9293      0.72595983
       5908.7531      0.75026550
       5909.5770      0.73035675
       5910.4008      0.72633693
       5911.2247      0.71058016
       5912.0485      0.67152323
       5912.8724      0.59616040
       5913.6962      0.70616057
       5914.5201      0.64091187
       5915.3440      0.64158454
       5916.1678      0.69785817
       5916.9917      0.65729724
       5917.8155      0.68359294
       5918.6394      0.77315723
       5919.4632      0.73954196
       5920.2871      0.58129178
       5921.1109      0.76162154
       5921.9348      0.52099662
       5922.7586      0.61273625
       5923.5825      0.50177039
       5924.4064      0.74785955
       5925.2302      0.82332100
       5926.0541      0.87959150
       5926.8779      0.69930255
       5927.7018      0.65498067
       5928.5256      0.82346056
       5929.3495      0.66612924
       5930.1733      0.71120651
       5930.9972      0.81135451
       5931.8210      0.78870225
       5932.6449      0.76955439
       5933.4688      0.71753296
       5934.2926      0.73120732
       5935.1165      0.72606465
       5935.9403      0.69727563
       5936.7642      0.65786802
       5937.5880      0.79294414
       5938.4119      0.76823913
       5939.2357      0.79913830
       5940.0596      0.75650746
       5940.8834      0.71736430
       5941.7073      0.73263221
       5942.5312      0.77407162
       5943.3550      0.83750466
       5944.1789      0.76057726
       5945.0027      0.70358177
       5945.8266      0.79079413
       5946.6504      0.61056051
       5947.4743      0.72083933
       5948.2981      0.83368552
       5949.1220      0.71282192
       5949.9458      0.75668617
       5950.7697      0.66329420
       5951.5936      0.72466918
       5952.4174      0.62227905
       5953.2413      0.63296536
       5954.0651      0.86469826
       5954.8890      0.84321124
       5955.7128      0.89487470
       5956.5367      0.76740567
       5957.3605      0.78334444
       5958.1844      0.61609775
       5959.0082      0.73383262
       5959.8321      0.78159256
       5960.6560      0.70290239
       5961.4798      0.66568406
       5962.3037      0.67660936
       5963.1275      0.75635146
       5963.9514      0.73820339
       5964.7752      0.78919158
       5965.5991      0.80130925
       5966.4229      0.82094780
       5967.2468      0.68727566
       5968.0706      0.66408966
       5968.8945      0.92239239
       5969.7183      0.73834161
       5970.5422      0.76559160
       5971.3661      0.82495122
       5972.1899      0.68374228
       5973.0138      0.62411836
       5973.8376      0.94537619
       5974.6615      0.93238681
       5975.4853      0.89890982
       5976.3092      0.58006927
       5977.1330      0.73256932
       5977.9569      0.67585155
       5978.7807      0.59655323
       5979.6046      0.82383575
       5980.4285      0.73027464
       5981.2523      0.68799609
       5982.0762      0.63269511
       5982.9000      0.65677781
       5983.7239      0.81014436
       5984.5477      0.65236341
       5985.3716      0.59943701
       5986.1954      0.51188058
       5987.0193      0.78205006
       5987.8431      0.88601879
       5988.6670      0.87267781
       5989.4909      0.76918358
       5990.3147      0.66897978
       5991.1386      0.89767698
       5991.9624      0.71649029
       5992.7863      0.68561478
       5993.6101      0.72433651
       5994.4340      0.69517136
       5995.2578      0.72955339
       5996.0817      0.85720690
       5996.9055      0.72010353
       5997.7294      0.87936900
       5998.5533      0.47811648
       5999.3771      0.73410104
       6000.2010      0.52373693
       6001.0248      0.84530870
       6001.8487      0.61127893
       6002.6725      0.76255245
       6003.4964      0.63184341
       6004.3202      0.78402913
       6005.1441      0.75395864
       6005.9679      0.82118296
       6006.7918      0.63420703
       6007.6157      0.63639925
       6008.4395      0.83337135
       6009.2634      0.81303132
       6010.0872      0.86135348
       6010.9111      0.71014469
       6011.7349      0.69627175
       6012.5588      0.63841395
       6013.3826      0.57392630
       6014.2065      0.71494084
       6015.0303      0.65979871
       6015.8542      0.75649025
       6016.6781      0.78488901
       6017.5019      0.81167640
       6018.3258      0.86176405
       6019.1496      0.78327499
       6019.9735      0.70509319
       6020.7973      0.75277375
       6021.6212      0.71380583
       6022.4450      0.68400678
       6023.2689      0.77307015
       6024.0927      0.80304951
       6024.9166      0.67782558
       6025.7405      0.76776001
       6026.5643      0.85334935
       6027.3882      0.83034993
       6028.2120      0.74503833
       6029.0359      0.79254356
       6029.8597      0.82094240
       6030.6836      0.71073826
       6031.5074      0.81421071
       6032.3313      0.68998947
       6033.1551      0.76925621
       6033.9790      0.73190773
       6034.8029      0.72692269
       6035.6267      0.76845186
       6036.4506      0.76430250
       6037.2744      0.61521772
       6038.0983      0.70973892
       6038.9221      0.73012447
       6039.7460      0.71878077
       6040.5698      0.74060256
       6041.3937      0.66796204
       6042.2175      0.73008901
       6043.0414      0.69265125
       6043.8653      0.69938442
       6044.6891      0.80035617
       6045.5130      0.79714098
       6046.3368      0.72471940
       6047.1607      0.72998788
       6047.9845      0.81940085
       6048.8084      0.75040103
       6049.6322      0.71552610
       6050.4561      0.84791347
       6051.2799      0.77422005
       6052.1038      0.78151798
       6052.9277      0.72167063
       6053.7515      0.77985025
       6054.5754      0.74729819
       6055.3992      0.59311198
       6056.2231      0.81444984
       6057.0469      0.73670684
       6057.8708      0.67784678
       6058.6946      0.84291374
       6059.5185      0.82643195
       6060.3423      0.71024024
       6061.1662      0.80135639
       6061.9901      0.81508401
       6062.8139      0.70460691
       6063.6378      0.77312761
       6064.4616      0.77301005
       6065.2855      0.85728891
       6066.1093      0.76982399
       6066.9332      0.88420066
       6067.7570      0.84610081
       6068.5809      0.65988920
       6069.4047      0.51147898
       6070.2286      0.34446722
       6071.0525       1.0300565
       6071.8763      0.90959797
       6072.7002      0.78658798
       6073.5240      0.76683009
       6074.3479      0.53476617
       6075.1717      0.80270018
       6075.9956       1.0094240
       6076.8194      0.63901765
       6077.6433      0.65385162
       6078.4671      0.94778849
       6079.2910      0.67208756
       6080.1149      0.50254680
       6080.9387      0.58556957
       6081.7626      0.62887107
       6082.5864      0.24696801
       6083.4103      0.53110252
       6084.2341      0.47819682
       6085.0580      0.94064617
       6085.8818      0.59749521
       6086.7057      0.89010712
       6087.5295      0.60158317
       6088.3534      0.83012320
       6089.1773      0.86180355
       6090.0011      0.71112444
       6090.8250      0.77912936
       6091.6488      0.78193492
       6092.4727      0.74648810
       6093.2965      0.85491755
       6094.1204      0.65737420
       6094.9442      0.83089282
       6095.7681      0.77013224
       6096.5919      0.72166605
       6097.4158      0.83521866
       6098.2397      0.87945472
       6099.0635      0.84097588
       6099.8874      0.95782228
       6100.7112      0.85408655
       6101.5351      0.78572575
       6102.3589      0.89085965
       6103.1828      0.72275098
       6104.0066      0.75734128
       6104.8305      0.71021824
       6105.6543      0.76820990
       6106.4782      0.77603670
       6107.3021      0.78499174
       6108.1259      0.91925983
       6108.9498      0.76353586
       6109.7736      0.89039422
       6110.5975      0.98053415
       6111.4213      0.75952262
       6112.2452      0.80857915
       6113.0690      0.86003090
       6113.8929      0.80992183
       6114.7167      0.92564887
       6115.5406      0.98195474
       6116.3645      0.77392663
       6117.1883      0.88301745
       6118.0122      0.35369045
       6118.8360       1.3506139
       6119.6599      0.95556504
       6120.4837      0.17038655
       6121.3076      0.92375523
       6122.1314      0.39246797
       6122.9553      0.94823093
       6123.7791      0.54147233
       6124.6030      0.77117691
       6125.4269      0.62406457
       6126.2507      0.67667037
       6127.0746       1.0045111
       6127.8984      0.51285971
       6128.7223      0.72359538
       6129.5461      0.77849261
       6130.3700      0.78877562
       6131.1938      0.70077700
       6132.0177      0.53856477
       6132.8415      0.72281416
       6133.6654      0.84369402
       6134.4893      0.95749199
       6135.3131      0.96544360
       6136.1370       1.0410286
       6136.9608      0.92136247
       6137.7847      0.77414121
       6138.6085      0.73802731
       6139.4324      0.72970989
       6140.2562      0.91396271
       6141.0801      0.75615297
       6141.9039      0.87724573
       6142.7278      0.66634147
       6143.5517      0.55214891
       6144.3755      0.83290190
       6145.1994      0.71284713
       6146.0232      0.62537379
       6146.8471      0.62374162
       6147.6709       1.0320116
       6148.4948      0.95734747
       6149.3186      0.87158411
       6150.1425      0.85578943
       6150.9663      0.87896302
       6151.7902      0.74311532
       6152.6141      0.87595260
       6153.4379      0.77641277
       6154.2618      0.81535167
       6155.0856      0.67809282
       6155.9095      0.79674516
       6156.7333       1.1533222
       6157.5572       1.0303844
       6158.3810       1.1798289
       6159.2049      0.93080318
       6160.0287       1.3247290
       6160.8526      0.45981303
       6161.6765      0.66766843
       6162.5003      0.51792539
       6163.3242      0.87400667
       6164.1480      0.77636403
       6164.9719      0.90930621
       6165.7957      0.84900699
       6166.6196      0.62205316
       6167.4434      0.83713429
       6168.2673      0.79231871
       6169.0911      0.83599075
       6169.9150      0.92427538
       6170.7389       1.0669177
       6171.5627      0.95461804
       6172.3866       1.2148691
       6173.2104      0.76676575
       6174.0343      0.68506541
       6174.8581      0.79901233
       6175.6820      0.72643856
       6176.5058      0.80934119
       6177.3297      0.91360329
       6178.1535      0.43386915
       6178.9774       1.0074221
       6179.8013      0.99608045
       6180.6251      0.88875392
       6181.4490      0.71176719
       6182.2728       1.0065439
       6183.0967      0.58720471
       6183.9205      0.75520321
       6184.7444      0.74801133
       6185.5682      0.52504692
       6186.3921      0.72370095
       6187.2159      0.68275403
       6188.0398      0.70792715
       6188.8637      0.57620968
       6189.6875      0.60813598
       6190.5114      0.83502698
       6191.3352      0.68813424
       6192.1591      0.79634710
       6192.9829      0.77376673
       6193.8068      0.78791413
       6194.6306      0.69332039
       6195.4545      0.86023330
       6196.2783      0.46152087
       6197.1022      0.83797696
       6197.9261      0.63085939
       6198.7499      0.79794031
       6199.5738      0.82875513
       6200.3976      0.53514762
       6201.2215      0.46173266
       6202.0453      0.75585231
       6202.8692      0.80693227
       6203.6930      0.81365586
       6204.5169      0.58755773
       6205.3407      0.55470384
       6206.1646       1.0281894
       6206.9885       1.4058865
       6207.8123      0.43075950
       6208.6362       1.1545086
       6209.4600     0.063329642
       6210.2839      0.19272349
       6211.1077      0.63713345
       6211.9316      0.50148916
       6212.7554      0.65701197
       6213.5793      0.74757750
       6214.4031      0.65994921
       6215.2270      0.72758707
       6216.0509      0.82298204
       6216.8747      0.74815130
       6217.6986      0.67591295
       6218.5224      0.80992361
       6219.3463      0.76935451
       6220.1701      0.78414800
       6220.9940      0.79905918
       6221.8178      0.81270670
       6222.6417      0.80529413
       6223.4655      0.72085293
       6224.2894      0.76753226
       6225.1133      0.80969059
       6225.9371      0.74355968
       6226.7610      0.73214987
       6227.5848      0.61187380
       6228.4087      0.96105521
       6229.2325      0.50607721
       6230.0564      0.57846017
       6230.8802      0.53822236
       6231.7041      0.51536349
       6232.5279      0.78339023
       6233.3518      0.74187904
       6234.1757      0.82262412
       6234.9995      0.59464707
       6235.8234      0.27686337
       6236.6472      0.61860639
       6237.4711      0.88366775
       6238.2949       1.0155351
       6239.1188      0.52646821
       6239.9426      0.72987876
       6240.7665      0.67302391
       6241.5903      0.92103663
       6242.4142      0.89214526
       6243.2381      0.75852097
       6244.0619      0.68735363
       6244.8858      0.64166467
       6245.7096      0.78415404
       6246.5335      0.79740754
       6247.3573      0.84006888
       6248.1812      0.79584416
       6249.0050      0.72570392
       6249.8289      0.74680837
       6250.6527      0.85293913
       6251.4766      0.84287835
       6252.3005      0.85216170
       6253.1243      0.75827903
       6253.9482      0.90550606
       6254.7720      0.84829469
       6255.5959      0.86551900
       6256.4197      0.89458466
       6257.2436      0.91653502
       6258.0674      0.79956360
       6258.8913      0.86141025
       6259.7151      0.82563138
       6260.5390      0.92175658
       6261.3629      0.75583335
       6262.1867       1.0086995
       6263.0106       1.0187821
       6263.8344      0.71052932
       6264.6583      0.98243470
       6265.4821      0.94420347
       6266.3060      0.84904806
       6267.1298      0.71270653
       6267.9537      0.76446791
       6268.7775      0.63903484
       6269.6014      0.97892389
       6270.4253      0.82769248
       6271.2491       1.0924630
       6272.0730       1.0918849
       6272.8968      0.85019715
       6273.7207      0.91984127
       6274.5445      0.97660537
       6275.3684      0.73136268
       6276.1922      0.80557426
       6277.0161      0.90093077
       6277.8399      0.67595018
       6278.6638      0.92098400
       6279.4877      0.93663561
       6280.3115      0.90042615
       6281.1354      0.94802727
       6281.9592      0.73875550
       6282.7831      0.91432343
       6283.6069      0.83106312
       6284.4308      0.86693149
       6285.2546      0.81134674
       6286.0785      0.89425124
       6286.9023      0.89784677
       6287.7262      0.84016759
       6288.5501      0.75942733
       6289.3739      0.85628588
       6290.1978      0.77579366
       6291.0216      0.85404323
       6291.8455      0.74755007
       6292.6693      0.88539908
       6293.4932      0.86130130
       6294.3170      0.75247533
       6295.1409      0.93646128
       6295.9647      0.92556448
       6296.7886      0.66715238
       6297.6125      0.78560211
       6298.4363      0.80826791
       6299.2602       1.0250839
       6300.0840      0.84873806
       6300.9079      0.75298013
       6301.7317       1.0177921
       6302.5556      0.92587854
       6303.3794      0.77550029
       6304.2033      0.90851974
       6305.0271      0.83174993
       6305.8510      0.70055215
       6306.6749      0.83485416
       6307.4987      0.87850235
       6308.3226      0.94236821
       6309.1464      0.81928281
       6309.9703      0.89611981
       6310.7941      0.72252236
       6311.6180      0.82040245
       6312.4418      0.83341337
       6313.2657      0.83718624
       6314.0895      0.78085001
       6314.9134      0.82159219
       6315.7372      0.77265924
       6316.5611      0.85422176
       6317.3850      0.85177840
       6318.2088      0.95109112
       6319.0327      0.95603622
       6319.8565      0.78909341
       6320.6804      0.80656128
       6321.5042      0.88972492
       6322.3281      0.99091819
       6323.1519       1.0448918
       6323.9758       1.0004372
       6324.7996       1.1407067
       6325.6235       1.0305773
       6326.4474      0.93810062
       6327.2712      0.93671731
       6328.0951      0.84780803
       6328.9189      0.84280199
       6329.7428      0.69921869
       6330.5666      0.71688612
       6331.3905      0.88680433
       6332.2143      0.70191984
       6333.0382      0.91102513
       6333.8620      0.90910619
       6334.6859      0.78864555
       6335.5098      0.82633408
       6336.3336      0.94156370
       6337.1575      0.82710000
       6337.9813      0.80667149
       6338.8052      0.81565694
       6339.6290      0.78592996
       6340.4529      0.82640603
       6341.2767      0.79671485
       6342.1006      0.73312086
       6342.9244      0.69982415
       6343.7483      0.89763398
       6344.5722      0.96026447
       6345.3960      0.82373686
       6346.2199      0.96198621
       6347.0437      0.95928077
       6347.8676      0.93363903
       6348.6914      0.89919389
       6349.5153      0.89874119
       6350.3391      0.95649108
       6351.1630      0.86862175
       6351.9868      0.83865096
       6352.8107      0.97496999
       6353.6346      0.86625203
       6354.4584       1.0816063
       6355.2823       1.0111994
       6356.1061      0.93074772
       6356.9300      0.87662480
       6357.7538      0.91529242
       6358.5777      0.80169076
       6359.4015      0.90841865
       6360.2254      0.94833774
       6361.0492      0.92729495
       6361.8731      0.89887685
       6362.6970      0.92363662
       6363.5208       1.0061139
       6364.3447      0.89277900
       6365.1685      0.81883140
       6365.9924      0.89071640
       6366.8162      0.92938213
       6367.6401      0.83622325
       6368.4639      0.86830248
       6369.2878      0.99446468
       6370.1116      0.89343982
       6370.9355      0.89798928
       6371.7594      0.93175903
       6372.5832      0.82458923
       6373.4071       1.0030651
       6374.2309      0.99734652
       6375.0548      0.86069819
       6375.8786      0.90052374
       6376.7025       1.0438838
       6377.5263       1.0541453
       6378.3502      0.88188782
       6379.1740      0.89575277
       6379.9979       1.0089264
       6380.8218      0.88218755
       6381.6456      0.85156608
       6382.4695      0.87134137
       6383.2933      0.91906811
       6384.1172       1.0130165
       6384.9410      0.69479942
       6385.7649      0.76190979
       6386.5887      0.81029357
       6387.4126       1.0334431
       6388.2364      0.88318239
       6389.0603       1.0944518
       6389.8842       1.1250730
       6390.7080       1.0228630
       6391.5319       1.1675908
       6392.3557      0.83165783
       6393.1796       1.1085785
       6394.0034       1.0159140
       6394.8273       1.0896510
       6395.6511      0.94357049
       6396.4750       1.0478961
       6397.2988       1.1086183
       6398.1227      0.99395056
       6398.9466       1.0451234
       6399.7704      0.92867236
       6400.5943      0.84816891
       6401.4181      0.78386686
       6402.2420       1.0171488
       6403.0658      0.97586988
       6403.8897      0.97848460
       6404.7135      0.80836996
       6405.5374      0.86506226
       6406.3612      0.69242726
       6407.1851      0.85325740
       6408.0090      0.85500675
       6408.8328      0.78733414
       6409.6567       1.0131293
       6410.4805      0.86044664
       6411.3044      0.95505667
       6412.1282       1.0191877
       6412.9521       1.0068437
       6413.7759      0.87770674
       6414.5998      0.86096170
       6415.4236      0.77381660
       6416.2475      0.70372500
       6417.0714      0.93014954
       6417.8952      0.97743032
       6418.7191      0.86666938
       6419.5429      0.87808841
       6420.3668       1.0109585
       6421.1906       1.0361434
       6422.0145      0.89569523
       6422.8383      0.77640666
       6423.6622      0.99311679
       6424.4860      0.81785875
       6425.3099       1.0208079
       6426.1338       1.0409891
       6426.9576      0.93853643
       6427.7815      0.98287055
       6428.6053      0.92573333
       6429.4292      0.95423665
       6430.2530      0.73989320
       6431.0769      0.88742952
       6431.9007      0.82795885
       6432.7246      0.94895223
       6433.5484      0.71967161
       6434.3723      0.94537957
       6435.1962      0.94955908
       6436.0200      0.91839611
       6436.8439       1.0257830
       6437.6677       1.0610964
       6438.4916      0.97158357
       6439.3154      0.88175232
       6440.1393      0.76395216
       6440.9631      0.90768392
       6441.7870      0.82714956
       6442.6108      0.71184774
       6443.4347      0.84948252
       6444.2586      0.68793050
       6445.0824      0.85637045
       6445.9063      0.81948547
       6446.7301       2.8505897
       6447.5540      0.67236515
       6448.3778      0.71258546
       6449.2017      0.33166819
       6450.0255      0.36807639
       6450.8494    -0.032248571
       6451.6732      0.48959587
       6452.4971     -0.11500698
       6453.3210      0.66875713
       6454.1448      0.71677205
       6454.9687      0.91877901
       6455.7925      0.49399266
       6456.6164      0.12860035
       6457.4402       1.1896466
       6458.2641       1.8036570
       6459.0879       1.1466748
       6459.9118      0.94614480
       6460.7356       1.0128835
       6461.5595      0.51372138
       6462.3834      0.38130283
       6463.2072      0.68524368
       6464.0311       1.1899859
       6464.8549      0.46992853
       6465.6788      0.69074590
       6466.5026      0.66801940
       6467.3265      0.77705257
       6468.1503      0.74910318
       6468.9742      0.47134258
       6469.7980      0.79196161
       6470.6219      0.80002137
       6471.4458      0.86036073
       6472.2696      0.56056905
       6473.0935      0.52197244
       6473.9173      0.59332307
       6474.7412      0.62232898
       6475.5650      0.61519311
       6476.3889      0.86489119
       6477.2127       1.0312183
       6478.0366      0.87055911
       6478.8604      0.69838529
       6479.6843      0.82739634
       6480.5082      0.91408368
       6481.3320      0.68871040
       6482.1559      0.74307109
       6482.9797      0.62494162
       6483.8036      0.80188944
       6484.6274      0.79884902
       6485.4513      0.88736228
       6486.2751      0.88686427
       6487.0990      0.76851553
       6487.9228      0.93259295
       6488.7467      0.49873416
       6489.5706      0.75784184
       6490.3944      0.60461958
       6491.2183      0.85817659
       6492.0421      0.15577051
       6492.8660     -0.10946245
       6493.6898       1.5763304
       6494.5137      0.53543748
       6495.3375      0.57591127
       6496.1614      0.84245861
       6496.9852      0.38816943
       6497.8091      0.58844233
       6498.6330      0.46300432
       6499.4568      0.62245698
       6500.2807      0.57629686
       6501.1045       1.0356284
       6501.9284      0.64250848
       6502.7522      0.95062082
       6503.5761      0.61820975
       6504.3999      0.66455932
       6505.2238      0.77638011
       6506.0476       1.0078263
       6506.8715      0.88823547
       6507.6954      0.65229809
       6508.5192      0.99826801
       6509.3431      0.83487126
       6510.1669      0.84131675
       6510.9908      0.64892940
       6511.8146      0.92150815
       6512.6385      0.69559900
       6513.4623      0.82554149
       6514.2862      0.68842741
       6515.1100      0.92171054
       6515.9339      0.53169680
       6516.7578      0.87971403
       6517.5816      0.78229812
       6518.4055      0.73861861
       6519.2293      0.89252227
       6520.0532      0.74736953
       6520.8770      0.71470112
       6521.7009      0.70547173
       6522.5247      0.89342093
       6523.3486      0.74376594
       6524.1724      0.63629427
       6524.9963      0.63307209
       6525.8202      0.92787847
       6526.6440      0.47119649
       6527.4679      0.80316982
       6528.2917      0.66322382
       6529.1156       1.0144317
       6529.9394      0.79157861
       6530.7633      0.61267467
       6531.5871      0.78822703
       6532.4110      0.71593296
       6533.2348      0.64416029
       6534.0587      0.85429439
       6534.8826      0.88364775
       6535.7064      0.53789313
       6536.5303      0.47061828
       6537.3541       1.4985443
       6538.1780       1.0468957
       6539.0018     0.054616802
       6539.8257      0.79400969
       6540.6495      0.49240349
       6541.4734      0.95180173
       6542.2972       1.2290891
       6543.1211      0.91140971
       6543.9450       1.0368839
       6544.7688      0.79634614
       6545.5927      0.95895451
       6546.4165       1.1627973
       6547.2404      0.81937519
       6548.0642      0.91941956
       6548.8881      0.44801432
       6549.7119      0.58805576
       6550.5358       1.3743040
       6551.3596      0.41574156
       6552.1835      0.54016045
       6553.0074      0.87960411
       6553.8312      0.86299653
       6554.6551      0.33785184
       6555.4789      0.61991437
       6556.3028       1.0648544
       6557.1266       1.1934956
       6557.9505      0.89162223
       6558.7743      0.78013728
       6559.5982      0.77891230
       6560.4220      0.66496058
       6561.2459      0.62246699
       6562.0698       1.1053653
       6562.8936      0.99098735
       6563.7175      0.57207414
       6564.5413       1.4333311
       6565.3652      0.67118973
       6566.1890       1.3325258
       6567.0129      0.88315358
       6567.8367      0.89452190
       6568.6606       1.0884572
       6569.4844       1.5674356
       6570.3083       1.7809056
       6571.1322       1.7799325
       6571.9560       1.7534647
       6572.7799       1.4661020
       6573.6037       1.5403615
       6574.4276       1.5033997
       6575.2514       1.1125215
       6576.0753      0.81028577
       6576.8991      0.75317971
       6577.7230      0.72948713
       6578.5468      0.62422563
       6579.3707      0.32661714
       6580.1946      0.93196992
       6581.0184       1.8133010
       6581.8423       2.6046356
       6582.6661       4.5611713
       6583.4900       5.9051395
       6584.3138       7.4242222
       6585.1377       7.8130781
       6585.9615       8.3126119
       6586.7854       7.8405017
       6587.6092       6.6291394
       6588.4331       5.1230742
       6589.2570       3.6359858
       6590.0808       2.2226551
       6590.9047       1.1561862
       6591.7285      0.48339204
       6592.5524      0.32459815
       6593.3762      0.75018342
       6594.2001      0.86530998
       6595.0239      0.78411113
       6595.8478      0.56418247
       6596.6716      0.69673497
       6597.4955      0.73484598
       6598.3194      0.95782638
       6599.1432      0.59281459
       6599.9671      0.74030038
       6600.7909       1.0224926
       6601.6148       1.2836556
       6602.4386       1.7007009
       6603.2625       2.4549066
       6604.0863       2.7665976
       6604.9102       3.1119151
       6605.7340       3.4710588
       6606.5579       3.7375070
       6607.3818       3.4227268
       6608.2056       2.8303181
       6609.0295       2.5253558
       6609.8533       1.7236627
       6610.6772       1.1998934
       6611.5010       1.1476220
       6612.3249       1.0086560
       6613.1487      0.72706825
       6613.9726      0.76605117
       6614.7964       1.0441264
       6615.6203      0.90264733
       6616.4442       1.0229176
       6617.2680      0.46369580
       6618.0919      0.54227448
       6618.9157      0.58523746
       6619.7396      0.82294691
       6620.5634      0.68469750
       6621.3873      0.71084488
       6622.2111      0.62087736
       6623.0350      0.98568896
       6623.8588      0.89020895
       6624.6827      0.32959869
       6625.5066      0.77638724
       6626.3304       1.3036563
       6627.1543       1.5120325
       6627.9781      0.78883253
       6628.8020       1.0379755
       6629.6258      0.82254797
       6630.4497      0.74403439
       6631.2735       1.0019398
       6632.0974      0.99065670
       6632.9212      0.96077388
       6633.7451       1.0283840
       6634.5690      0.85131229
       6635.3928      0.80717486
       6636.2167      0.99805702
       6637.0405       1.0016893
       6637.8644      0.96094314
       6638.6882      0.98501027
       6639.5121       1.0565328
       6640.3359       1.1424936
       6641.1598      0.89656957
       6641.9836       1.0614429
       6642.8075      0.91225736
       6643.6314      0.81483996
       6644.4552      0.79849611
       6645.2791      0.85762648
       6646.1029      0.86297132
       6646.9268      0.98333132
       6647.7506      0.92216524
       6648.5745      0.76343291
       6649.3983      0.95946401
       6650.2222      0.83130654
       6651.0460      0.84694851
       6651.8699      0.90627422
       6652.6938      0.95342419
       6653.5176      0.58344382
       6654.3415      0.66797651
       6655.1653       1.2644721
       6655.9892      0.98988059
       6656.8130      0.66078502
       6657.6369      0.86277372
       6658.4607      0.99796099
       6659.2846       1.0511960
       6660.1084      0.88151699
       6660.9323       1.0033199
       6661.7562      0.99223375
       6662.5800       1.2956375
       6663.4039      0.50371442
       6664.2277      0.76718042
       6665.0516       1.2130818
       6665.8754      0.70562812
       6666.6993      0.96438818
       6667.5231      0.95167353
       6668.3470       1.0240143
       6669.1708       1.0906491
       6669.9947      0.92435254
       6670.8185       1.0314921
       6671.6424      0.92058583
       6672.4663       1.0183914
       6673.2901       1.0523521
       6674.1140      0.89167032
       6674.9378      0.88135553
       6675.7617      0.82463141
       6676.5855      0.72250873
       6677.4094      0.89259491
       6678.2332      0.64599991
       6679.0571      0.89649636
       6679.8809       1.0478978
       6680.7048      0.88823839
       6681.5287      0.75272280
       6682.3525      0.97257456
       6683.1764      0.72645909
       6684.0002       1.0766887
       6684.8241       1.1037411
       6685.6479      0.80319270
       6686.4718      0.92968278
       6687.2956       1.4370625
       6688.1195      0.89117322
       6688.9433      0.69917505
       6689.7672      0.95903488
       6690.5911      0.77398030
       6691.4149      0.97672252
       6692.2388      0.94519115
       6693.0626      0.71464408
       6693.8865      0.78800309
       6694.7103      0.91691067
       6695.5342       1.1137416
       6696.3580      0.54488920
       6697.1819       1.2461984
       6698.0057      0.57888258
       6698.8296     0.076774950
       6699.6535      0.36891506
       6700.4773       1.3130054
       6701.3012       1.3646731
       6702.1250      0.98263408
       6702.9489       1.0750476
       6703.7727       1.4455606
       6704.5966      0.50217463
       6705.4204    -0.083981429
       6706.2443      0.24717271
       6707.0681      0.64321804
       6707.8920      0.95137035
       6708.7159      0.56858954
       6709.5397       1.0633609
       6710.3636      0.46119981
       6711.1874      0.89278929
       6712.0113      0.81346527
       6712.8351      0.89920177
       6713.6590       1.1764893
       6714.4828      0.97576514
       6715.3067      0.80549386
       6716.1305      0.63053974
       6716.9544      0.63969886
       6717.7783       1.2324087
       6718.6021       1.0060492
       6719.4260       1.0154907
       6720.2498      0.65230268
       6721.0737      0.68792671
       6721.8975      0.92281548
       6722.7214      0.88834424
       6723.5452      0.79986272
       6724.3691      0.74194341
       6725.1929      0.95527959
       6726.0168      0.99397997
       6726.8407       1.1001477
       6727.6645      0.65135130
       6728.4884       1.0261237
       6729.3122      0.55629738
       6730.1361       1.0252730
       6730.9599      0.36669351
       6731.7838      0.78379614
       6732.6076      0.76104624
       6733.4315       1.6071474
       6734.2553       1.1597315
       6735.0792       1.2232210
       6735.9031       1.7137943
       6736.7269       1.9510024
       6737.5508       2.2521895
       6738.3746       2.0263288
       6739.1985       2.1726161
       6740.0223       1.9263146
       6740.8462       1.4490980
       6741.6700       1.0930903
       6742.4939       1.1786459
       6743.3177      0.87644410
       6744.1416      0.67092640
       6744.9655      0.84813429
       6745.7893       1.3500981
       6746.6132      0.75458560
       6747.4370       1.0673998
       6748.2609       1.0471213
       6749.0847       1.2555489
       6749.9086       1.5485349
       6750.7324       1.7244896
       6751.5563       1.7229046
       6752.3801       1.7972235
       6753.2040       1.6966921
       6754.0279       1.5500250
       6754.8517       1.4541127
       6755.6756       1.2397153
       6756.4994       1.1692037
       6757.3233       1.1754889
       6758.1471      0.90429981
       6758.9710      0.99817139
       6759.7948      0.92572781
       6760.6187      0.91306150
       6761.4425      0.95150809
       6762.2664      0.82104813
       6763.0903      0.84087175
       6763.9141      0.88058264
       6764.7380      0.89301370
       6765.5618      0.99981565
       6766.3857       1.0735245
       6767.2095      0.96565112
       6768.0334      0.89700864
       6768.8572       1.0726720
       6769.6811      0.80832919
       6770.5049      0.98715099
       6771.3288      0.89216715
       6772.1527      0.89253069
       6772.9765       1.0700685
       6773.8004      0.77203254
       6774.6242      0.81679593
       6775.4481      0.81048041
       6776.2719      0.80689333
       6777.0958      0.93036308
       6777.9196      0.27754882
       6778.7435       2.1190935
       6779.5673      0.48708359
       6780.3912       1.2565705
       6781.2151      0.57098706
       6782.0389       1.3157771
       6782.8628      0.26328228
       6783.6866     -0.32484890
       6784.5105       1.2198990
       6785.3343      0.69571276
       6786.1582      0.71423484
       6786.9820      0.93794189
       6787.8059      0.79141183
       6788.6297      0.91838188
       6789.4536      0.69795177
       6790.2775      0.85348525
       6791.1013       1.1567777
       6791.9252       1.2340787
       6792.7490      0.73245485
       6793.5729       1.7034599
       6794.3967      0.35145205
       6795.2206      0.62322716
       6796.0444      0.52098015
       6796.8683      0.92981847
       6797.6921      0.68691331
       6798.5160      0.80123666
       6799.3399      0.76023802
       6800.1637      0.73216747
       6800.9876      0.84953532
       6801.8114      0.76863626
       6802.6353      0.87699978
       6803.4591      0.82754732
       6804.2830      0.91868779
       6805.1068      0.82646475
       6805.9307      0.68857547
       6806.7545      0.76896936
       6807.5784       1.1224253
       6808.4023      0.46607610
       6809.2261      0.57948815
       6810.0500      0.61285203
       6810.8738      0.64632800
       6811.6977      0.98098697
       6812.5215      0.83083551
       6813.3454      0.88677438
       6814.1692      0.56412722
       6814.9931      0.55273242
       6815.8169      0.76311066
       6816.6408       1.2036442
       6817.4647       1.2204537
       6818.2885       1.1655838
       6819.1124      0.97776013
       6819.9362       1.5212989
       6820.7601      0.13258152
       6821.5839       1.3380044
       6822.4078      0.80584855
       6823.2316      0.74375385
       6824.0555      0.97980093
       6824.8793      0.72497706
       6825.7032      0.76977346
       6826.5271      0.90934247
       6827.3509      0.73637865
       6828.1748      0.69593424
       6828.9986      0.89479786
       6829.8225      0.83288521
       6830.6463      0.81197813
       6831.4702       1.2650166
       6832.2940      0.70300148
       6833.1179      0.25630185
       6833.9417     -0.50607071
       6834.7656      0.86039861
       6835.5895    -0.092135428
       6836.4133      0.78783942
       6837.2372      0.22719062
       6838.0610       1.5968410
       6838.8849      0.31906088
       6839.7087      0.71023450
       6840.5326      0.89902363
       6841.3564      0.87257996
       6842.1803       1.1415319
       6843.0041       1.0745319
       6843.8280      0.91518604
       6844.6519      0.56307211
       6845.4757      0.81340405
       6846.2996      0.81302127
       6847.1234      0.63494747
       6847.9473      0.74072804
       6848.7711      0.59485254
       6849.5950     -0.11817616
       6850.4188       1.8035332
       6851.2427       1.3531106
       6852.0665     0.061272920
       6852.8904     -0.29037160
       6853.7143      0.85620422
       6854.5381    -0.032751814
       6855.3620      0.73931377
       6856.1858      0.97717129
       6857.0097      0.90594203
       6857.8335      0.94750202
       6858.6574       1.1910297
       6859.4812      0.97850873
       6860.3051       1.1442151
       6861.1289       1.0416248
       6861.9528      0.65110510
       6862.7767     -0.58607886
       6863.6005       1.6605538
       6864.4244      0.88651804
       6865.2482      0.44894936
       6866.0721       1.0407542
       6866.8959    -0.017412256
       6867.7198      0.48648680
       6868.5436      0.39761597
       6869.3675      0.78887987
       6870.1913      0.57408207
       6871.0152      0.54360952
       6871.8391      0.88880227
       6872.6629      0.96384503
       6873.4868       1.0467365
       6874.3106       1.0792032
       6875.1345       1.1819769
       6875.9583      0.90061225
       6876.7822      0.76696210
       6877.6060      0.37277895
       6878.4299      0.53158212
       6879.2537      0.83478586
       6880.0776      0.88836457
       6880.9015       1.0734334
       6881.7253      0.34391886
       6882.5492      0.63725067
       6883.3730     0.071662880
       6884.1969      0.17176514
       6885.0207      -1.1590657
       6885.8446       1.5541618
       6886.6684      0.21031698
       6887.4923     -0.39200702
       6888.3161      0.19636035
       6889.1400       1.0822328
       6889.9639     0.084000150
       6890.7877       1.0975683
       6891.6116      0.26576109
       6892.4354       1.0538339
       6893.2593      0.28997664
       6894.0831      0.40188401
       6894.9070     0.078123194
       6895.7308     -0.34121009
       6896.5547      0.79907973
       6897.3785     -0.23533767
       6898.2024      0.61412132
       6899.0263      0.60112432
       6899.8501       1.0902724
       6900.6740     0.041521631
       6901.4978      0.84415488
       6902.3217      0.63728717
       6903.1455       1.1482898
       6903.9694       1.3787966
       6904.7932      0.69983373
       6905.6171      0.64589816
       6906.4409      0.68641073
       6907.2648      0.95679971
       6908.0887      0.36405450
       6908.9125      0.93800759
       6909.7364      0.55132991
       6910.5602      0.61139574
       6911.3841      0.80195977
       6912.2079       1.2241963
       6913.0318      0.70949157
       6913.8556      0.83582675
       6914.6795      0.86206143
       6915.5033       1.1067176
       6916.3272      0.86997632
       6917.1511      0.87611098
       6917.9749      0.97347414
       6918.7988       1.1880722
       6919.6226       1.0242917
       6920.4465      0.71627719
       6921.2703      0.53952536
       6922.0942      0.75156164
       6922.9180       1.4051999
       6923.7419      0.95591848
       6924.5657      0.28063227
       6925.3896      0.37436045
       6926.2135      0.90526866
       6927.0373       1.0489274
       6927.8612      0.84883418
       6928.6850      0.82936644
       6929.5089      0.28620858
       6930.3327     -0.94271623
       6931.1566     -0.21538644
       6931.9804      -1.2376357
       6932.8043     0.026371475
       6933.6281      0.35205616
       6934.4520      -1.0903985
       6935.2759      0.16765793
       6936.0997    -0.026976342
       6936.9236      0.57540065
       6937.7474      0.61477669
       6938.5713      0.43232232
       6939.3951      0.46526594
       6940.2190       1.3046493
       6941.0428      0.76740033
       6941.8667      0.52032630
       6942.6905      0.51001194
       6943.5144      0.27894391
       6944.3383      0.16861634
       6945.1621      0.45544525
       6945.9860      0.93881755
       6946.8098       1.0148797
       6947.6337      0.74927335
       6948.4575      0.73643117
       6949.2814      0.72150906
       6950.1052      0.83535199
       6950.9291       1.0674642
       6951.7529      0.70075931
       6952.5768      0.62912142
       6953.4007       1.0312110
       6954.2245      0.48709305
       6955.0484       1.0178973
