# wavelength flux
       1100.0508      0.10512091
       1100.4219      0.11697103
       1100.7930     0.079742761
       1101.1641     0.038693097
       1101.5352     0.038249902
       1101.9063     0.070215163
       1102.2774     0.084446299
       1102.6484     0.045821795
       1103.0195      0.14669398
       1103.3906     0.071307906
       1103.7617      0.16662925
       1104.1328      0.18004578
       1104.5039     0.090607185
       1104.8750      0.13624187
       1105.2461    -0.022071083
       1105.6172     0.038136268
       1105.9883     0.087804667
       1106.3594      0.16871486
       1106.7305     0.084554068
       1107.1015     0.091916463
       1107.4726     0.034886047
       1107.8437  -6.7421204e-05
       1108.2148   -0.0078216361
       1108.5859     0.045155195
       1108.9570    0.0099141617
       1109.3281    0.0014527249
       1109.6992     0.038352075
       1110.0703      0.10287249
       1110.4414     0.087871561
       1110.8125      0.14585707
       1111.1836     0.053009191
       1111.5546     0.061689133
       1111.9257      0.10634532
       1112.2968     0.022914752
       1112.6679     0.059573161
       1113.0390     0.057166196
       1113.4101     0.081772787
       1113.7812     0.078125333
       1114.1523      0.10171106
       1114.5234     0.097847534
       1114.8945     0.067132290
       1115.2656    -0.044645485
       1115.6367     0.035398365
       1116.0077     0.055791057
       1116.3788     0.048930381
       1116.7499     0.065909052
       1117.1210     0.058525587
       1117.4921     0.036675006
       1117.8632     0.050456363
       1118.2343     0.048984551
       1118.6054     0.053872632
       1118.9765     0.041020119
       1119.3476      0.10136791
       1119.7187      0.11666574
       1120.0898      0.16420149
       1120.4608     0.099039183
       1120.8319     0.096568336
       1121.2030      0.11303620
       1121.5741     0.024749750
       1121.9452     0.015816815
       1122.3163     0.053159720
       1122.6874     0.037891053
       1123.0585     0.090622860
       1123.4296     0.015374008
       1123.8007     0.050620458
       1124.1718      0.10826988
       1124.5429     0.062544017
       1124.9139     0.066089697
       1125.2850     0.072569702
       1125.6561     0.049230356
       1126.0272    -0.025588178
       1126.3983     0.028988509
       1126.7694     0.024435315
       1127.1405     0.080693285
       1127.5116     0.081408316
       1127.8827     0.070138130
       1128.2538     0.098236822
       1128.6249      0.17556154
       1128.9960     0.072693620
       1129.3670     0.032950229
       1129.7381     0.014305990
       1130.1092     0.015000531
       1130.4803      0.11940138
       1130.8514      0.11631589
       1131.2225     0.022901458
       1131.5936     0.067869672
       1131.9647     0.068190044
       1132.3358     0.084593827
       1132.7069     0.069388564
       1133.0780     0.071242719
       1133.4491     0.085673797
       1133.8201     0.065546792
       1134.1912     0.083354010
       1134.5623     0.091330235
       1134.9334      0.11311591
       1135.3045     0.065209785
       1135.6756     0.040043510
       1136.0467      0.11904993
       1136.4178      0.14751669
       1136.7889     0.052786797
       1137.1600     0.058565153
       1137.5311     0.035955297
       1137.9022      0.10181000
       1138.2732     0.052838734
       1138.6443     0.060393215
       1139.0154      0.10514262
       1139.3865     0.097353789
       1139.7576     0.069332134
       1140.1287     0.081468347
       1140.4998     0.085318189
       1140.8709      0.10186389
       1141.2420     0.054425660
       1141.6131     0.073062895
       1141.9842      0.11254898
       1142.3553      0.11326295
       1142.7263      0.12044451
       1143.0974     0.074404720
       1143.4685     0.081063313
       1143.8396     0.092533723
       1144.2107     0.084582326
       1144.5818     0.091909232
       1144.9529     0.091479036
       1145.3240     0.072037500
       1145.6951      0.10906853
       1146.0662     0.038253804
       1146.4373    -0.014788951
       1146.8083     0.059158508
       1147.1794      0.10300914
       1147.5505      0.10783373
       1147.9216     0.066226216
       1148.2927     0.035952848
       1148.6638     0.083639008
       1149.0349     0.049054718
       1149.4060     0.097963888
       1149.7771     0.045883105
       1150.1482     0.077755101
       1150.5193     0.049055159
       1150.8904      0.14615332
       1151.2614     0.045479313
       1151.6325     0.045095940
       1152.0036     0.081735332
       1152.3747      0.12434551
       1152.7458     0.094362049
       1153.1169      0.10007719
       1153.4880     0.086659329
       1153.8591     0.031167011
       1154.2302     0.093950623
       1154.6013     0.068032810
       1154.9724     0.063347305
       1155.3435     0.064391074
       1155.7145     0.086930045
       1156.0856     0.077265689
       1156.4567     0.070308310
       1156.8278     0.091599420
       1157.1989     0.072647421
       1157.5700     0.056307912
       1157.9411      0.14718590
       1158.3122     0.079276577
       1158.6833     0.098153138
       1159.0544      0.10363823
       1159.4255     0.032648047
       1159.7966     0.066972124
       1160.1676     0.073807903
       1160.5387     0.074305795
       1160.9098     0.048231592
       1161.2809      0.14837079
       1161.6520      0.13027872
       1162.0231     0.090386280
       1162.3942     0.057913661
       1162.7653     0.072072139
       1163.1364     0.097178120
       1163.5075     0.098444168
       1163.8786      0.10506481
       1164.2497    -0.012011460
       1164.6207     0.067597493
       1164.9918     0.076915441
       1165.3629     0.069656013
       1165.7340      0.10525945
       1166.1051      0.12484308
       1166.4762      0.15235081
       1166.8473     0.072655747
       1167.2184     0.099302991
       1167.5895     0.084731148
       1167.9606     0.091033265
       1168.3317     0.079313591
       1168.7028     0.078281417
       1169.0738     0.075034123
       1169.4449      0.11382817
       1169.8160     0.055054863
       1170.1871     0.082851725
       1170.5582      0.10077375
       1170.9293    0.0075649136
       1171.3004     0.098249201
       1171.6715      0.11775752
       1172.0426    0.0013760304
       1172.4137     0.071383206
       1172.7848     0.061489482
       1173.1559      0.10443793
       1173.5269     0.052504470
       1173.8980     0.055310824
       1174.2691     0.092270044
       1174.6402     0.093478603
       1175.0113     0.066750629
       1175.3824     0.041502015
       1175.7535      0.10126870
       1176.1246     0.050972916
       1176.4957     0.085121901
       1176.8668     0.086187440
       1177.2379     0.051133347
       1177.6090     0.076881613
       1177.9800     0.065584062
       1178.3511     0.038534450
       1178.7222     0.047208658
       1179.0933     0.066681941
       1179.4644     0.019459264
       1179.8355     0.053960851
       1180.2066     0.075982402
       1180.5777     0.097790279
       1180.9488      0.11403314
       1181.3199      0.11838208
       1181.6910     0.096031108
       1182.0621     0.060398373
       1182.4331     0.035787583
       1182.8042     0.064440484
       1183.1753     0.040829687
       1183.5464     0.097873599
       1183.9175      0.10521817
       1184.2886      0.10384260
       1184.6597      0.13697614
       1185.0308     0.078890821
       1185.4019      0.18129361
       1185.7730      0.13536691
       1186.1441      0.10203451
       1186.5152     0.054674673
       1186.8862     0.092407928
       1187.2573     0.053982370
       1187.6284     0.061998073
       1187.9995     0.041105336
       1188.3706     0.090630302
       1188.7417      0.11051895
       1189.1128     0.066763748
       1189.4839     0.095102745
       1189.8550     0.048540505
       1190.2261     0.082334314
       1190.5972     0.069361634
       1190.9683      0.12089101
       1191.3393     0.064451637
       1191.7104      0.10733365
       1192.0815     0.082594296
       1192.4526     0.090483920
       1192.8237      0.11078822
       1193.1948      0.10375476
       1193.5659     0.072426847
       1193.9370     0.079850594
       1194.3081     0.084117625
       1194.6792      0.11172576
       1195.0503     0.082812594
       1195.4214     0.078575013
       1195.7924      0.12490150
       1196.1635      0.10883505
       1196.5346     0.085610342
       1196.9057     0.078734038
       1197.2768     0.068354259
       1197.6479     0.078809629
       1198.0190     0.088921495
       1198.3901     0.078408364
       1198.7612      0.10097286
       1199.1323      0.12484475
       1199.5034     0.078307403
       1199.8745      0.10225367
       1200.2455     0.088925931
       1200.6166     0.047070583
       1200.9877     0.057301115
       1201.3588     0.097811712
       1201.7299     0.035440378
       1202.1010      0.10010574
       1202.4721     0.083585434
       1202.8432     0.083219340
       1203.2143     0.074143555
       1203.5854     0.045276799
       1203.9565     0.081777602
       1204.3276     0.059887298
       1204.6986     0.050104708
       1205.0697     0.055944650
       1205.4408     0.084316866
       1205.8119      0.11269173
       1206.1830      0.13307381
       1206.5541     0.066292334
       1206.9252     0.081788651
       1207.2963   -0.0050279921
       1207.6674     0.057573138
       1208.0385     0.044231109
       1208.4096     0.057208898
       1208.7807      0.11814098
       1209.1517     0.083553798
       1209.5228     0.059244587
       1209.8939     0.072807612
       1210.2650      0.13691077
       1210.6361      0.10827466
       1211.0072     0.065706973
       1211.3783     0.048795685
       1211.7494      0.12297388
       1212.1205     0.055799015
       1212.4916     0.066869918
       1212.8627     0.060075916
       1213.2338     0.022936794
       1213.6048     0.059673155
       1213.9759     0.028621740
       1214.3470     0.059615924
       1214.7181     0.050530566
       1215.0892    0.0036927768
       1215.4603     0.030485113
       1215.8314     0.075558584
       1216.2025     0.045726295
       1216.5736     0.059079999
       1216.9447     0.065586856
       1217.3158     0.044235651
       1217.6869     0.053041669
       1218.0579      0.10568548
       1218.4290     0.067219961
       1218.8001      0.10303502
       1219.1712      0.11223914
       1219.5423      0.15081585
       1219.9134      0.10490434
       1220.2845      0.10604275
       1220.6556      0.13123862
       1221.0267      0.13045645
       1221.3978      0.15236641
       1221.7689      0.15514907
       1222.1400      0.13510382
       1222.5110     0.065902895
       1222.8821      0.11833598
       1223.2532     0.090934645
       1223.6243      0.13524595
       1223.9954     0.094035685
       1224.3665     0.066155024
       1224.7376     0.091747996
       1225.1087     0.081254238
       1225.4798      0.12864664
       1225.8509      0.12009991
       1226.2220      0.14221590
       1226.5931      0.13073513
       1226.9641      0.15050481
       1227.3352      0.11673905
       1227.7063     0.094635723
       1228.0774     0.078744833
       1228.4485      0.11659676
       1228.8196      0.12696943
       1229.1907      0.11702814
       1229.5618     0.076738000
       1229.9329     0.054897897
       1230.3040     0.069278299
       1230.6751     0.083537093
       1231.0462     0.078017155
       1231.4172     0.056164943
       1231.7883     0.085541776
       1232.1594      0.11314250
       1232.5305     0.096829855
       1232.9016      0.10889744
       1233.2727     0.072370851
       1233.6438     0.068205512
       1234.0149     0.095709338
       1234.3860     0.096614010
       1234.7571     0.096939107
       1235.1282      0.10525887
       1235.4993     0.095874114
       1235.8703     0.090333911
       1236.2414     0.034011386
       1236.6125     0.069866118
       1236.9836      0.12178363
       1237.3547     0.081474630
       1237.7258      0.10070224
       1238.0969      0.11936591
       1238.4680      0.10460748
       1238.8391     0.052028105
       1239.2102     0.066910837
       1239.5813     0.086727095
       1239.9523      0.11198230
       1240.3234     0.093722148
       1240.6945     0.066306885
       1241.0656     0.075930339
       1241.4367     0.082849230
       1241.8078     0.079893775
       1242.1789     0.065384991
       1242.5500     0.059690310
       1242.9211      0.14019494
       1243.2922     0.080187674
       1243.6633     0.089382545
       1244.0344      0.11118857
       1244.4054      0.10955284
       1244.7765     0.093509467
       1245.1476     0.078281592
       1245.5187      0.10838633
       1245.8898     0.037107989
       1246.2609      0.12007966
       1246.6320     0.094068649
       1247.0031     0.089016196
       1247.3742     0.084986768
       1247.7453     0.086447508
       1248.1164      0.10582580
       1248.4875     0.071266017
       1248.8585     0.079269967
       1249.2296      0.12120638
       1249.6007     0.085474392
       1249.9718     0.059508521
       1250.3429     0.099937510
       1250.7140      0.11583171
       1251.0851     0.087353835
       1251.4562     0.092261106
       1251.8273     0.099180922
       1252.1984     0.046846059
       1252.5695     0.085307608
       1252.9406     0.049743158
       1253.3116      0.11962714
       1253.6827      0.10493162
       1254.0538     0.071008250
       1254.4249     0.083215445
       1254.7960     0.078034682
       1255.1671     0.083109404
       1255.5382     0.050806200
       1255.9093     0.081953619
       1256.2804      0.14093936
       1256.6515     0.088973661
       1257.0226     0.074913924
       1257.3937     0.086337427
       1257.7647      0.11431700
       1258.1358      0.11984545
       1258.5069     0.089787146
       1258.8780     0.086384245
       1259.2491      0.15760636
       1259.6202     0.088054375
       1259.9913      0.11175264
       1260.3624     0.068809337
       1260.7335     0.034379671
       1261.1046     0.071981154
       1261.4757     0.069123641
       1261.8468      0.13936250
       1262.2178     0.065777887
       1262.5889     0.077667940
       1262.9600     0.096031940
       1263.3311     0.042880737
       1263.7022     0.097260630
       1264.0733     0.057723736
       1264.4444     0.078130333
       1264.8155     0.091180254
       1265.1866     0.090001558
       1265.5577      0.10040788
       1265.9288      0.13495316
       1266.2999     0.054272501
       1266.6709     0.081535324
       1267.0420      0.11364477
       1267.4131      0.10800775
       1267.7842     0.053897751
       1268.1553      0.12430543
       1268.5264     0.099567054
       1268.8975     0.054555720
       1269.2686     0.055367393
       1269.6397     0.084798897
       1270.0108     0.069662735
       1270.3819     0.090303798
       1270.7530     0.084123160
       1271.1240     0.085720820
       1271.4951     0.064712697
       1271.8662      0.10381439
       1272.2373      0.10075439
       1272.6084     0.052138077
       1272.9795     0.098463357
       1273.3506     0.093745654
       1273.7217     0.090800320
       1274.0928     0.084792459
       1274.4639     0.081086934
       1274.8350     0.077862856
       1275.2061     0.077580389
       1275.5771     0.097267383
       1275.9482     0.092096052
       1276.3193     0.088411253
       1276.6904     0.049551871
       1277.0615     0.088582155
       1277.4326     0.050166464
       1277.8037     0.048887320
       1278.1748      0.14259309
       1278.5459      0.11627055
       1278.9170     0.084537127
       1279.2881     0.085247680
       1279.6592      0.11311367
       1280.0302     0.062113304
       1280.4013     0.086601454
       1280.7724     0.092824650
       1281.1435     0.092631463
       1281.5146     0.088800877
       1281.8857      0.10014344
       1282.2568      0.13506489
       1282.6279      0.10320731
       1282.9990     0.086123856
       1283.3701     0.038013217
       1283.7412     0.081144581
       1284.1123     0.086792265
       1284.4833     0.063664446
       1284.8544      0.14039737
       1285.2255     0.062582180
       1285.5966      0.11122459
       1285.9677     0.083478821
       1286.3388     0.073348217
       1286.7099      0.12131147
       1287.0810     0.070930647
       1287.4521     0.079294920
       1287.8232      0.12945581
       1288.1943      0.12376647
       1288.5654      0.11250112
       1288.9364      0.12922624
       1289.3075     0.056921708
       1289.6786      0.14661430
       1290.0497      0.15785389
       1290.4208     0.077190846
       1290.7919      0.12120921
       1291.1630      0.10169786
       1291.5341      0.11595509
       1291.9052      0.12681626
       1292.2763      0.11214267
       1292.6474      0.13892440
       1293.0185      0.13575110
       1293.3895      0.11559923
       1293.7606      0.10719949
       1294.1317     0.096067108
       1294.5028     0.099083766
       1294.8739     0.093408514
       1295.2450      0.13063227
       1295.6161      0.12176651
       1295.9872     0.080434054
       1296.3583     0.079246389
       1296.7294      0.12159249
       1297.1005     0.092786585
       1297.4716      0.11939109
       1297.8426     0.097020635
       1298.2137      0.10659673
       1298.5848     0.097299784
       1298.9559     0.087569418
       1299.3270     0.099193959
       1299.6981     0.095205126
       1300.0692     0.091078881
       1300.4403     0.090949816
       1300.8114     0.094643700
       1301.1825     0.063531815
       1301.5536     0.092783073
       1301.9247     0.065512180
       1302.2957      0.11853974
       1302.6668      0.10973787
       1303.0379     0.077657231
       1303.4090     0.094949096
       1303.7801     0.089122887
       1304.1512      0.10355618
       1304.5223     0.082882298
       1304.8934      0.10894336
       1305.2645     0.071267768
       1305.6356     0.081976587
       1306.0067      0.11736519
       1306.3778     0.084053441
       1306.7488     0.097375126
       1307.1199     0.076867848
       1307.4910      0.10530652
       1307.8621     0.059483937
       1308.2332      0.13533998
       1308.6043      0.11039331
       1308.9754     0.073473026
       1309.3465      0.11416139
       1309.7176     0.073098683
       1310.0887      0.10692334
       1310.4598     0.071880208
       1310.8309     0.070838987
       1311.2019     0.062486052
       1311.5730     0.090075765
       1311.9441      0.11482723
       1312.3152     0.069337569
       1312.6863     0.087505480
       1313.0574      0.11120841
       1313.4285      0.10185817
       1313.7996     0.094373017
       1314.1707      0.12538497
       1314.5418     0.091466281
       1314.9129      0.10439734
       1315.2840     0.091996902
       1315.6550     0.075874739
       1316.0261      0.10925246
       1316.3972     0.064033327
       1316.7683     0.085174896
       1317.1394      0.11610868
       1317.5105     0.082100775
       1317.8816      0.14911291
       1318.2527      0.11357913
       1318.6238     0.063320806
       1318.9949      0.10989413
       1319.3660     0.097608566
       1319.7371     0.098210214
       1320.1081      0.10398433
       1320.4792      0.12771581
       1320.8503     0.081489967
       1321.2214     0.086212672
       1321.5925     0.095617567
       1321.9636     0.094938536
       1322.3347      0.10389617
       1322.7058      0.10154923
       1323.0769      0.12574728
       1323.4480     0.097844225
       1323.8191      0.10026483
       1324.1902     0.049719871
       1324.5612     0.093211389
       1324.9323     0.097953030
       1325.3034      0.11038908
       1325.6745     0.083880053
       1326.0456     0.049968072
       1326.4167      0.10099743
       1326.7878     0.093497852
       1327.1589     0.082321134
       1327.5300     0.099157805
       1327.9011     0.090102461
       1328.2722     0.099451894
       1328.6433     0.076743249
       1329.0143      0.10524497
       1329.3854     0.058534307
       1329.7565      0.10508409
       1330.1276      0.12462765
       1330.4987     0.092046169
       1330.8698     0.094477393
       1331.2409     0.090976081
       1331.6120     0.094693356
       1331.9831     0.082749687
       1332.3542     0.090310857
       1332.7253     0.095075800
       1333.0963      0.13242496
       1333.4674     0.086190530
       1333.8385      0.11016436
       1334.2096     0.084079250
       1334.5807     0.088581017
       1334.9518     0.080941371
       1335.3229     0.075349048
       1335.6940     0.069577741
       1336.0651     0.096531019
       1336.4362     0.058460534
       1336.8073     0.087443369
       1337.1784      0.10380357
       1337.5494     0.089907087
       1337.9205      0.10135400
       1338.2916      0.12854503
       1338.6627      0.13529290
       1339.0338     0.065178060
       1339.4049     0.077567600
       1339.7760     0.086527451
       1340.1471     0.060989001
       1340.5182     0.083409839
       1340.8893      0.11122176
       1341.2604     0.070386551
       1341.6315      0.11473276
       1342.0025     0.094932473
       1342.3736     0.088150550
       1342.7447     0.070458018
       1343.1158     0.064791945
       1343.4869      0.11740788
       1343.8580      0.10590865
       1344.2291     0.082174415
       1344.6002     0.066826237
       1344.9713     0.062347234
       1345.3424     0.058360354
       1345.7135     0.082385615
       1346.0846     0.081164751
       1346.4556     0.060491453
       1346.8267     0.067429564
       1347.1978     0.058259773
       1347.5689     0.079145874
       1347.9400     0.092397183
       1348.3111     0.049438609
       1348.6822     0.073448948
       1349.0533     0.070170394
       1349.4244     0.059366328
       1349.7955     0.068405520
       1350.1666      0.11466704
       1350.5377     0.072075609
       1350.9087     0.080728985
       1351.2798      0.12531820
       1351.6509     0.086716410
       1352.0220     0.058595432
       1352.3931     0.058376416
       1352.7642     0.071148250
       1353.1353     0.073946271
       1353.5064     0.098531740
       1353.8775      0.10344907
       1354.2486     0.080538857
       1354.6197     0.095704384
       1354.9908      0.11852692
       1355.3618     0.094366416
       1355.7329      0.10381052
       1356.1040     0.090939001
       1356.4751     0.091218831
       1356.8462     0.050922405
       1357.2173     0.089571867
       1357.5884      0.11168735
       1357.9595      0.10461095
       1358.3306     0.090819607
       1358.7017     0.079235209
       1359.0728     0.084891265
       1359.4439      0.10190502
       1359.8149     0.077639970
       1360.1860     0.083352194
       1360.5571     0.061342236
       1360.9282     0.061677444
       1361.2993     0.066532268
       1361.6704      0.13107298
       1362.0415      0.12350500
       1362.4126      0.10843180
       1362.7837     0.066097326
       1363.1548     0.085726343
       1363.5259      0.12604857
       1363.8970      0.10442957
       1364.2680     0.075283051
       1364.6391      0.10246913
       1365.0102      0.10227786
       1365.3813      0.10318519
       1365.7524      0.11284201
       1366.1235     0.094290958
       1366.4946      0.10589196
       1366.8657      0.10042300
       1367.2368     0.070911324
       1367.6079     0.047564384
       1367.9790     0.073781124
       1368.3501     0.091881263
       1368.7211     0.088913935
       1369.0922     0.072129521
       1369.4633     0.084247449
       1369.8344     0.064983112
       1370.2055      0.11613378
       1370.5766     0.064592115
       1370.9477      0.10527748
       1371.3188     0.083320814
       1371.6899     0.096130046
       1372.0610     0.082457050
       1372.4321     0.091581659
       1372.8032     0.087911941
       1373.1742     0.085093206
       1373.5453     0.085615302
       1373.9164     0.099521740
       1374.2875     0.092246327
       1374.6586      0.11727547
       1375.0297      0.11011751
       1375.4008     0.090731909
       1375.7719      0.10065406
       1376.1430     0.085410886
       1376.5141     0.086284551
       1376.8852     0.065494769
       1377.2563     0.074225145
       1377.6273     0.097408033
       1377.9984     0.081117142
       1378.3695     0.082992950
       1378.7406     0.073510369
       1379.1117     0.086116340
       1379.4828     0.039838529
       1379.8539     0.067349713
       1380.2250     0.058864566
       1380.5961     0.081362784
       1380.9672     0.099210222
       1381.3383      0.11497483
       1381.7094     0.093392437
       1382.0804      0.13030680
       1382.4515      0.11141038
       1382.8226      0.10827727
       1383.1937      0.13281946
       1383.5648     0.094880732
       1383.9359      0.10015023
       1384.3070      0.11854258
       1384.6781      0.10900849
       1385.0492     0.085654825
       1385.4203     0.057921433
       1385.7914      0.11602399
       1386.1625      0.12923811
       1386.5335      0.10838860
       1386.9046     0.091257516
       1387.2757     0.066891952
       1387.6468      0.11468281
       1388.0179      0.11070661
       1388.3890     0.095517755
       1388.7601     0.091784411
       1389.1312     0.065128987
       1389.5023     0.069674014
       1389.8734      0.11087969
       1390.2445     0.080962004
       1390.6156     0.091535841
       1390.9866     0.092384802
       1391.3577     0.089543347
       1391.7288      0.12298558
       1392.0999      0.11075894
       1392.4710     0.099641105
       1392.8421     0.098262405
       1393.2132     0.094749438
       1393.5843     0.088161981
       1393.9554     0.084766196
       1394.3265     0.054176908
       1394.6976     0.097822709
       1395.0687      0.12394927
       1395.4397     0.047134042
       1395.8108      0.10167219
       1396.1819     0.098499599
       1396.5530     0.087872914
       1396.9241      0.13994542
       1397.2952      0.13375756
       1397.6663     0.087018871
       1398.0374      0.12478388
       1398.4085      0.10526217
       1398.7796     0.068567204
       1399.1507      0.10563184
       1399.5218      0.11959596
       1399.8928      0.12259305
       1400.2639      0.10813413
       1400.6350     0.081871532
       1401.0061      0.11866997
       1401.3772      0.10985831
       1401.7483      0.10497476
       1402.1194     0.061162806
       1402.4905     0.073889329
       1402.8616     0.081163733
       1403.2327     0.074659400
       1403.6038     0.069807573
       1403.9749     0.089563963
       1404.3459      0.12759673
       1404.7170      0.10031510
       1405.0881      0.14705806
       1405.4592     0.075148016
       1405.8303      0.12103633
       1406.2014      0.13492651
       1406.5725     0.092460404
       1406.9436      0.12675146
       1407.3147     0.090514968
       1407.6858      0.12738974
       1408.0569      0.12332982
       1408.4280      0.10903717
       1408.7990     0.098422127
       1409.1701      0.11126302
       1409.5412     0.070313090
       1409.9123      0.10408237
       1410.2834     0.097498777
       1410.6545     0.088098625
       1411.0256     0.081567410
       1411.3967      0.10390127
       1411.7678     0.098771744
       1412.1389      0.12169785
       1412.5100     0.092757316
       1412.8811      0.11378332
       1413.2521      0.10274449
       1413.6232     0.079209772
       1413.9943     0.083556967
       1414.3654      0.12819831
       1414.7365      0.14241772
       1415.1076      0.10850179
       1415.4787      0.14396984
       1415.8498     0.038028215
       1416.2209      0.11696286
       1416.5920      0.12365674
       1416.9631      0.10701120
       1417.3342     0.080186076
       1417.7052      0.11655745
       1418.0763      0.11504079
       1418.4474      0.10679363
       1418.8185      0.10219570
       1419.1896      0.10356524
       1419.5607      0.12002843
       1419.9318      0.12405403
       1420.3029      0.10422610
       1420.6740      0.11158024
       1421.0451      0.11737355
       1421.4162      0.12777305
       1421.7873      0.11842710
       1422.1583     0.086870984
       1422.5294      0.10628871
       1422.9005      0.11963652
       1423.2716      0.11730484
       1423.6427     0.080606456
       1424.0138     0.083676482
       1424.3849     0.092782012
       1424.7560      0.12169575
       1425.1271     0.087899265
       1425.4982     0.073634118
       1425.8693     0.099916215
       1426.2403     0.077246659
       1426.6114     0.052899778
       1426.9825     0.095899420
       1427.3536      0.11101050
       1427.7247      0.10072831
       1428.0958     0.098907178
       1428.4669      0.11124498
       1428.8380      0.12449780
       1429.2091      0.10010685
       1429.5802     0.076769837
       1429.9513     0.091859649
       1430.3224      0.11315708
       1430.6934      0.11029767
       1431.0645     0.086522574
       1431.4356      0.10253328
       1431.8067     0.085908060
       1432.1778      0.13969816
       1432.5489      0.10195789
       1432.9200      0.11431446
       1433.2911      0.12464757
       1433.6622      0.14157119
       1434.0333      0.12610314
       1434.4044      0.12102057
       1434.7755      0.11465461
       1435.1465     0.095988240
       1435.5176     0.064981342
       1435.8887     0.066889028
       1436.2598      0.11368153
       1436.6309      0.10400149
       1437.0020     0.077987132
       1437.3731     0.098002218
       1437.7442     0.091986811
       1438.1153     0.094331054
       1438.4864      0.10936415
       1438.8575     0.097262084
       1439.2286     0.069296868
       1439.5996     0.095619726
       1439.9707     0.094124375
       1440.3418      0.11879567
       1440.7129     0.065524041
       1441.0840     0.089654243
       1441.4551     0.081720285
       1441.8262      0.11280502
       1442.1973     0.096926636
       1442.5684      0.12122656
       1442.9395      0.12925348
       1443.3106      0.10233974
       1443.6817      0.13004501
       1444.0527     0.093706178
       1444.4238      0.12064478
       1444.7949      0.10976999
       1445.1660     0.095645874
       1445.5371      0.13361662
       1445.9082      0.13050547
       1446.2793     0.089831933
       1446.6504     0.095450843
       1447.0215      0.12767003
       1447.3926      0.12000096
       1447.7637      0.11281496
       1448.1348      0.11190361
       1448.5058      0.14053648
       1448.8769     0.097517288
       1449.2480     0.068566098
       1449.6191      0.12770691
       1449.9902     0.088745904
       1450.3613     0.089461670
       1450.7324     0.098027235
       1451.1035      0.11926202
       1451.4746      0.11695328
       1451.8457      0.13916080
       1452.2168      0.11034121
       1452.5879     0.071450164
       1452.9589     0.094700236
       1453.3300      0.10286740
       1453.7011      0.11697998
       1454.0722     0.077449097
       1454.4433      0.10672830
       1454.8144     0.099697493
       1455.1855     0.083302838
       1455.5566      0.11328064
       1455.9277      0.10522355
       1456.2988      0.11085439
       1456.6699     0.078233410
       1457.0410      0.11667030
       1457.4120      0.12729923
       1457.7831     0.082811011
       1458.1542      0.10980419
       1458.5253     0.049072870
       1458.8964     0.072803211
       1459.2675      0.10343585
       1459.6386      0.10382174
       1460.0097     0.080233486
       1460.3808      0.10083342
       1460.7519     0.088496903
       1461.1230     0.089980232
       1461.4941      0.10756801
       1461.8651      0.12303232
       1462.2362      0.13775305
       1462.6073      0.11452525
       1462.9784     0.090444116
       1463.3495      0.12400618
       1463.7206      0.11876846
       1464.0917      0.12420133
       1464.4628      0.11343146
       1464.8339      0.12684018
       1465.2050      0.12344406
       1465.5761     0.099997258
       1465.9472     0.075668399
       1466.3182     0.070574149
       1466.6893     0.079681896
       1467.0604      0.10339545
       1467.4315      0.10418251
       1467.8026     0.097346352
       1468.1737      0.13590102
       1468.5448      0.12947074
       1468.9159      0.10545951
       1469.2870      0.11895977
       1469.6581      0.12831640
       1470.0292     0.099024283
       1470.4003      0.13086895
       1470.7713      0.13285492
       1471.1424      0.10504226
       1471.5135     0.090533479
       1471.8846      0.10737963
       1472.2557     0.069516145
       1472.6268      0.13472858
       1472.9979     0.095992218
       1473.3690     0.069902312
       1473.7401     0.090619890
       1474.1112     0.093614464
       1474.4823     0.096710588
       1474.8534      0.11511797
       1475.2244     0.068184167
       1475.5955     0.097635658
       1475.9666     0.073531660
       1476.3377     0.073303359
       1476.7088     0.099086595
       1477.0799      0.12957809
       1477.4510     0.077875010
       1477.8221      0.12833395
       1478.1932     0.073137889
       1478.5643     0.096838385
       1478.9354      0.12396638
       1479.3065      0.13195894
       1479.6775     0.095520887
       1480.0486     0.090376033
       1480.4197      0.14019894
       1480.7908      0.10706989
       1481.1619      0.12441931
       1481.5330     0.074818129
       1481.9041     0.065533255
       1482.2752      0.11318653
       1482.6463      0.14352934
       1483.0174      0.10597654
       1483.3885      0.10860671
       1483.7596      0.11901066
       1484.1306     0.098764483
       1484.5017     0.080892195
       1484.8728     0.078454796
       1485.2439      0.14106179
       1485.6150     0.086474039
       1485.9861     0.065613064
       1486.3572      0.12637084
       1486.7283      0.14061257
       1487.0994      0.12113105
       1487.4705      0.11113888
       1487.8416     0.066311446
       1488.2127     0.071325223
       1488.5837      0.10489297
       1488.9548      0.11788933
       1489.3259      0.10481611
       1489.6970     0.092170911
       1490.0681     0.099480360
       1490.4392     0.089882661
       1490.8103      0.10079616
       1491.1814     0.081135660
       1491.5525     0.099905398
       1491.9236     0.076075695
       1492.2947      0.13155136
       1492.6658      0.10240429
       1493.0368     0.095163615
       1493.4079      0.10713704
       1493.7790     0.088575056
       1494.1501     0.094001464
       1494.5212      0.11491533
       1494.8923      0.10834281
       1495.2634      0.10657274
       1495.6345      0.12155482
       1496.0056     0.094891751
       1496.3767      0.11329583
       1496.7478     0.086521815
       1497.1189     0.096919773
       1497.4899      0.14212137
       1497.8610      0.12271592
       1498.2321      0.13126095
       1498.6032     0.088780493
       1498.9743      0.11718711
       1499.3454      0.11858041
       1499.7165      0.10009948
       1500.0876      0.11126026
       1500.4587      0.11868201
       1500.8298      0.12812533
       1501.2009      0.13208184
       1501.5720      0.12495578
       1501.9430      0.15973653
       1502.3141      0.12318990
       1502.6852      0.15192662
       1503.0563      0.11388854
       1503.4274      0.13361664
       1503.7985      0.13103813
       1504.1696      0.10421133
       1504.5407      0.13928780
       1504.9118      0.11934372
       1505.2829      0.12105742
       1505.6540     0.076449356
       1506.0251      0.10311578
       1506.3961     0.081377152
       1506.7672      0.10635569
       1507.1383      0.17346943
       1507.5094     0.074938259
       1507.8805     0.099188757
       1508.2516     0.063996857
       1508.6227      0.12463322
       1508.9938      0.12310732
       1509.3649     0.099077015
       1509.7360      0.10353243
       1510.1071      0.10257208
       1510.4782      0.10263098
       1510.8492      0.10828604
       1511.2203      0.11017649
       1511.5914     0.071769904
       1511.9625     0.073733264
       1512.3336     0.072606858
       1512.7047     0.081470625
       1513.0758      0.10764332
       1513.4469      0.11425342
       1513.8180     0.092685302
       1514.1891      0.11671272
       1514.5602      0.11213203
       1514.9313      0.11285036
       1515.3023      0.10150189
       1515.6734      0.12023024
       1516.0445     0.044824097
       1516.4156     0.096575663
       1516.7867      0.11137503
       1517.1578      0.11288984
       1517.5289      0.11392485
       1517.9000      0.10804208
       1518.2711     0.096200452
       1518.6422     0.093486379
       1519.0133      0.12455202
       1519.3843     0.054296911
       1519.7554     0.056145871
       1520.1265     0.092870252
       1520.4976      0.13433983
       1520.8687     0.072983620
       1521.2398      0.12973781
       1521.6109      0.12425803
       1521.9820      0.10438761
       1522.3531      0.10008862
       1522.7242      0.11370447
       1523.0953     0.057790414
       1523.4664     0.099227309
       1523.8374      0.10629564
       1524.2085     0.090148549
       1524.5796     0.099586026
       1524.9507      0.13972711
       1525.3218      0.10477127
       1525.6929      0.10200599
       1526.0640      0.15570828
       1526.4351      0.14583602
       1526.8062      0.10840395
       1527.1773      0.12937315
       1527.5484      0.10267206
       1527.9195      0.14585842
       1528.2905     0.099267195
       1528.6616     0.084150315
       1529.0327      0.12202650
       1529.4038     0.049778953
       1529.7749     0.059734226
       1530.1460      0.11441348
       1530.5171     0.069547964
       1530.8882      0.12117170
       1531.2593     0.066273949
       1531.6304     0.089768433
       1532.0015      0.12809555
       1532.3726      0.11511524
       1532.7436      0.10170167
       1533.1147      0.12767571
       1533.4858      0.10583957
       1533.8569      0.10318267
       1534.2280     0.086640874
       1534.5991     0.092841129
       1534.9702      0.12826034
       1535.3413      0.11866705
       1535.7124      0.14807307
       1536.0835     0.090298596
       1536.4546     0.097722212
       1536.8257     0.060131866
       1537.1967     0.078872346
       1537.5678     0.089475744
       1537.9389      0.10168392
       1538.3100     0.077761725
       1538.6811      0.11039648
       1539.0522      0.10726210
       1539.4233     0.089401295
       1539.7944      0.11090943
       1540.1655     0.068400163
       1540.5366     0.078978457
       1540.9077     0.077121534
       1541.2788     0.089799255
       1541.6498      0.12084457
       1542.0209      0.12698901
       1542.3920     0.086290730
       1542.7631      0.11618995
       1543.1342      0.10878480
       1543.5053      0.11901078
       1543.8764      0.10390256
       1544.2475      0.10218753
       1544.6186      0.12805505
       1544.9897      0.10802511
       1545.3608      0.10426719
       1545.7319      0.12697739
       1546.1029      0.11902852
       1546.4740      0.10206335
       1546.8451      0.11658355
       1547.2162      0.10269061
       1547.5873      0.13426639
       1547.9584      0.11909982
       1548.3295      0.10076465
       1548.7006     0.090602100
       1549.0717     0.077545411
       1549.4428     0.073625471
       1549.8139     0.091937502
       1550.1850      0.10672148
       1550.5560     0.091242065
       1550.9271      0.16169035
       1551.2982     0.084563543
       1551.6693      0.12332969
       1552.0404     0.094477480
       1552.4115     0.088309695
       1552.7826      0.10450622
       1553.1537      0.12866642
       1553.5248      0.13992984
       1553.8959     0.096471581
       1554.2670      0.12306362
       1554.6381     0.068530193
       1555.0091     0.078317025
       1555.3802      0.12666618
       1555.7513      0.10057568
       1556.1224     0.078989297
       1556.4935     0.099695002
       1556.8646     0.078333980
       1557.2357      0.12429552
       1557.6068      0.12578180
       1557.9779      0.13869465
       1558.3490      0.10361395
       1558.7201      0.11963972
       1559.0912      0.14109816
       1559.4622      0.12815823
       1559.8333      0.12649860
       1560.2044     0.094359900
       1560.5755     0.079246377
       1560.9466     0.093987762
       1561.3177     0.070438386
       1561.6888      0.11333876
       1562.0599      0.11198614
       1562.4310     0.070715440
       1562.8021      0.10299545
       1563.1732      0.10008403
       1563.5443      0.12974588
       1563.9153     0.089899618
       1564.2864     0.092788066
       1564.6575      0.12673620
       1565.0286      0.14384065
       1565.3997      0.11242855
       1565.7708     0.094922179
       1566.1419      0.11994969
       1566.5130      0.10710263
       1566.8841      0.13199526
       1567.2552      0.11356550
       1567.6263     0.070881378
       1567.9974      0.11166273
       1568.3684     0.083894462
       1568.7395     0.093408456
       1569.1106     0.084793629
       1569.4817     0.083401508
       1569.8528     0.080695032
       1570.2239     0.087037163
       1570.5950     0.084116832
       1570.9661     0.079665720
       1571.3372      0.11756104
       1571.7083      0.14783153
       1572.0794     0.079884887
       1572.4505      0.15069492
       1572.8215      0.10162824
       1573.1926      0.10953071
       1573.5637      0.11319433
       1573.9348     0.071694115
       1574.3059      0.14297499
       1574.6770      0.11606800
       1575.0481      0.10597310
       1575.4192      0.10757125
       1575.7903      0.10045010
       1576.1614     0.088783466
       1576.5325     0.094110795
       1576.9036      0.14716439
       1577.2746     0.069626812
       1577.6457     0.076984351
       1578.0168      0.12540678
       1578.3879     0.086925464
       1578.7590      0.11374290
       1579.1301     0.078819521
       1579.5012      0.12034048
       1579.8723      0.13976468
       1580.2434     0.077048624
       1580.6145      0.12515227
       1580.9856      0.12062516
       1581.3567      0.12853060
       1581.7277      0.13696581
       1582.0988      0.13942405
       1582.4699      0.11173766
       1582.8410     0.077700493
       1583.2121      0.13330299
       1583.5832     0.091711166
       1583.9543     0.096970119
       1584.3254     0.097170129
       1584.6965     0.096087590
       1585.0676     0.097618492
       1585.4387      0.17710658
       1585.8098      0.13191384
       1586.1808      0.12769929
       1586.5519      0.14827314
       1586.9230      0.12083971
       1587.2941     0.073114273
       1587.6652      0.12615253
       1588.0363      0.11205452
       1588.4074     0.087659571
       1588.7785      0.14836023
       1589.1496      0.13268454
       1589.5207      0.10862353
       1589.8918      0.12526336
       1590.2629      0.16507402
       1590.6339      0.13230720
       1591.0050      0.13483611
       1591.3761      0.10013923
       1591.7472      0.10683325
       1592.1183      0.10802662
       1592.4894      0.10286590
       1592.8605      0.10208239
       1593.2316      0.17017308
       1593.6027      0.17795098
       1593.9738      0.10293330
       1594.3449     0.084958429
       1594.7160     0.092597607
       1595.0870      0.11116871
       1595.4581      0.14331607
       1595.8292      0.11657232
       1596.2003      0.13950533
       1596.5714     0.089736180
       1596.9425     0.077997300
       1597.3136      0.12229769
       1597.6847      0.12172165
       1598.0558     0.093353899
       1598.4269     0.095891171
       1598.7980     0.090950979
       1599.1691      0.14837227
       1599.5401      0.10516674
       1599.9112      0.12356239
       1600.2823      0.14532002
       1600.6534     0.094344716
       1601.0245      0.13427762
       1601.3956     0.089116133
       1601.7667      0.10547799
       1602.1378     0.092498368
       1602.5089      0.12569064
       1602.8800      0.11478728
       1603.2511      0.15933313
       1603.6222      0.14925285
       1603.9932      0.12548039
       1604.3643      0.12252591
       1604.7354      0.11663662
       1605.1065     0.097520389
       1605.4776     0.084484316
       1605.8487     0.063362666
       1606.2198     0.097483030
       1606.5909     0.084982814
       1606.9620     0.095789012
       1607.3331      0.12724804
       1607.7042      0.12895908
       1608.0753     0.094431925
       1608.4463      0.11556261
       1608.8174      0.10950284
       1609.1885     0.087137019
       1609.5596     0.091638068
       1609.9307      0.16298813
       1610.3018     0.099761019
       1610.6729      0.12118631
       1611.0440     0.096608306
       1611.4151     0.090969746
       1611.7862     0.087653567
       1612.1573     0.072221862
       1612.5284      0.13248526
       1612.8994      0.11164218
       1613.2705      0.13161131
       1613.6416      0.12734039
       1614.0127     0.084393066
       1614.3838     0.063890638
       1614.7549      0.14630719
       1615.1260      0.14929006
       1615.4971      0.15385237
       1615.8682      0.15656181
       1616.2393     0.065326177
       1616.6104      0.10729171
       1616.9814      0.14812642
       1617.3525     0.068196754
       1617.7236      0.13553298
       1618.0947      0.11752136
       1618.4658     0.095894959
       1618.8369      0.10154780
       1619.2080     0.081982119
       1619.5791     0.099605059
       1619.9502      0.11182117
       1620.3213      0.11684632
       1620.6924     0.081138076
       1621.0635     0.075139785
       1621.4345      0.13166881
       1621.8056     0.089023118
       1622.1767     0.074094171
       1622.5478      0.13063066
       1622.9189     0.085281657
       1623.2900      0.12297916
       1623.6611      0.11887181
       1624.0322      0.15015042
       1624.4033      0.11368973
       1624.7744      0.12883961
       1625.1455      0.10465025
       1625.5166     0.087043541
       1625.8876     0.066143043
       1626.2587      0.12108349
       1626.6298      0.10383204
       1627.0009     0.099728949
       1627.3720      0.10572746
       1627.7431     0.068788131
       1628.1142     0.087845490
       1628.4853      0.13642294
       1628.8564     0.056673205
       1629.2275      0.10612621
       1629.5986     0.096120894
       1629.9697      0.11311787
       1630.3407      0.11532530
       1630.7118      0.10035724
       1631.0829     0.083038371
       1631.4540      0.10409024
       1631.8251     0.078798182
       1632.1962     0.080816700
       1632.5673      0.12180699
       1632.9384      0.13067813
       1633.3095     0.071441216
       1633.6806      0.10682110
       1634.0517      0.11319367
       1634.4228      0.17313946
       1634.7938     0.093252303
       1635.1649      0.12426890
       1635.5360      0.12653791
       1635.9071      0.11291588
       1636.2782      0.10708364
       1636.6493      0.10859245
       1637.0204     0.047382201
       1637.3915      0.12924692
       1637.7626      0.12464037
       1638.1337      0.15063144
       1638.5048      0.15123013
       1638.8759      0.12821980
       1639.2469      0.15413845
       1639.6180      0.11144091
       1639.9891     0.089776551
       1640.3602      0.12741570
       1640.7313      0.10689304
       1641.1024      0.11063174
       1641.4735      0.16046666
       1641.8446      0.13827115
       1642.2157      0.14375903
       1642.5868     0.084911154
       1642.9579      0.14534789
       1643.3290      0.11317950
       1643.7000      0.10181901
       1644.0711     0.081897764
       1644.4422     0.098113415
       1644.8133     0.074240823
       1645.1844     0.087263851
       1645.5555     0.088179815
       1645.9266     0.056364043
       1646.2977      0.15142952
       1646.6688      0.12723920
       1647.0399      0.14329112
       1647.4110      0.12535152
       1647.7821      0.10323773
       1648.1531      0.13096855
       1648.5242     0.066299414
       1648.8953      0.10295494
       1649.2664     0.088932248
       1649.6375     0.076475792
       1650.0086     0.099984617
       1650.3797      0.12753081
       1650.7508      0.11882749
       1651.1219      0.11036862
       1651.4930      0.11950762
       1651.8641      0.14047480
       1652.2352      0.11963659
       1652.6062      0.12748687
       1652.9773      0.12118761
       1653.3484      0.13805550
       1653.7195      0.10483396
       1654.0906      0.13735987
       1654.4617      0.12956858
       1654.8328     0.073029090
       1655.2039      0.12629857
       1655.5750     0.092657196
       1655.9461     0.094263107
       1656.3172      0.10747488
       1656.6883     0.087470764
       1657.0593     0.056639728
       1657.4304     0.078051292
       1657.8015      0.17940731
       1658.1726     0.095026044
       1658.5437      0.10446848
       1658.9148      0.11018199
       1659.2859      0.12642341
       1659.6570      0.13929964
       1660.0281     0.086313570
       1660.3992      0.14823961
       1660.7703      0.13401112
       1661.1414      0.13370688
       1661.5124      0.10435999
       1661.8835      0.16306203
       1662.2546     0.091726290
       1662.6257      0.10869201
       1662.9968     0.068682594
       1663.3679      0.11595222
       1663.7390      0.13686669
       1664.1101      0.13513004
       1664.4812     0.088385711
       1664.8523     0.098655470
       1665.2234      0.13079614
       1665.5945      0.11599570
       1665.9655      0.12436812
       1666.3366     0.090431084
       1666.7077      0.12999908
       1667.0788     0.051810323
       1667.4499     0.091351319
       1667.8210      0.13653967
       1668.1921     0.094596412
       1668.5632      0.11195405
       1668.9343     0.069338404
       1669.3054     0.075655732
       1669.6765      0.10665428
       1670.0476      0.10455624
       1670.4186      0.12713279
       1670.7897     0.074875621
       1671.1608     0.081234551
       1671.5319      0.12972012
       1671.9030     0.094052398
       1672.2741      0.11036000
       1672.6452      0.12046767
       1673.0163      0.14151876
       1673.3874      0.12094657
       1673.7585      0.17430297
       1674.1296      0.10868427
       1674.5007      0.13664128
       1674.8717      0.16611474
       1675.2428     0.098691284
       1675.6139     0.073877989
       1675.9850      0.10063836
       1676.3561     0.065067547
       1676.7272      0.12071526
       1677.0983      0.11153516
       1677.4694     0.072460459
       1677.8405      0.13018841
       1678.2116      0.12140089
       1678.5827     0.084989826
       1678.9538      0.11212659
       1679.3248     0.072116039
       1679.6959      0.12792744
       1680.0670      0.14355029
       1680.4381      0.12371430
       1680.8092     0.067409601
       1681.1803      0.13854236
       1681.5514      0.14329968
       1681.9225      0.13173328
       1682.2936     0.098073671
       1682.6647      0.13081966
       1683.0358      0.13478106
       1683.4069      0.10598605
       1683.7779      0.12809461
       1684.1490     0.089558375
       1684.5201      0.14243965
       1684.8912      0.12436100
       1685.2623     0.095982334
       1685.6334      0.11858652
       1686.0045      0.13819689
       1686.3756      0.13011328
       1686.7467      0.10241399
       1687.1178      0.12828703
       1687.4889      0.12485758
       1687.8600      0.16651770
       1688.2310      0.11111851
       1688.6021      0.11140903
       1688.9732      0.10957972
       1689.3443      0.10015674
       1689.7154      0.11600175
       1690.0865     0.060067403
       1690.4576     0.084824915
       1690.8287     0.071689255
       1691.1998      0.10080504
       1691.5709      0.12413513
       1691.9420     0.091823592
       1692.3131      0.10928972
       1692.6841      0.13120556
       1693.0552      0.14482057
       1693.4263      0.15553421
       1693.7974      0.12051554
       1694.1685      0.13697129
       1694.5396      0.12578601
       1694.9107      0.10225882
       1695.2818     0.072883232
       1695.6529     0.075136476
       1696.0240      0.13006042
       1696.3951      0.11847314
       1696.7662     0.074323843
       1697.1372      0.13804286
       1697.5083      0.12349222
       1697.8794     0.062738005
       1698.2505      0.10113417
       1698.6216      0.10129212
       1698.9927      0.15488271
       1699.3638      0.11911530
       1699.7349      0.11812373
       1700.1060      0.10259550
       1700.4771      0.11332051
       1700.8482     0.071804057
       1701.2193      0.16094640
       1701.5903      0.12455197
       1701.9614     0.050897746
       1702.3325     0.079792296
       1702.7036      0.11096213
       1703.0747      0.11602497
       1703.4458      0.10460423
       1703.8169     0.067828774
       1704.1880     0.041383545
       1704.5591      0.10588202
       1704.9302      0.12469625
       1705.3013      0.11379065
       1705.6724      0.11635195
       1706.0434     0.088005412
       1706.4145     0.088901819
       1706.7856      0.13960537
       1707.1567     0.079150768
       1707.5278      0.13339145
       1707.8989      0.10107497
       1708.2700      0.11305582
       1708.6411      0.11169561
       1709.0122      0.11779937
       1709.3833      0.13527099
       1709.7544      0.12655183
       1710.1254      0.12624721
       1710.4965     0.076515480
       1710.8676      0.12392961
       1711.2387      0.13988770
       1711.6098      0.11896002
       1711.9809      0.10302535
       1712.3520      0.12674590
       1712.7231     0.076641157
       1713.0942     0.063191062
       1713.4653      0.13343157
       1713.8364      0.12424575
       1714.2075      0.12382711
       1714.5785      0.11242165
       1714.9496      0.11025797
       1715.3207     0.056285769
       1715.6918     0.099479426
       1716.0629      0.13801398
       1716.4340     0.078897910
       1716.8051      0.10692735
       1717.1762      0.11510545
       1717.5473      0.12964315
       1717.9184      0.13187797
       1718.2895      0.12132574
       1718.6606     0.074062112
       1719.0316      0.13570967
       1719.4027      0.11085173
       1719.7738      0.10705633
       1720.1449      0.12372789
       1720.5160     0.071416643
       1720.8871      0.14455767
       1721.2582      0.10480189
       1721.6293      0.11184078
       1722.0004     0.047650214
       1722.3715      0.11677509
       1722.7426      0.13071573
       1723.1137     0.048172633
       1723.4847     0.063577328
       1723.8558     0.098385809
       1724.2269      0.13545632
       1724.5980      0.11281664
       1724.9691      0.14357184
       1725.3402      0.12321673
       1725.7113      0.10911115
       1726.0824      0.16628498
       1726.4535      0.11186852
       1726.8246      0.13621878
       1727.1957     0.070151323
       1727.5668     0.094343962
       1727.9378      0.10959587
       1728.3089      0.11799186
       1728.6800      0.11046395
       1729.0511     0.061863145
       1729.4222     0.075695541
       1729.7933     0.073070636
       1730.1644     0.083146610
       1730.5355     0.051852349
       1730.9066      0.15264674
       1731.2777     0.091208718
       1731.6488      0.13385130
       1732.0199      0.13238433
       1732.3909      0.12935225
       1732.7620      0.10492950
       1733.1331      0.14778373
       1733.5042      0.10707429
       1733.8753     0.079346499
       1734.2464      0.10018798
       1734.6175     0.077243420
       1734.9886     0.084995940
       1735.3597      0.16892641
       1735.7308      0.15544359
       1736.1019      0.10739876
       1736.4730     0.082632873
       1736.8440      0.10487060
       1737.2151     0.071606711
       1737.5862      0.12551997
       1737.9573      0.11523621
       1738.3284      0.11798086
       1738.6995     0.068163939
       1739.0706      0.12768290
       1739.4417      0.12278608
       1739.8128      0.14273568
       1740.1839      0.11157028
       1740.5550     0.095727456
       1740.9261      0.11659221
       1741.2971      0.15861455
       1741.6682      0.13386543
       1742.0393      0.10137689
       1742.4104     0.066119006
       1742.7815     0.090192132
       1743.1526     0.097900305
       1743.5237     0.097732186
       1743.8948      0.10441576
       1744.2659      0.14704292
       1744.6370      0.12208621
       1745.0081     0.096446906
       1745.3792      0.12869410
       1745.7502      0.11426571
       1746.1213      0.11339056
       1746.4924      0.12175296
       1746.8635      0.10485167
       1747.2346      0.11329956
       1747.6057     0.099475952
       1747.9768      0.11819695
       1748.3479      0.13115499
       1748.7190      0.11487412
       1749.0901      0.13224633
       1749.4612      0.12673189
       1749.8323      0.12004379
       1750.2033      0.11946925
       1750.5744      0.12540247
       1750.9455     0.091686437
       1751.3166      0.12096737
       1751.6877      0.10037086
       1752.0588      0.11517140
       1752.4299      0.11006741
       1752.8010     0.094513769
       1753.1721      0.10663244
       1753.5432     0.086486643
       1753.9143     0.089378705
       1754.2854      0.10822187
       1754.6564     0.086876827
       1755.0275      0.12703520
       1755.3986     0.092400334
       1755.7697     0.093590561
       1756.1408      0.11468022
       1756.5119      0.10102044
       1756.8830      0.10156991
       1757.2541     0.090306660
       1757.6252      0.12195710
       1757.9963      0.11383759
       1758.3674     0.083326574
       1758.7385      0.14379024
       1759.1095     0.067451271
       1759.4806      0.11069073
       1759.8517      0.11687113
       1760.2228      0.14984190
       1760.5939     0.079395047
       1760.9650     0.098164528
       1761.3361      0.10202811
       1761.7072      0.12533478
       1762.0783      0.10935707
       1762.4494      0.14778891
       1762.8205     0.097910982
       1763.1916     0.086023960
       1763.5626     0.083599427
       1763.9337     0.092803488
       1764.3048     0.099411960
       1764.6759     0.089275839
       1765.0470     0.073656511
       1765.4181      0.12879816
       1765.7892      0.12733870
       1766.1603      0.16219751
       1766.5314     0.072580389
       1766.9025      0.12557763
       1767.2736     0.090444842
       1767.6447     0.082187247
       1768.0157      0.10414498
       1768.3868      0.12621837
       1768.7579      0.13223519
       1769.1290      0.12159915
       1769.5001     0.091748787
       1769.8712      0.11316198
       1770.2423     0.098276948
       1770.6134      0.10904180
       1770.9845      0.10063321
       1771.3556     0.084206824
       1771.7267     0.086258096
       1772.0978     0.098160075
       1772.4688      0.11054010
       1772.8399      0.11810142
       1773.2110     0.096459592
       1773.5821      0.10354404
       1773.9532      0.10994464
       1774.3243     0.091632612
       1774.6954      0.11352272
       1775.0665     0.095202082
       1775.4376     0.090617098
       1775.8087     0.087207004
       1776.1798      0.13029956
       1776.5509      0.10485934
       1776.9219      0.10184882
       1777.2930      0.11907194
       1777.6641     0.074782838
       1778.0352     0.089488428
       1778.4063      0.15532092
       1778.7774      0.10510490
       1779.1485     0.081332436
       1779.5196     0.055156027
       1779.8907     0.098427673
       1780.2618      0.15033859
       1780.6329      0.11840730
       1781.0040      0.13024657
       1781.3750      0.12259419
       1781.7461     0.082077790
       1782.1172      0.10965584
       1782.4883      0.10731625
       1782.8594      0.10936937
       1783.2305      0.10594490
       1783.6016      0.10884168
       1783.9727      0.12850149
       1784.3438     0.076005587
       1784.7149      0.10320035
       1785.0860      0.13062084
       1785.4571     0.035566611
       1785.8281     0.096728577
       1786.1992     0.074878820
       1786.5703      0.11766391
       1786.9414     0.096379453
       1787.3125      0.14202975
       1787.6836     0.076486158
       1788.0547      0.14466014
       1788.4258     0.097677336
       1788.7969      0.13530376
       1789.1680     0.077443723
       1789.5391     0.099581688
       1789.9102     0.051603304
       1790.2812     0.047867024
       1790.6523     0.045190966
       1791.0234      0.22401995
       1791.3945      0.11548126
       1791.7656     0.067402650
       1792.1367      0.18464129
       1792.5078     0.081468076
       1792.8789      0.14080679
       1793.2500      0.12002242
       1793.6211      0.11312527
       1793.9922     0.093887343
       1794.3633      0.12262601
       1794.7343      0.12376531
       1795.1054     0.081326895
       1795.4765     0.064298292
       1795.8476      0.11988451
       1796.2187     0.092542003
       1796.5898      0.13133658
       1796.9609      0.12929330
       1797.3320      0.15930512
       1797.7031     0.077673012
       1798.0742     0.085657691
       1798.4453     0.099340839
       1798.8164      0.13762925
       1799.1874     0.082565288
       1799.5585     0.082831704
       1799.9296     0.098622376
       1800.3007      0.17380554
       1800.6718     0.052633819
       1801.0429      0.10745628
       1801.4140      0.10106040
       1801.7851     0.023144135
       1802.1562     0.086835207
       1802.5273     0.093608153
       1802.8984      0.15033954
       1803.2694      0.11758156
       1803.6405     0.095452441
       1804.0116      0.10953201
       1804.3827      0.10995787
       1804.7538     0.067941023
       1805.1249     0.072474506
       1805.4960      0.10746184
       1805.8671     0.068111734
       1806.2382     0.095897547
       1806.6093      0.12168916
       1806.9804     0.087927450
       1807.3515     0.059349241
       1807.7225      0.11285083
       1808.0936     0.091222422
       1808.4647     0.066297162
       1808.8358      0.13589068
       1809.2069      0.10249737
       1809.5780     0.082485988
       1809.9491      0.12016276
       1810.3202      0.15035409
       1810.6913      0.16480538
       1811.0624      0.13404116
       1811.4335      0.10040663
       1811.8046      0.13467387
       1812.1756      0.12863274
       1812.5467      0.10678622
       1812.9178      0.10282246
       1813.2889      0.12840994
       1813.6600      0.12009210
       1814.0311      0.12094653
       1814.4022      0.13033436
       1814.7733      0.12648374
       1815.1444      0.10944437
       1815.5155     0.080806719
       1815.8866     0.098210889
       1816.2577      0.14122344
       1816.6287      0.16413549
       1816.9998      0.11013695
       1817.3709      0.13058736
       1817.7420      0.11451774
       1818.1131     0.057756751
       1818.4842     0.079267249
       1818.8553      0.10320925
       1819.2264     0.098723429
       1819.5975      0.11329767
       1819.9686      0.10453506
       1820.3397     0.064853601
       1820.7108     0.090317951
       1821.0818      0.14650754
       1821.4529      0.10991803
       1821.8240      0.10324828
       1822.1951     0.053093195
       1822.5662     0.060427166
       1822.9373      0.10613865
       1823.3084     0.065941352
       1823.6795     0.037368102
       1824.0506      0.11874566
       1824.4217     0.071544731
       1824.7928      0.10965499
       1825.1639      0.14586211
       1825.5349      0.11427880
       1825.9060      0.14896997
       1826.2771      0.10643114
       1826.6482      0.13527181
       1827.0193     0.071227331
       1827.3904      0.11403158
       1827.7615      0.17363493
       1828.1326      0.10314950
       1828.5037     0.089283697
       1828.8748      0.12868344
       1829.2459      0.10522865
       1829.6170     0.097807112
       1829.9880     0.097168603
       1830.3591      0.10131018
       1830.7302      0.14071732
       1831.1013      0.13477506
       1831.4724     0.057208263
       1831.8435      0.12456459
       1832.2146     0.066316978
       1832.5857      0.11356295
       1832.9568     0.055922781
       1833.3279     0.058386013
       1833.6990      0.11395411
       1834.0701      0.13829444
       1834.4411     0.086104653
       1834.8122     0.085161482
       1835.1833     0.060372096
       1835.5544     0.098759353
       1835.9255     0.073558688
       1836.2966     0.043668164
       1836.6677     0.075093340
       1837.0388      0.10232929
       1837.4099      0.10078527
       1837.7810     0.088979833
       1838.1521      0.13546490
       1838.5232     0.099941935
       1838.8942     0.076639896
       1839.2653     0.090527806
       1839.6364      0.15251346
       1840.0075     0.063403345
       1840.3786      0.12837988
       1840.7497     0.084660673
       1841.1208     0.058683658
       1841.4919      0.11441380
       1841.8630     0.063299774
       1842.2341      0.11412531
       1842.6052     0.078288128
       1842.9763     0.052046644
       1843.3473     0.061511888
       1843.7184      0.12989293
       1844.0895     0.085798928
       1844.4606     0.094201703
       1844.8317     0.079971449
       1845.2028     0.053440826
       1845.5739      0.13634600
       1845.9450      0.16794970
       1846.3161      0.12340360
       1846.6872     0.066513754
       1847.0583     0.086371137
       1847.4294      0.13862649
       1847.8004      0.13608682
       1848.1715      0.11625521
       1848.5426     0.073682669
       1848.9137      0.13051930
       1849.2848      0.14557561
       1849.6559      0.10742705
       1850.0270     0.069265763
       1850.3981     0.074671164
       1850.7692     0.078462095
       1851.1403      0.10398903
       1851.5114     0.091738399
       1851.8825     0.055583586
       1852.2535     0.095414055
       1852.6246      0.11624680
       1852.9957     0.097184510
       1853.3668     0.082979176
       1853.7379      0.13810519
       1854.1090      0.13151010
       1854.4801      0.11423307
       1854.8512     0.091979100
       1855.2223      0.13456914
       1855.5934     0.068856877
       1855.9645      0.13316757
       1856.3356      0.10272807
       1856.7066      0.17090043
       1857.0777     0.078331707
       1857.4488      0.10266788
       1857.8199     0.064114785
       1858.1910     0.096233181
       1858.5621     0.071075121
       1858.9332     0.091806583
       1859.3043     0.098409906
       1859.6754     0.066056362
       1860.0465      0.10981911
       1860.4176      0.10199927
       1860.7887     0.082971470
       1861.1597     0.094627548
       1861.5308      0.10564437
       1861.9019     0.081632976
       1862.2730      0.11280450
       1862.6441     0.074559734
       1863.0152     0.073419066
       1863.3863     0.047792002
       1863.7574     0.067241839
       1864.1285     0.077816200
       1864.4996     0.091044676
       1864.8707     0.099581759
       1865.2418      0.10976967
       1865.6128     0.052954065
       1865.9839      0.10992944
       1866.3550     0.084207822
       1866.7261     0.096508118
       1867.0972     0.066592766
       1867.4683      0.10836281
       1867.8394      0.13904865
       1868.2105      0.14544838
       1868.5816      0.10299367
       1868.9527      0.11660988
       1869.3238      0.14576900
       1869.6949      0.18057170
       1870.0659      0.14759969
       1870.4370     0.078882947
       1870.8081      0.14121636
       1871.1792      0.11537105
       1871.5503      0.10732622
       1871.9214     0.078698367
       1872.2925      0.10401309
       1872.6636      0.16389867
       1873.0347     0.088028510
       1873.4058      0.12871058
       1873.7769      0.15376678
       1874.1480      0.10829979
       1874.5190     0.058661443
       1874.8901     0.049486710
       1875.2612     0.079700912
       1875.6323      0.13303665
       1876.0034     0.079300610
       1876.3745     0.088913965
       1876.7456     0.052382189
       1877.1167     0.092964084
       1877.4878      0.10886651
       1877.8589      0.14561772
       1878.2300     0.089334752
       1878.6011      0.11440727
       1878.9721      0.13541279
       1879.3432      0.11582988
       1879.7143      0.13640232
       1880.0854      0.12751846
       1880.4565      0.11068069
       1880.8276      0.14318025
       1881.1987      0.14306233
       1881.5698      0.16168306
       1881.9409     0.061799867
       1882.3120     0.086921868
       1882.6831     0.068325379
       1883.0542     0.077657318
       1883.4252     0.089565092
       1883.7963      0.10490243
       1884.1674      0.12114823
       1884.5385     0.071819663
       1884.9096     0.065334382
       1885.2807     0.038869502
       1885.6518     0.046857016
       1886.0229     0.084661379
       1886.3940      0.12075011
       1886.7651     0.088491023
       1887.1362      0.10510152
       1887.5073     0.097060723
       1887.8783      0.10097187
       1888.2494     0.090891135
       1888.6205     0.076204392
       1888.9916     0.063951296
       1889.3627     0.078792087
       1889.7338      0.11137395
       1890.1049      0.14710690
       1890.4760     0.063249249
       1890.8471     0.063600521
       1891.2182      0.16925114
       1891.5893      0.16364042
       1891.9604     0.093888123
       1892.3314      0.13971123
       1892.7025     0.066338530
       1893.0736      0.12121072
       1893.4447     0.082670926
       1893.8158     0.084313705
       1894.1869     0.072108214
       1894.5580     0.083910950
       1894.9291      0.12978783
       1895.3002      0.13025884
       1895.6713     0.080146323
       1896.0424     0.059928922
       1896.4134      0.10325059
       1896.7845     0.095396622
       1897.1556     0.063329465
       1897.5267     0.089726790
       1897.8978     0.077765800
       1898.2689      0.13247926
       1898.6400     0.096777526
       1899.0111     0.075099654
       1899.3822     0.052537825
       1899.7533      0.12500120
       1900.1244     0.090719381
       1900.4955     0.043425463
       1900.8665     0.049552170
       1901.2376      0.10493013
       1901.6087      0.12489137
       1901.9798     0.084954439
       1902.3509     0.047999618
       1902.7220     0.067289030
       1903.0931      0.12125086
       1903.4642     0.051401314
       1903.8353     0.047656152
       1904.2064     0.073056432
       1904.5775     0.059922505
       1904.9486     0.082437754
       1905.3196     0.064729323
       1905.6907     0.099181545
       1906.0618      0.12042150
       1906.4329      0.12834594
       1906.8040      0.13933340
       1907.1751     0.030017948
       1907.5462     0.044569063
       1907.9173     0.065704585
       1908.2884      0.10369267
       1908.6595      0.13787507
       1909.0306      0.10019805
       1909.4017     0.065837504
       1909.7727      0.10144462
       1910.1438     0.069666821
       1910.5149     0.084918141
       1910.8860      0.10052799
       1911.2571     0.079355077
       1911.6282     0.084303440
       1911.9993     0.082013229
       1912.3704     0.050241353
       1912.7415     0.085878816
       1913.1126     0.056712432
       1913.4837      0.10458893
       1913.8548      0.12150475
       1914.2258      0.12122412
       1914.5969      0.13539824
       1914.9680      0.11462470
       1915.3391    0.0097863918
       1915.7102      0.10632389
       1916.0813      0.10859389
       1916.4524     0.050094863
       1916.8235      0.17371699
       1917.1946     0.017910238
       1917.5657      0.26133178
       1917.9368      0.32858094
       1918.3079     -0.21585259
       1918.6789    -0.059689360
       1919.0500     -0.14410609
       1919.4211     0.083055847
       1919.7922     0.037310102
       1920.1633     0.073507732
       1920.5344     0.071470561
       1920.9055      0.12092687
       1921.2766      0.14538097
       1921.6477     0.057366901
       1922.0188     0.078328844
       1922.3899      0.12078008
       1922.7610     0.081376441
       1923.1320      0.11631510
       1923.5031      0.10977718
       1923.8742      0.11080498
       1924.2453     0.084500785
       1924.6164     0.045038429
       1924.9875     0.091329298
       1925.3586     0.068975547
       1925.7297      0.13676444
       1926.1008      0.10091207
       1926.4719     0.097027569
       1926.8430     0.086160784
       1927.2141     0.074739323
       1927.5851     0.038472947
       1927.9562     0.096294151
       1928.3273     0.099323984
       1928.6984     0.047415293
       1929.0695     0.096168761
       1929.4406     0.016463174
       1929.8117     0.090493584
       1930.1828     0.067629704
       1930.5539     0.025207488
       1930.9250     0.011348265
       1931.2961     0.084601627
       1931.6672     0.015522801
       1932.0382     0.071768526
       1932.4093     0.076354751
       1932.7804      0.12517746
       1933.1515     0.097405038
       1933.5226     0.066644228
       1933.8937     0.027149507
       1934.2648     0.094967380
       1934.6359     0.031552932
       1935.0070     0.055482741
       1935.3781     0.044020717
       1935.7492     0.070343220
       1936.1203     0.040466624
       1936.4913     0.090117475
       1936.8624     0.030396366
       1937.2335     0.056394725
       1937.6046     0.040900234
       1937.9757     0.036802328
       1938.3468     0.088440823
       1938.7179     0.071942958
       1939.0890     0.072420957
       1939.4601     0.075011795
       1939.8312     0.065816625
       1940.2023     0.065356530
       1940.5734     0.048268998
       1940.9444     0.050734967
       1941.3155    -0.045973890
       1941.6866   -0.0058907126
       1942.0577     0.072927973
       1942.4288     0.066414690
       1942.7999     0.049803131
       1943.1710     0.081778950
       1943.5421     0.047216076
       1943.9132     0.060525321
       1944.2843     0.050620720
       1944.6554     0.087009541
       1945.0265     0.050285796
       1945.3975     0.070751124
       1945.7686     0.088489614
       1946.1397     0.096565378
       1946.5108     0.047845237
       1946.8819   0.00022540109
       1947.2530     0.042702471
       1947.6241     0.017469253
       1947.9952     0.077932331
       1948.3663     0.095580698
       1948.7374    -0.024260272
       1949.1085    -0.013771394
       1949.4796     0.098122590
       1949.8506     0.041819720
       1950.2217     0.025707304
       1950.5928     0.023964717
       1950.9639    -0.034656062
       1951.3350     0.026686598
       1951.7061     0.045844070
       1952.0772     0.015773141
       1952.4483     0.017386651
       1952.8194     0.040243726
       1953.1905     0.021384735
       1953.5616   -0.0031256208
       1953.9327     0.041924206
       1954.3037     0.036325818
       1954.6748     0.058873507
       1955.0459     0.039201017
       1955.4170     0.029427336
       1955.7881     0.029837941
       1956.1592     0.080777943
       1956.5303     0.017526894
       1956.9014     0.077669239
       1957.2725    0.0078671177
       1957.6436     0.045455849
       1958.0147     0.055228495
       1958.3858     0.058022988
       1958.7568     0.055265457
       1959.1279     0.038759442
       1959.4990     0.085769156
       1959.8701     0.038105218
       1960.2412     0.092143911
       1960.6123     0.045681587
       1960.9834   -0.0049915982
       1961.3545     0.063269130
       1961.7256     0.013778380
       1962.0967     0.051989789
       1962.4678    -0.015761978
       1962.8389     0.054591594
       1963.2099     0.048982316
       1963.5810   -0.0057654986
       1963.9521      0.10035742
       1964.3232    0.0086196387
       1964.6943     0.045243200
       1965.0654     0.030998891
       1965.4365    -0.014361985
       1965.8076    -0.013420880
       1966.1787     0.027870907
       1966.5498    0.0043403152
       1966.9209   0.00030581277
       1967.2920  -0.00022112551
       1967.6630    -0.032668288
       1968.0341    0.0043827537
       1968.4052    0.0060132731
       1968.7763    0.0042767373
       1969.1474    -0.049467468
       1969.5185     0.023990422
       1969.8896     0.054331517
       1970.2607    -0.040378310
       1970.6318     0.015798324
       1971.0029  -0.00085031458
       1971.3740     0.019770688
       1971.7451     0.011433286
       1972.1161     0.040085836
       1972.4872     0.068163842
       1972.8583     0.022556526
       1973.2294     0.070763111
       1973.6005     0.053681922
       1973.9716     0.045363266
       1974.3427     0.049303707
       1974.7138     0.027564180
       1975.0849     0.016832563
       1975.4560    -0.023259629
       1975.8271    0.0014645754
       1976.1982    -0.017903123
       1976.5692     0.023770062
       1976.9403    -0.027580302
       1977.3114   -0.0057635190
       1977.6825     0.035499451
       1978.0536    -0.030266127
       1978.4247    0.0076717031
       1978.7958     0.039167009
