# wavelength flux
       2190.7745      0.12779670
       2191.4749      0.16350575
       2192.1752      0.16226516
       2192.8755     0.059448275
       2193.5758      0.15751450
       2194.2761      0.14113411
       2194.9764      0.10425057
       2195.6768      0.15254704
       2196.3771      0.13415048
       2197.0774      0.14853271
       2197.7777      0.13355522
       2198.4780      0.13746408
       2199.1783      0.12088989
       2199.8787      0.12133781
       2200.5790      0.16936620
       2201.2793      0.11383410
       2201.9796      0.13157781
       2202.6799     0.090502244
       2203.3803      0.11843677
       2204.0806     0.098452837
       2204.7809      0.12421285
       2205.4812      0.12460241
       2206.1815      0.10928503
       2206.8818      0.15168825
       2207.5822      0.14422312
       2208.2825      0.12084876
       2208.9828      0.13765172
       2209.6831      0.13649151
       2210.3834      0.13726148
       2211.0837      0.12794663
       2211.7841      0.12160999
       2212.4844      0.10180262
       2213.1847      0.13906098
       2213.8850      0.13934984
       2214.5853      0.13844266
       2215.2856      0.17035813
       2215.9860      0.12504818
       2216.6863      0.12348476
       2217.3866      0.12362604
       2218.0869      0.13622244
       2218.7872      0.15232050
       2219.4875      0.13601438
       2220.1879      0.13198832
       2220.8882      0.13137647
       2221.5885      0.10718096
       2222.2888     0.098761612
       2222.9891      0.11201175
       2223.6894      0.12916286
       2224.3898      0.15475078
       2225.0901      0.11648841
       2225.7904      0.12027726
       2226.4907      0.13926740
       2227.1910      0.14348262
       2227.8913      0.10982733
       2228.5917      0.10799006
       2229.2920      0.16372408
       2229.9923      0.11573225
       2230.6926      0.10836272
       2231.3929     0.058666475
       2232.0932     0.096385379
       2232.7936     0.070616582
       2233.4939     0.051558516
       2234.1942     0.086372987
       2234.8945     0.094692366
       2235.5948     0.095983225
       2236.2951      0.10699265
       2236.9955      0.10677254
       2237.6958      0.12636656
       2238.3961      0.10346408
       2239.0964      0.13053662
       2239.7967     0.095787312
       2240.4970      0.10461925
       2241.1974      0.11360632
       2241.8977     0.087972530
       2242.5980      0.12636469
       2243.2983      0.11257930
       2243.9986      0.11458309
       2244.6989     0.094076418
       2245.3993      0.10185295
       2246.0996      0.11315556
       2246.7999     0.097739156
       2247.5002      0.10838197
       2248.2005      0.10588288
       2248.9009      0.11198351
       2249.6012      0.14254188
       2250.3015      0.10554308
       2251.0018     0.094066795
       2251.7021      0.10650674
       2252.4024      0.10425166
       2253.1028     0.099387188
       2253.8031      0.11267844
       2254.5034      0.10122519
       2255.2037     0.097349029
       2255.9040      0.11581053
       2256.6043      0.11417124
       2257.3047     0.086454150
       2258.0050     0.079677656
       2258.7053      0.11281203
       2259.4056      0.12106137
       2260.1059     0.096590423
       2260.8062      0.12559673
       2261.5066      0.13292396
       2262.2069      0.15076098
       2262.9072     0.079446864
       2263.6075      0.10421692
       2264.3078     0.067182207
       2265.0081     0.098145065
       2265.7085     0.094496993
       2266.4088      0.10049903
       2267.1091      0.10087985
       2267.8094     0.084606723
       2268.5097     0.090494513
       2269.2100     0.097681085
       2269.9104     0.098448707
       2270.6107     0.087323871
       2271.3110     0.077722057
       2272.0113     0.088878170
       2272.7116      0.10006422
       2273.4119     0.098132882
       2274.1123      0.10481125
       2274.8126      0.10776710
       2275.5129     0.095579503
       2276.2132      0.11880014
       2276.9135     0.086890328
       2277.6138     0.077838332
       2278.3142      0.11780889
       2279.0145     0.088659615
       2279.7148      0.10679963
       2280.4151      0.10146179
       2281.1154     0.092141091
       2281.8157      0.10772830
       2282.5161      0.11691218
       2283.2164     0.092396585
       2283.9167      0.10403952
       2284.6170     0.093015706
       2285.3173     0.088359602
       2286.0176      0.10169817
       2286.7180      0.11011264
       2287.4183     0.097261995
       2288.1186      0.10751160
       2288.8189     0.094684630
       2289.5192     0.081713667
       2290.2195     0.090143769
       2290.9199      0.10138326
       2291.6202     0.086859950
       2292.3205      0.10857168
       2293.0208     0.093208401
       2293.7211     0.077247097
       2294.4214      0.11432899
       2295.1218      0.10912811
       2295.8221     0.085061939
       2296.5224      0.10046381
       2297.2227     0.097665810
       2297.9230     0.094991666
       2298.6234     0.079984945
       2299.3237     0.084370316
       2300.0240     0.086168967
       2300.7243     0.098381730
       2301.4246     0.096843256
       2302.1249      0.10270523
       2302.8253     0.084180986
       2303.5256      0.11624608
       2304.2259      0.10282800
       2304.9262     0.095196463
       2305.6265     0.072526613
       2306.3268      0.11210796
       2307.0272     0.083629886
       2307.7275     0.096236647
       2308.4278      0.12045995
       2309.1281     0.094974704
       2309.8284     0.097369452
       2310.5287     0.091618752
       2311.2291      0.10975539
       2311.9294     0.097434241
       2312.6297     0.086259295
       2313.3300     0.081642593
       2314.0303     0.094513896
       2314.7306      0.10953074
       2315.4310     0.084371847
       2316.1313     0.097513448
       2316.8316      0.11732179
       2317.5319     0.092674589
       2318.2322      0.10670126
       2318.9325      0.10148141
       2319.6329     0.083826773
       2320.3332     0.089540553
       2321.0335     0.065027744
       2321.7338     0.087876376
       2322.4341     0.069866018
       2323.1344     0.087865581
       2323.8348     0.064117755
       2324.5351     0.095796293
       2325.2354     0.077755648
       2325.9357     0.093864983
       2326.6360      0.10224407
       2327.3363     0.091299692
       2328.0367     0.089112623
       2328.7370     0.090873249
       2329.4373     0.087328079
       2330.1376     0.087883932
       2330.8379     0.087487392
       2331.5382     0.078763928
       2332.2386     0.088724285
       2332.9389      0.10320592
       2333.6392     0.086642809
       2334.3395     0.094143655
       2335.0398      0.12669628
       2335.7401      0.10350023
       2336.4405     0.095097121
       2337.1408     0.087235000
       2337.8411     0.085940283
       2338.5414     0.088730573
       2339.2417     0.093885258
       2339.9420     0.083194161
       2340.6424     0.087408859
       2341.3427      0.11407432
       2342.0430     0.089533852
       2342.7433      0.11819826
       2343.4436     0.087257377
       2344.1440      0.10624234
       2344.8443      0.11092951
       2345.5446      0.11156901
       2346.2449      0.11393215
       2346.9452     0.089832680
       2347.6455     0.098844627
       2348.3459      0.12476368
       2349.0462      0.10648188
       2349.7465     0.077065515
       2350.4468      0.10807823
       2351.1471      0.10331787
       2351.8474     0.098414027
       2352.5478     0.096876835
       2353.2481      0.10108525
       2353.9484     0.092449915
       2354.6487     0.091519872
       2355.3490     0.091007449
       2356.0493     0.080886727
       2356.7497     0.071346007
       2357.4500     0.090647083
       2358.1503      0.10891563
       2358.8506      0.10949374
       2359.5509      0.10085434
       2360.2512     0.090957361
       2360.9516     0.075128023
       2361.6519     0.061303318
       2362.3522     0.075541953
       2363.0525     0.079094676
       2363.7528     0.075926315
       2364.4531      0.10115332
       2365.1535     0.074692000
       2365.8538      0.10950272
       2366.5541      0.12573799
       2367.2544      0.11881742
       2367.9547      0.11497956
       2368.6550     0.085244231
       2369.3554      0.10876481
       2370.0557      0.11064759
       2370.7560     0.095219070
       2371.4563      0.10894534
       2372.1566      0.11957360
       2372.8569      0.11406153
       2373.5573      0.10709590
       2374.2576      0.13290351
       2374.9579      0.10326624
       2375.6582      0.10913849
       2376.3585      0.11732897
       2377.0588      0.10735312
       2377.7592     0.090517134
       2378.4595     0.098741915
       2379.1598      0.10585881
       2379.8601     0.097234718
       2380.5604      0.12328774
       2381.2607      0.10460899
       2381.9611      0.11149174
       2382.6614     0.082360804
       2383.3617      0.12263066
       2384.0620      0.10863868
       2384.7623      0.13198974
       2385.4626      0.13024594
       2386.1630      0.10709746
       2386.8633      0.12763728
       2387.5636      0.11756665
       2388.2639      0.10131330
       2388.9642      0.11006896
       2389.6646      0.11043556
       2390.3649     0.090592171
       2391.0652      0.11739741
       2391.7655     0.077648961
       2392.4658     0.087015008
       2393.1661     0.081400523
       2393.8665     0.075687432
       2394.5668     0.082768783
       2395.2671     0.099338196
       2395.9674     0.075094837
       2396.6677      0.10260769
       2397.3680     0.096076296
       2398.0684      0.10923984
       2398.7687     0.095401707
       2399.4690      0.10404283
       2400.1693     0.069119260
       2400.8696     0.074715353
       2401.5699     0.076807387
       2402.2703     0.055603315
       2402.9706     0.079512854
       2403.6709     0.085751551
       2404.3712     0.095770609
       2405.0715      0.10861577
       2405.7718      0.11063304
       2406.4722      0.11397165
       2407.1725      0.12311191
       2407.8728      0.13262123
       2408.5731      0.13951079
       2409.2734      0.13641744
       2409.9737      0.11043546
       2410.6741      0.11661653
       2411.3744      0.12892112
       2412.0747      0.11577755
       2412.7750      0.13803876
       2413.4753      0.10368403
       2414.1756      0.14848513
       2414.8760      0.11087658
       2415.5763      0.16947517
       2416.2766      0.13843682
       2416.9769      0.14518395
       2417.6772      0.12751571
       2418.3775      0.12326064
       2419.0779      0.10318894
       2419.7782      0.10656415
       2420.4785      0.11665197
       2421.1788      0.12153692
       2421.8791      0.12470573
       2422.5794      0.13598422
       2423.2798      0.12185330
       2423.9801      0.10461477
       2424.6804      0.10151145
       2425.3807      0.10366754
       2426.0810      0.13934794
       2426.7813      0.14001611
       2427.4817      0.13735172
       2428.1820      0.11369917
       2428.8823      0.12798549
       2429.5826      0.10532582
       2430.2829      0.13879456
       2430.9832      0.12059123
       2431.6836      0.12845688
       2432.3839      0.13465317
       2433.0842      0.12657227
       2433.7845      0.13484618
       2434.4848      0.12414445
       2435.1851      0.13025921
       2435.8855      0.10027870
       2436.5858      0.10784675
       2437.2861      0.14367492
       2437.9864      0.13695916
       2438.6867      0.13825065
       2439.3871      0.13057372
       2440.0874      0.11449669
       2440.7877      0.13225337
       2441.4880      0.14829361
       2442.1883     0.095186773
       2442.8886      0.11871866
       2443.5890      0.10701468
       2444.2893      0.12657706
       2444.9896      0.14266460
       2445.6899      0.11507897
       2446.3902      0.11680439
       2447.0905      0.11780596
       2447.7909      0.12109193
       2448.4912      0.11483561
       2449.1915      0.11904701
       2449.8918      0.12262478
       2450.5921      0.13330367
       2451.2924      0.12301649
       2451.9928      0.12895577
       2452.6931      0.11918878
       2453.3934      0.10520835
       2454.0937      0.13388995
       2454.7940      0.11718494
       2455.4943      0.12500984
       2456.1947      0.13188473
       2456.8950      0.11275396
       2457.5953      0.12734038
       2458.2956     0.098803672
       2458.9959      0.13077905
       2459.6962      0.11625359
       2460.3966      0.14350452
       2461.0969      0.12357392
       2461.7972      0.13738185
       2462.4975      0.11684537
       2463.1978      0.12064772
       2463.8981      0.10979340
       2464.5985      0.11263547
       2465.2988      0.14897459
       2465.9991      0.11617139
       2466.6994      0.14022966
       2467.3997      0.10247425
       2468.1000      0.11363192
       2468.8004      0.12368276
       2469.5007      0.11284656
       2470.2010      0.12077805
       2470.9013      0.12943891
       2471.6016      0.10192461
       2472.3019      0.12623412
       2473.0023      0.12615488
       2473.7026      0.13026624
       2474.4029      0.10508229
       2475.1032      0.12109637
       2475.8035      0.12137700
       2476.5038      0.10384586
       2477.2042      0.13099495
       2477.9045      0.12027256
       2478.6048      0.12268453
       2479.3051      0.12483513
       2480.0054      0.13265124
       2480.7057      0.12000147
       2481.4061      0.13402630
       2482.1064      0.13687182
       2482.8067      0.11674039
       2483.5070      0.12121266
       2484.2073      0.10057285
       2484.9077      0.12203305
       2485.6080      0.10522984
       2486.3083      0.12415651
       2487.0086      0.13264811
       2487.7089      0.12516811
       2488.4092      0.11457125
       2489.1096     0.091259271
       2489.8099      0.10739651
       2490.5102      0.13396779
       2491.2105      0.11284930
       2491.9108      0.11198570
       2492.6111      0.14129784
       2493.3115      0.12537406
       2494.0118      0.13736843
       2494.7121      0.13883901
       2495.4124      0.12702101
       2496.1127      0.14079966
       2496.8130      0.13666665
       2497.5134      0.11967655
       2498.2137      0.12571802
       2498.9140      0.11555157
       2499.6143      0.12634882
       2500.3146      0.11359632
       2501.0149      0.10388087
       2501.7153      0.10522163
       2502.4156      0.14092811
       2503.1159      0.11856740
       2503.8162      0.10792484
       2504.5165      0.11128496
       2505.2168      0.11569976
       2505.9172      0.12515998
       2506.6175      0.13384829
       2507.3178      0.11269548
       2508.0181      0.12089350
       2508.7184      0.13570947
       2509.4187      0.13141340
       2510.1191      0.13292926
       2510.8194      0.12031833
       2511.5197      0.12587740
       2512.2200      0.10815995
       2512.9203      0.13231833
       2513.6206      0.12485479
       2514.3210      0.11058246
       2515.0213      0.12804045
       2515.7216     0.094905440
       2516.4219      0.11872499
       2517.1222      0.13033709
       2517.8225     0.098385494
       2518.5229      0.11496470
       2519.2232      0.10880826
       2519.9235      0.12149538
       2520.6238      0.12271234
       2521.3241      0.11722957
       2522.0244      0.11963253
       2522.7248      0.10549149
       2523.4251      0.11245808
       2524.1254      0.12829589
       2524.8257      0.11957781
       2525.5260      0.11912661
       2526.2263      0.12633054
       2526.9267      0.12845324
       2527.6270     0.098975817
       2528.3273      0.12740927
       2529.0276      0.10563487
       2529.7279      0.10134192
       2530.4283      0.11234347
       2531.1286      0.11404516
       2531.8289      0.12849440
       2532.5292      0.11158819
       2533.2295      0.12788633
       2533.9298      0.13070056
       2534.6302      0.11359392
       2535.3305      0.12638624
       2536.0308      0.10661990
       2536.7311      0.12266225
       2537.4314      0.12017300
       2538.1317      0.13387045
       2538.8321      0.12299583
       2539.5324      0.12367870
       2540.2327      0.11918330
       2540.9330      0.11406588
       2541.6333      0.11868809
       2542.3336      0.13402066
       2543.0340      0.12813360
       2543.7343      0.13017812
       2544.4346      0.11427507
       2545.1349      0.11090415
       2545.8352      0.11983983
       2546.5355      0.10487103
       2547.2359      0.11286970
       2547.9362      0.12583763
       2548.6365      0.11176146
       2549.3368      0.12748061
       2550.0371      0.11411864
       2550.7374      0.10357623
       2551.4378     0.096339072
       2552.1381     0.097063264
       2552.8384      0.12004210
       2553.5387      0.11673717
       2554.2390      0.12168103
       2554.9393      0.10979634
       2555.6397      0.11368883
       2556.3400      0.11668963
       2557.0403      0.13056388
       2557.7406      0.11296742
       2558.4409      0.11658449
       2559.1412      0.11872823
       2559.8416      0.11642516
       2560.5419      0.12386346
       2561.2422      0.11168039
       2561.9425      0.10960117
       2562.6428      0.11616969
       2563.3431     0.090167072
       2564.0435      0.10401672
       2564.7438      0.10525352
       2565.4441      0.10872718
       2566.1444      0.13358933
       2566.8447      0.12285789
       2567.5450      0.10365295
       2568.2454      0.13540641
       2568.9457      0.13202563
       2569.6460      0.12924309
       2570.3463      0.12757446
       2571.0466      0.11062361
       2571.7469      0.10493146
       2572.4473      0.12341184
       2573.1476      0.11823422
       2573.8479      0.13107798
       2574.5482      0.12037627
       2575.2485      0.11978679
       2575.9489      0.12345163
       2576.6492      0.13247954
       2577.3495      0.13636636
       2578.0498      0.15500776
       2578.7501      0.13999434
       2579.4504      0.13276953
       2580.1508      0.13968772
       2580.8511      0.13361982
       2581.5514      0.13356276
       2582.2517      0.12648456
       2582.9520      0.11463432
       2583.6523      0.12024512
       2584.3527      0.13222740
       2585.0530      0.12209520
       2585.7533      0.10615632
       2586.4536      0.11741636
       2587.1539      0.11336360
       2587.8542      0.12453897
       2588.5546      0.11981956
       2589.2549      0.12032773
       2589.9552      0.13595841
       2590.6555      0.13498433
       2591.3558      0.11208453
       2592.0561     0.098617133
       2592.7565      0.13533581
       2593.4568      0.13335313
       2594.1571      0.15356892
       2594.8574      0.13483529
       2595.5577      0.13362669
       2596.2580      0.14648999
       2596.9584      0.13692524
       2597.6587      0.14410818
       2598.3590      0.13715508
       2599.0593      0.11653806
       2599.7596      0.12691933
       2600.4599      0.14187525
       2601.1603      0.13101932
       2601.8606      0.13278247
       2602.5609      0.12331605
       2603.2612      0.13009552
       2603.9615      0.13223148
       2604.6618      0.14637262
       2605.3622      0.12714703
       2606.0625      0.13630295
       2606.7628      0.15102650
       2607.4631      0.11448161
       2608.1634     0.094176192
       2608.8637      0.10811987
       2609.5641     0.094565634
       2610.2644      0.11183336
       2610.9647     0.091906180
       2611.6650     0.080367129
       2612.3653     0.097232623
       2613.0656      0.11123384
       2613.7660      0.14614956
       2614.4663      0.16082029
       2615.1666      0.14402727
       2615.8669      0.15094260
       2616.5672      0.16138849
       2617.2675      0.14041151
       2617.9679      0.14067562
       2618.6682      0.12351453
       2619.3685      0.11798249
       2620.0688      0.10554421
       2620.7691      0.12245694
       2621.4694      0.11277579
       2622.1698     0.098197671
       2622.8701     0.090528869
       2623.5704     0.092783267
       2624.2707      0.10137276
       2624.9710     0.091912878
       2625.6714     0.089410159
       2626.3717      0.13154980
       2627.0720      0.13749826
       2627.7723      0.13355813
       2628.4726      0.13368093
       2629.1729      0.14165490
       2629.8733      0.15041061
       2630.5736      0.15347723
       2631.2739      0.14458427
       2631.9742      0.14433523
       2632.6745      0.14636096
       2633.3748      0.14527358
       2634.0752      0.16138887
       2634.7755      0.15877831
       2635.4758      0.14924649
       2636.1761      0.14930028
       2636.8764      0.13122303
       2637.5767      0.13286325
       2638.2771      0.17009590
       2638.9774      0.15941915
       2639.6777      0.13954038
       2640.3780      0.15647609
       2641.0783      0.16325963
       2641.7786      0.14346818
       2642.4790      0.16574289
       2643.1793      0.14794983
       2643.8796      0.15233088
       2644.5799      0.15722015
       2645.2802      0.14876579
       2645.9805      0.15716451
       2646.6809      0.15799048
       2647.3812      0.14143966
       2648.0815      0.15659929
       2648.7818      0.18129121
       2649.4821      0.20359384
       2650.1824      0.18682763
       2650.8828      0.18096118
       2651.5831      0.18184395
       2652.2834      0.16876697
       2652.9837      0.18844969
       2653.6840      0.18144585
       2654.3843      0.15409147
       2655.0847      0.17703603
       2655.7850      0.18198956
       2656.4853      0.16071948
       2657.1856      0.16995627
       2657.8859      0.17144298
       2658.5862      0.15158560
       2659.2866      0.17096733
       2659.9869      0.17659379
       2660.6872      0.17751398
       2661.3875      0.16685803
       2662.0878      0.17897274
       2662.7881      0.18997553
       2663.4885      0.17518973
       2664.1888      0.18674784
       2664.8891      0.16515816
       2665.5894      0.17087359
       2666.2897      0.16429443
       2666.9900      0.16424158
       2667.6904      0.19102032
       2668.3907      0.16716105
       2669.0910      0.18108413
       2669.7913      0.15779836
       2670.4916      0.16040589
       2671.1920      0.16114505
       2671.8923      0.16810225
       2672.5926      0.16205772
       2673.2929      0.16192856
       2673.9932      0.16523590
       2674.6935      0.16808499
       2675.3939      0.16547363
       2676.0942      0.17622908
       2676.7945      0.15673322
       2677.4948      0.16830879
       2678.1951      0.18796198
       2678.8954      0.17773006
       2679.5958      0.16159147
       2680.2961      0.17140868
       2680.9964      0.16845894
       2681.6967      0.16461143
       2682.3970      0.18359207
       2683.0973      0.16501090
       2683.7977      0.17904307
       2684.4980      0.17944205
       2685.1983      0.15787103
       2685.8986      0.15664683
       2686.5989      0.17505148
       2687.2992      0.19318955
       2687.9996      0.18069516
       2688.6999      0.16090968
       2689.4002      0.16134797
       2690.1005      0.14616850
       2690.8008      0.15969508
       2691.5011      0.16831612
       2692.2015      0.19094756
       2692.9018      0.18943905
       2693.6021      0.16604251
       2694.3024      0.18795281
       2695.0027      0.18796081
       2695.7030      0.17602985
       2696.4034      0.17968413
       2697.1037      0.20573547
       2697.8040      0.19401020
       2698.5043      0.17385988
       2699.2046      0.17681738
       2699.9049      0.16932680
       2700.6053      0.17349633
       2701.3056      0.18073271
       2702.0059      0.17420000
       2702.7062      0.16945445
       2703.4065      0.15718421
       2704.1068      0.19662229
       2704.8072      0.19775670
       2705.5075      0.19612369
       2706.2078      0.18665195
       2706.9081      0.20023117
       2707.6084      0.19301398
       2708.3087      0.19281841
       2709.0091      0.17740608
       2709.7094      0.16634760
       2710.4097      0.18855837
       2711.1100      0.17760229
       2711.8103      0.21284497
       2712.5106      0.18454067
       2713.2110      0.18861833
       2713.9113      0.18967537
       2714.6116      0.18250289
       2715.3119      0.18779720
       2716.0122      0.21253992
       2716.7126      0.16579362
       2717.4129      0.20103620
       2718.1132      0.16358352
       2718.8135      0.20132942
       2719.5138      0.19743954
       2720.2141      0.19576157
       2720.9145      0.20356965
       2721.6148      0.20224148
       2722.3151      0.20708363
       2723.0154      0.17934703
       2723.7157      0.17505389
       2724.4160      0.19095716
       2725.1164      0.17753580
       2725.8167      0.19791596
       2726.5170      0.19027392
       2727.2173      0.17732612
       2727.9176      0.18284970
       2728.6179      0.18929064
       2729.3183      0.19829202
       2730.0186      0.20222128
       2730.7189      0.20976494
       2731.4192      0.19172040
       2732.1195      0.17335092
       2732.8198      0.18708423
       2733.5202      0.17534809
       2734.2205      0.19681652
       2734.9208      0.19774611
       2735.6211      0.16871104
       2736.3214      0.19007317
       2737.0217      0.18041440
       2737.7221      0.19522312
       2738.4224      0.19906036
       2739.1227      0.17990208
       2739.8230      0.17843968
       2740.5233      0.20113806
       2741.2236      0.20317269
       2741.9240      0.19723603
       2742.6243      0.18789690
       2743.3246      0.17703948
       2744.0249      0.19503616
       2744.7252      0.18278542
       2745.4255      0.20899463
       2746.1259      0.18834501
       2746.8262      0.19206991
       2747.5265      0.19539730
       2748.2268      0.18007900
       2748.9271      0.20023359
       2749.6274      0.18413921
       2750.3278      0.18980180
       2751.0281      0.19176290
       2751.7284      0.17883405
       2752.4287      0.19203430
       2753.1290      0.19987829
       2753.8293      0.17666758
       2754.5297      0.17551389
       2755.2300      0.19736030
       2755.9303      0.19919249
       2756.6306      0.18486981
       2757.3309      0.19257288
       2758.0312      0.19802450
       2758.7316      0.21661497
       2759.4319      0.19242671
       2760.1322      0.20172868
       2760.8325      0.19605751
       2761.5328      0.20622313
       2762.2331      0.20730472
       2762.9335      0.18235626
       2763.6338      0.20470595
       2764.3341      0.19174887
       2765.0344      0.20937180
       2765.7347      0.21044260
       2766.4351      0.18214915
       2767.1354      0.21017268
       2767.8357      0.17882048
       2768.5360      0.23032097
       2769.2363      0.19676888
       2769.9366      0.20621341
       2770.6370      0.18600782
       2771.3373      0.19930283
       2772.0376      0.19666650
       2772.7379      0.18911253
       2773.4382      0.18077781
       2774.1385      0.20576726
       2774.8389      0.16661899
       2775.5392      0.18450222
       2776.2395      0.19387850
       2776.9398      0.20048611
       2777.6401      0.19736388
       2778.3404      0.18656438
       2779.0408      0.18720381
       2779.7411      0.20727963
       2780.4414      0.17317295
       2781.1417      0.20621604
       2781.8420      0.20132077
       2782.5423      0.21692765
       2783.2427      0.19310811
       2783.9430      0.19679600
       2784.6433      0.18216243
       2785.3436      0.21605000
       2786.0439      0.19222250
       2786.7442      0.21555133
       2787.4446      0.20103097
       2788.1449      0.19165324
       2788.8452      0.19661212
       2789.5455      0.18397103
       2790.2458      0.20539016
       2790.9461      0.20340601
       2791.6465      0.17821540
       2792.3468      0.19248289
       2793.0471      0.18999853
       2793.7474      0.20733240
       2794.4477      0.21283090
       2795.1480      0.20577873
       2795.8484      0.19616947
       2796.5487      0.19639924
       2797.2490      0.21017244
       2797.9493      0.20828134
       2798.6496      0.19016174
       2799.3499      0.20242391
       2800.0503      0.18256603
       2800.7506      0.20668120
       2801.4509      0.18746822
       2802.1512      0.19264937
       2802.8515      0.19460787
       2803.5518      0.19852091
       2804.2522      0.19604514
       2804.9525      0.19501117
       2805.6528      0.17641192
       2806.3531      0.20816183
       2807.0534      0.18519525
       2807.7537      0.19677622
       2808.4541      0.19131540
       2809.1544      0.21680900
       2809.8547      0.18558857
       2810.5550      0.22598172
       2811.2553      0.21132944
       2811.9557      0.19058528
       2812.6560      0.19511419
       2813.3563      0.19489660
       2814.0566      0.18037010
       2814.7569      0.18109238
       2815.4572      0.14914149
       2816.1576      0.13785856
       2816.8579      0.13228839
       2817.5582      0.12512314
       2818.2585      0.12558697
       2818.9588      0.12606814
       2819.6591      0.10046877
       2820.3595      0.10633558
       2821.0598      0.10258455
       2821.7601      0.11217499
       2822.4604      0.12056903
       2823.1607      0.14090723
       2823.8610      0.11183636
       2824.5614      0.12747110
       2825.2617      0.11614093
       2825.9620      0.11704702
       2826.6623      0.12120347
       2827.3626     0.091372942
       2828.0629      0.10508136
       2828.7633      0.13063918
       2829.4636      0.15263401
       2830.1639      0.18584032
       2830.8642      0.20353217
       2831.5645      0.18384306
       2832.2648      0.19836056
       2832.9652      0.20568698
       2833.6655      0.21205215
       2834.3658      0.21444713
       2835.0661      0.20177186
       2835.7664      0.20981573
       2836.4667      0.20772801
       2837.1671      0.20547609
       2837.8674      0.20910215
       2838.5677      0.20185843
       2839.2680      0.22510437
       2839.9683      0.21461833
       2840.6686      0.18900750
       2841.3690      0.20920089
       2842.0693      0.21471767
       2842.7696      0.20290768
       2843.4699      0.20443969
       2844.1702      0.20795944
       2844.8705      0.20880460
       2845.5709      0.21052050
       2846.2712      0.22516158
       2846.9715      0.20836055
       2847.6718      0.22186272
       2848.3721      0.19646800
       2849.0724      0.19593879
       2849.7728      0.21025754
       2850.4731      0.19175337
       2851.1734      0.22556015
       2851.8737      0.21358136
       2852.5740      0.21793669
       2853.2743      0.21414711
       2853.9747      0.20457911
       2854.6750      0.19940411
       2855.3753      0.18410488
       2856.0756      0.20885644
       2856.7759      0.21968714
       2857.4763      0.22430281
       2858.1766      0.23145343
       2858.8769      0.20100958
       2859.5772      0.19512864
       2860.2775      0.19066641
       2860.9778      0.22408155
       2861.6782      0.20711855
       2862.3785      0.23033697
       2863.0788      0.19701468
       2863.7791      0.23128835
       2864.4794      0.22498636
       2865.1797      0.21845659
       2865.8801      0.23384719
       2866.5804      0.21747418
       2867.2807      0.19764387
       2867.9810      0.18730089
       2868.6813      0.19954568
       2869.3816      0.20778255
       2870.0820      0.21972840
       2870.7823      0.22114386
       2871.4826      0.21365418
       2872.1829      0.22696420
       2872.8832      0.20196940
       2873.5835      0.20690340
       2874.2839      0.22890803
       2874.9842      0.16345173
       2875.6845      0.19643393
       2876.3848      0.19005006
       2877.0851      0.17544567
       2877.7854      0.23041919
       2878.4858      0.21167437
       2879.1861      0.19071161
       2879.8864      0.17800812
       2880.5867      0.20705450
       2881.2870      0.20259283
       2881.9873      0.20572557
       2882.6877      0.19078041
       2883.3880      0.20906533
       2884.0883      0.20592614
       2884.7886      0.20620100
       2885.4889      0.21056208
       2886.1892      0.24960881
       2886.8896      0.20780838
       2887.5899      0.23034786
       2888.2902      0.19192014
       2888.9905      0.19826758
       2889.6908      0.18975028
       2890.3911      0.20955750
       2891.0915      0.22745014
       2891.7918      0.16816316
       2892.4921      0.22976932
       2893.1924      0.19897823
       2893.8927      0.21564397
       2894.5930      0.22340456
       2895.2934      0.19133025
       2895.9937      0.22365933
       2896.6940      0.18458536
       2897.3943      0.20061807
       2898.0946      0.23405933
       2898.7949      0.20522582
       2899.4953      0.21032605
       2900.1956      0.21524938
       2900.8959      0.23157881
       2901.5962      0.21046207
       2902.2965      0.19912102
       2902.9969      0.20045940
       2903.6972      0.22186426
       2904.3975      0.22304589
       2905.0978      0.19978211
       2905.7981      0.20719638
       2906.4984      0.19358708
       2907.1988      0.20711912
       2907.8991      0.21003147
       2908.5994      0.21914967
       2909.2997      0.20880438
       2910.0000      0.24340360
       2910.7003      0.23622743
       2911.4007      0.23249546
       2912.1010      0.23339349
       2912.8013      0.21816782
       2913.5016      0.23310368
       2914.2019      0.20045759
       2914.9022      0.20451169
       2915.6026      0.22641813
       2916.3029      0.23663863
       2917.0032      0.22976963
       2917.7035      0.22850088
       2918.4038      0.22246368
       2919.1041      0.22881618
       2919.8045      0.21691133
       2920.5048      0.19885562
       2921.2051      0.21955989
       2921.9054      0.23527255
       2922.6057      0.20892671
       2923.3060      0.21763657
       2924.0064      0.23118027
       2924.7067      0.20730832
       2925.4070      0.24727460
       2926.1073      0.24347343
       2926.8076      0.22090406
       2927.5079      0.23869354
       2928.2083      0.22422551
       2928.9086      0.24053948
       2929.6089      0.25282080
       2930.3092      0.20323055
       2931.0095      0.20961166
       2931.7098      0.20124129
       2932.4102      0.21336878
       2933.1105      0.22608923
       2933.8108      0.22784829
       2934.5111      0.22359119
       2935.2114      0.20798792
       2935.9117      0.23077410
       2936.6121      0.23389628
       2937.3124      0.23420485
       2938.0127      0.21998134
       2938.7130      0.21482852
       2939.4133      0.22422315
       2940.1136      0.23443990
       2940.8140      0.20753522
       2941.5143      0.20476557
       2942.2146      0.22151482
       2942.9149      0.20748827
       2943.6152      0.25206554
       2944.3155      0.20251562
       2945.0159      0.21677102
       2945.7162      0.22551756
       2946.4165      0.19600956
       2947.1168      0.22525517
       2947.8171      0.22853961
       2948.5174      0.23049107
       2949.2178      0.21714443
       2949.9181      0.20622751
       2950.6184      0.20068058
       2951.3187      0.21177110
       2952.0190      0.21023717
       2952.7194      0.19692807
       2953.4197      0.21993602
       2954.1200      0.22070070
       2954.8203      0.21366448
       2955.5206      0.21290837
       2956.2209      0.21280832
       2956.9213      0.22798658
       2957.6216      0.19928282
       2958.3219      0.20298863
       2959.0222      0.22703807
       2959.7225      0.22905754
       2960.4228      0.23139173
       2961.1232      0.21480385
       2961.8235      0.23980303
       2962.5238      0.17021137
       2963.2241      0.21497413
       2963.9244      0.23134012
       2964.6247      0.22402929
       2965.3251      0.23254098
       2966.0254      0.20239271
       2966.7257      0.24708454
       2967.4260      0.23231196
       2968.1263      0.22039541
       2968.8266      0.23731418
       2969.5270      0.19769034
       2970.2273      0.23858791
       2970.9276      0.24463890
       2971.6279      0.21600480
       2972.3282      0.21414672
       2973.0285      0.19639939
       2973.7289      0.21532233
       2974.4292      0.23078237
       2975.1295      0.22788734
       2975.8298      0.22722856
       2976.5301      0.20415654
       2977.2304      0.22095835
       2977.9308      0.20426827
       2978.6311      0.22025979
       2979.3314      0.23226934
       2980.0317      0.21479249
       2980.7320      0.21968111
       2981.4323      0.25319126
       2982.1327      0.22098509
       2982.8330      0.24552679
       2983.5333      0.23271461
       2984.2336      0.23443409
       2984.9339      0.20081709
       2985.6342      0.23019757
       2986.3346      0.19189520
       2987.0349      0.25251203
       2987.7352      0.23283520
       2988.4355      0.21791418
       2989.1358      0.20538823
       2989.8361      0.21818921
       2990.5365      0.21772966
       2991.2368      0.21077157
       2991.9371      0.22940232
       2992.6374      0.24210452
       2993.3377      0.22123983
       2994.0380      0.21677742
       2994.7384      0.23966494
       2995.4387      0.20675797
       2996.1390      0.21166909
       2996.8393      0.24034675
       2997.5396      0.23968755
       2998.2400      0.22677012
       2998.9403      0.24006419
       2999.6406      0.23239153
       3000.3409      0.24640461
       3001.0412      0.21435817
       3001.7415      0.20561851
       3002.4419      0.20726352
       3003.1422      0.23399503
       3003.8425      0.22161542
       3004.5428      0.21391200
       3005.2431      0.20333131
       3005.9434      0.20114692
       3006.6438      0.23197730
       3007.3441      0.21817343
       3008.0444      0.22433672
       3008.7447      0.20956982
       3009.4450      0.21249814
       3010.1453      0.21184925
       3010.8457      0.22212127
       3011.5460      0.22930486
       3012.2463      0.21180765
       3012.9466      0.23186807
       3013.6469      0.21903051
       3014.3472      0.22085041
       3015.0476      0.23705229
       3015.7479      0.21233261
       3016.4482      0.23217924
       3017.1485      0.23125232
       3017.8488      0.23437812
       3018.5491      0.21205895
       3019.2495      0.23346744
       3019.9498      0.23454494
       3020.6501      0.21747665
       3021.3504      0.23040076
       3022.0507      0.21309395
       3022.7510      0.22656470
       3023.4514      0.20688701
       3024.1517      0.22900988
       3024.8520      0.20868555
       3025.5523      0.23870626
       3026.2526      0.21167387
       3026.9529      0.21672941
       3027.6533      0.23847705
       3028.3536      0.24431118
       3029.0539      0.21531211
       3029.7542      0.22946900
       3030.4545      0.23473868
       3031.1548      0.19821619
       3031.8552      0.21649844
       3032.5555      0.21277454
       3033.2558      0.22865449
       3033.9561      0.19500781
       3034.6564      0.23746311
       3035.3567      0.22871450
       3036.0571      0.23164876
       3036.7574      0.21974527
       3037.4577      0.22433190
       3038.1580      0.21467189
       3038.8583      0.19922319
       3039.5586      0.22644869
       3040.2590      0.21633836
       3040.9593      0.22579905
       3041.6596      0.21266433
       3042.3599      0.22870487
       3043.0602      0.19644514
       3043.7606      0.20262219
       3044.4609      0.20985294
       3045.1612      0.19550611
       3045.8615      0.17783460
       3046.5618      0.18122590
       3047.2621      0.20788908
       3047.9625      0.19546739
       3048.6628      0.21390304
       3049.3631      0.19563143
       3050.0634      0.20197102
       3050.7637      0.20317673
       3051.4640      0.23114828
       3052.1644      0.21796270
       3052.8647      0.21892994
       3053.5650      0.25645616
       3054.2653      0.24659677
       3054.9656      0.21697054
       3055.6659      0.20841089
       3056.3663      0.21739330
       3057.0666      0.23479552
       3057.7669      0.24212627
       3058.4672      0.23379852
       3059.1675      0.22390247
       3059.8678      0.21395263
       3060.5682      0.22231998
       3061.2685      0.25270374
       3061.9688      0.22123006
       3062.6691      0.21255080
       3063.3694      0.23458760
       3064.0697      0.23474723
       3064.7701      0.25281945
       3065.4704      0.23545890
       3066.1707      0.24460430
       3066.8710      0.22915700
       3067.5713      0.23609981
       3068.2716      0.24948042
       3068.9720      0.24293339
       3069.6723      0.23729752
       3070.3726      0.24198663
       3071.0729      0.18686533
       3071.7732      0.22664866
       3072.4735      0.24617049
       3073.1739      0.21495769
       3073.8742      0.24967174
       3074.5745      0.23223146
       3075.2748      0.22393773
       3075.9751      0.22741657
       3076.6754      0.24313070
       3077.3758      0.22957705
       3078.0761      0.23548076
       3078.7764      0.23041692
       3079.4767      0.25513934
       3080.1770      0.23464129
       3080.8773      0.23655138
       3081.5777      0.24978683
       3082.2780      0.22761978
       3082.9783      0.25341334
       3083.6786      0.23703597
       3084.3789      0.26784483
       3085.0792      0.24538620
       3085.7796      0.25824677
       3086.4799      0.24679195
       3087.1802      0.24430097
       3087.8805      0.24036354
       3088.5808      0.22118651
       3089.2811      0.22736247
       3089.9815      0.23525424
       3090.6818      0.22943509
       3091.3821      0.19229482
       3092.0824      0.24508714
       3092.7827      0.26014319
       3093.4831      0.25766147
       3094.1834      0.24876025
       3094.8837      0.24558816
       3095.5840      0.18072116
       3096.2843      0.23631263
       3096.9846      0.24429934
       3097.6850      0.22618058
       3098.3853      0.22761697
       3099.0856      0.25609777
       3099.7859      0.27404240
       3100.4862      0.25651016
       3101.1865      0.21388014
       3101.8869      0.24376970
       3102.5872      0.25849485
       3103.2875      0.21973005
       3103.9878      0.26609432
       3104.6881      0.26062669
       3105.3884      0.21458673
       3106.0888      0.21110591
       3106.7891      0.27039443
       3107.4894      0.18801190
       3108.1897      0.27374734
       3108.8900      0.26594952
       3109.5903      0.24483758
       3110.2907      0.25216818
       3110.9910      0.26508962
       3111.6913      0.26187158
       3112.3916      0.19072706
       3113.0919      0.21116573
       3113.7922      0.18022242
       3114.4926      0.21311066
       3115.1929      0.23512361
       3115.8932      0.20164206
       3116.5935      0.25826996
       3117.2938      0.20546971
       3117.9941      0.20131140
       3118.6945      0.20078937
       3119.3948      0.20499527
       3120.0951      0.23023184
       3120.7954      0.26100397
       3121.4957      0.22174230
       3122.1960      0.24077604
       3122.8964      0.21569296
       3123.5967      0.23118734
       3124.2970      0.21479455
       3124.9973      0.20670840
       3125.6976      0.27329989
       3126.3979      0.21880046
       3127.0983      0.21651197
       3127.7986      0.24146703
       3128.4989      0.24364544
       3129.1992      0.24469546
       3129.8995      0.29500125
       3130.5998      0.21083596
       3131.3002      0.22475359
       3132.0005      0.22759260
       3132.7008      0.24999809
       3133.4011      0.20229836
       3134.1014      0.24644439
       3134.8017      0.17685169
       3135.5021      0.22163556
       3136.2024      0.21996788
       3136.9027      0.22123742
       3137.6030      0.20298480
       3138.3033      0.22717577
       3139.0037      0.23155458
       3139.7040      0.21422747
       3140.4043      0.22213431
       3141.1046      0.24262013
       3141.8049      0.25175011
       3142.5052      0.21925235
       3143.2056      0.23674080
       3143.9059      0.23487994
       3144.6062      0.20134487
       3145.3065      0.25108621
       3146.0068      0.21149089
       3146.7071      0.20221157
       3147.4075      0.21879524
       3148.1078      0.21297397
       3148.8081      0.24009894
       3149.5084      0.20085259
       3150.2087      0.20294808
       3150.9090      0.21609418
       3151.6094      0.22555723
       3152.3097      0.25423419
       3153.0100      0.21833529
       3153.7103      0.23009369
       3154.4106      0.23305025
       3155.1109      0.22861774
       3155.8113      0.22046723
       3156.5116      0.21968017
       3157.2119      0.21149967
       3157.9122      0.26104656
       3158.6125      0.22446192
       3159.3128      0.21379078
       3160.0132      0.22613148
       3160.7135      0.21963503
       3161.4138      0.27007713
       3162.1141      0.30436333
       3162.8144      0.30035086
       3163.5147      0.26805391
       3164.2151      0.25939072
       3164.9154      0.26402142
       3165.6157      0.21619584
       3166.3160      0.30137965
       3167.0163      0.28346916
       3167.7166      0.27450285
       3168.4170      0.27667218
       3169.1173      0.27496204
       3169.8176      0.27133951
       3170.5179      0.27483194
       3171.2182      0.23883226
       3171.9185      0.22418816
       3172.6189      0.30879253
       3173.3192      0.23329878
       3174.0195      0.29446052
       3174.7198      0.23237511
       3175.4201      0.28420251
       3176.1204      0.27821532
       3176.8208      0.30054554
       3177.5211      0.29541941
       3178.2214      0.21718752
       3178.9217      0.27778701
       3179.6220      0.28238988
       3180.3223      0.29422207
       3181.0227      0.23026253
       3181.7230      0.19945179
       3182.4233      0.23716972
       3183.1236      0.25621565
       3183.8239      0.30158485
       3184.5243      0.29120966
       3185.2246      0.28297296
       3185.9249      0.22959192
       3186.6252      0.28636462
       3187.3255      0.26064777
       3188.0258      0.23955185
       3188.7262      0.28305797
       3189.4265      0.21327539
       3190.1268      0.26572006
       3190.8271      0.27221397
       3191.5274      0.25989987
       3192.2277      0.29459775
       3192.9281      0.25692715
       3193.6284      0.31997721
       3194.3287      0.21411222
       3195.0290      0.29612304
       3195.7293      0.27897609
       3196.4296      0.27560182
       3197.1300      0.26617047
       3197.8303      0.23696867
       3198.5306      0.28147222
       3199.2309      0.27308780
       3199.9312      0.20644693
       3200.6315      0.27982517
       3201.3319      0.25790629
       3202.0322      0.21580944
       3202.7325      0.21938439
       3203.4328      0.30249522
       3204.1331      0.21799139
       3204.8334      0.27178248
       3205.5338      0.30008741
       3206.2341      0.22088372
       3206.9344      0.23273371
       3207.6347      0.26900772
       3208.3350      0.22792053
       3209.0353      0.29065938
       3209.7357      0.29632299
       3210.4360      0.29453790
       3211.1363      0.27214160
       3211.8366      0.22259131
       3212.5369      0.23405787
       3213.2372      0.30043609
       3213.9376      0.23077776
       3214.6379      0.28528608
       3215.3382      0.23601680
       3216.0385      0.26015491
       3216.7388      0.22917618
       3217.4391      0.21731009
       3218.1395      0.26496135
       3218.8398      0.29192258
       3219.5401      0.28547979
       3220.2404      0.28881454
       3220.9407      0.29942891
       3221.6410      0.28695990
       3222.3414      0.28627939
       3223.0417      0.29487916
       3223.7420      0.24348445
       3224.4423      0.21059473
       3225.1426      0.23230425
       3225.8429      0.23823859
       3226.5433      0.29908656
       3227.2436      0.30768042
       3227.9439      0.22888834
       3228.6442      0.23295439
       3229.3445      0.25253154
       3230.0449      0.27763505
       3230.7452      0.24651799
       3231.4455      0.26568737
       3232.1458      0.25874538
       3232.8461      0.28190321
       3233.5464      0.29134112
       3234.2468      0.27529975
       3234.9471      0.23683908
       3235.6474      0.24100637
       3236.3477      0.29145456
       3237.0480      0.26696043
       3237.7483      0.27281993
       3238.4487      0.22594999
       3239.1490      0.22986642
       3239.8493      0.20853229
       3240.5496      0.28960445
       3241.2499      0.26581631
       3241.9502      0.28891745
       3242.6506      0.26527656
       3243.3509      0.28151308
       3244.0512      0.26868693
       3244.7515      0.25684123
       3245.4518      0.27636483
       3246.1521      0.24764614
       3246.8525      0.26579027
       3247.5528      0.26303236
       3248.2531      0.23981356
       3248.9534      0.27283582
       3249.6537      0.26603092
       3250.3540      0.26398303
       3251.0544      0.22144491
       3251.7547      0.28300139
       3252.4550      0.24711812
       3253.1553      0.25788402
       3253.8556      0.28107222
       3254.5559      0.27562041
       3255.2563      0.26155474
       3255.9566      0.27459957
       3256.6569      0.26835740
       3257.3572      0.27413164
       3258.0575      0.26737515
       3258.7578      0.19978024
       3259.4582      0.25850120
       3260.1585      0.25033195
       3260.8588      0.21581749
       3261.5591      0.28260720
       3262.2594      0.27721238
       3262.9597      0.23608114
       3263.6601      0.27579751
       3264.3604      0.27286993
       3265.0607      0.28887441
       3265.7610      0.27675322
       3266.4613      0.22875373
       3267.1616      0.22255477
       3267.8620      0.21571839
       3268.5623      0.22080574
       3269.2626      0.28649103
       3269.9629      0.26657799
       3270.6632      0.25142059
       3271.3635      0.24736907
       3272.0639      0.24908540
       3272.7642      0.28211324
       3273.4645      0.28456446
       3274.1648      0.30187885
       3274.8651      0.28781198
       3275.5654      0.30620069
       3276.2658      0.28332157
       3276.9661      0.27213300
       3277.6664      0.27414399
       3278.3667      0.29618552
       3279.0670      0.30044339
       3279.7674      0.27666907
       3280.4677      0.28512395
       3281.1680      0.29796060
       3281.8683      0.27826912
       3282.5686      0.29889654
       3283.2689      0.30092624
       3283.9693      0.27000536
       3284.6696      0.26899165
       3285.3699      0.29529249
       3286.0702      0.28582183
       3286.7705      0.26198450
       3287.4708      0.25987168
       3288.1712      0.28390689
       3288.8715      0.27846180
       3289.5718      0.27932704
       3290.2721      0.28195193
       3290.9724      0.27601071
       3291.6727      0.27762577
       3292.3731      0.28436842
       3293.0734      0.26686949
       3293.7737      0.30131191
       3294.4740      0.23936653
       3295.1743      0.26772112
       3295.8746      0.28020402
       3296.5750      0.27186558
       3297.2753      0.25525407
       3297.9756      0.29347842
       3298.6759      0.29155405
       3299.3762      0.27962774
       3300.0765      0.27864580
       3300.7769      0.25543347
       3301.4772      0.20534085
       3302.1775      0.29261530
       3302.8778      0.27319031
       3303.5781      0.28543710
       3304.2784      0.24901949
       3304.9788      0.30514810
       3305.6791      0.30292945
       3306.3794      0.30567860
       3307.0797      0.29716430
       3307.7800      0.20775001
       3308.4803      0.27450350
       3309.1807      0.27561841
       3309.8810      0.28639904
       3310.5813      0.27027253
       3311.2816      0.30671473
       3311.9819      0.28905788
       3312.6822      0.27486508
       3313.3826      0.29330063
       3314.0829      0.27037779
       3314.7832      0.30763958
       3315.4835      0.25829306
       3316.1838      0.28372008
       3316.8841      0.27217620
       3317.5845      0.30076177
       3318.2848      0.28628814
       3318.9851      0.29143285
       3319.6854      0.29461223
       3320.3857      0.28280005
       3321.0860      0.28326893
       3321.7864      0.30522011
       3322.4867      0.21117528
       3323.1870      0.27757239
       3323.8873      0.27545762
       3324.5876      0.26057832
       3325.2880      0.25884813
       3325.9883      0.23027071
       3326.6886      0.26957252
       3327.3889      0.26735442
       3328.0892      0.30170170
       3328.7895      0.27730238
       3329.4899      0.27977499
       3330.1902      0.28830156
       3330.8905      0.28557826
       3331.5908      0.25924856
       3332.2911      0.25879736
       3332.9914      0.24918001
       3333.6918      0.29976942
       3334.3921      0.27477780
       3335.0924      0.27440856
       3335.7927      0.28228590
       3336.4930      0.28604605
       3337.1933      0.29061365
       3337.8937      0.28111498
       3338.5940      0.26259082
       3339.2943      0.27683307
       3339.9946      0.30304363
       3340.6949      0.22098594
       3341.3952      0.28337513
       3342.0956      0.25628834
       3342.7959      0.30018408
       3343.4962      0.28364209
       3344.1965      0.27918446
       3344.8968      0.28595363
       3345.5971      0.31445707
       3346.2975      0.25074010
       3346.9978      0.28213251
       3347.6981      0.27982248
       3348.3984      0.26000766
       3349.0987      0.30641304
       3349.7990      0.27018678
       3350.4994      0.26269126
       3351.1997      0.28708425
       3351.9000      0.27941796
       3352.6003      0.27275545
       3353.3006      0.30448963
       3354.0009      0.28441986
       3354.7013      0.24095316
       3355.4016      0.27332604
       3356.1019      0.28221970
       3356.8022      0.27478056
       3357.5025      0.27274963
       3358.2028      0.28849004
       3358.9032      0.28773600
       3359.6035      0.27599808
       3360.3038      0.29312783
       3361.0041      0.31948200
       3361.7044      0.29040189
       3362.4047      0.24466589
       3363.1051      0.27807599
       3363.8054      0.29553331
       3364.5057      0.26047195
       3365.2060      0.26957413
       3365.9063      0.27639484
       3366.6066      0.24644337
       3367.3070      0.30560680
       3368.0073      0.27480657
       3368.7076      0.29842695
       3369.4079      0.29189231
       3370.1082      0.27658402
       3370.8086      0.29882273
       3371.5089      0.26076068
       3372.2092      0.27810959
       3372.9095      0.32281120
       3373.6098      0.31604083
       3374.3101      0.31351136
       3375.0105      0.27534934
       3375.7108      0.30923742
       3376.4111      0.28740723
       3377.1114      0.28140377
       3377.8117      0.26882617
       3378.5120      0.28213449
       3379.2124      0.28656687
       3379.9127      0.28748002
       3380.6130      0.28422520
       3381.3133      0.30084312
       3382.0136      0.28254297
       3382.7139      0.31560422
       3383.4143      0.27660698
       3384.1146      0.30983317
       3384.8149      0.32088231
       3385.5152      0.28985319
       3386.2155      0.29079750
       3386.9158      0.31651504
       3387.6162      0.27977274
       3388.3165      0.28352960
       3389.0168      0.29070918
       3389.7171      0.22741304
       3390.4174      0.20354621
       3391.1177      0.21699291
       3391.8181      0.29151750
       3392.5184      0.27159341
       3393.2187      0.29203537
       3393.9190      0.26553913
       3394.6193      0.23074314
       3395.3196      0.24006591
       3396.0200      0.25726252
       3396.7203      0.31325319
       3397.4206      0.24417632
       3398.1209      0.29381358
       3398.8212      0.24822267
       3399.5215      0.22530208
       3400.2219      0.25892693
       3400.9222      0.21361449
       3401.6225      0.22203313
       3402.3228      0.21192029
       3403.0231      0.21839028
       3403.7234      0.28406982
       3404.4238      0.22484815
       3405.1241      0.22915018
       3405.8244      0.27894851
       3406.5247      0.25703413
       3407.2250      0.25138464
       3407.9253      0.30844133
       3408.6257      0.30303510
       3409.3260      0.20046349
       3410.0263      0.22172646
       3410.7266      0.24101514
       3411.4269      0.29433001
       3412.1272      0.23016167
       3412.8276      0.30849814
       3413.5279      0.23727253
       3414.2282      0.25296166
       3414.9285      0.27452251
       3415.6288      0.26659320
       3416.3291      0.24616164
       3417.0295      0.27468903
       3417.7298      0.28438157
       3418.4301      0.26025812
       3419.1304      0.25988203
       3419.8307      0.27568395
       3420.5311      0.29752485
       3421.2314      0.31146592
       3421.9317      0.27395512
       3422.6320      0.25887323
       3423.3323      0.22471519
       3424.0326      0.25145982
       3424.7330      0.21482169
       3425.4333      0.27250577
       3426.1336      0.27550934
       3426.8339      0.27102672
       3427.5342      0.31601134
       3428.2345      0.26127577
       3428.9349      0.21090396
       3429.6352      0.25984682
       3430.3355      0.26919540
       3431.0358      0.26702342
       3431.7361      0.28402940
       3432.4364      0.29421628
       3433.1368      0.27492312
       3433.8371      0.27365357
       3434.5374      0.25922850
       3435.2377      0.29896229
       3435.9380      0.27634818
       3436.6383      0.23709180
       3437.3387      0.26949167
       3438.0390      0.26989273
       3438.7393      0.29164647
       3439.4396      0.24667577
       3440.1399      0.30065852
       3440.8402      0.28109889
       3441.5406      0.29612004
       3442.2409      0.27733388
       3442.9412      0.28100092
       3443.6415      0.27390702
       3444.3418      0.30574423
       3445.0421      0.26939280
       3445.7425      0.28968150
       3446.4428      0.32007537
       3447.1431      0.30797492
       3447.8434      0.28919961
       3448.5437      0.30912842
       3449.2440      0.28241991
       3449.9444      0.31065360
       3450.6447      0.29269171
       3451.3450      0.25086967
       3452.0453      0.28337925
       3452.7456      0.26319906
       3453.4459      0.29979187
       3454.1463      0.26608675
       3454.8466      0.28591638
       3455.5469      0.31538969
       3456.2472      0.29665243
       3456.9475      0.27904922
       3457.6478      0.25090248
       3458.3482      0.26719429
       3459.0485      0.30636062
       3459.7488      0.28366980
       3460.4491      0.28293645
       3461.1494      0.30110913
       3461.8497      0.24809164
       3462.5501      0.27591597
       3463.2504      0.27299918
       3463.9507      0.31304078
       3464.6510      0.29856138
       3465.3513      0.25911181
       3466.0517      0.27720147
       3466.7520      0.30285205
       3467.4523      0.31802960
       3468.1526      0.28086724
       3468.8529      0.25848476
       3469.5532      0.26535584
       3470.2536      0.27757456
       3470.9539      0.31374688
       3471.6542      0.27121990
       3472.3545      0.28425114
       3473.0548      0.27870573
       3473.7551      0.28321707
       3474.4555      0.28143789
       3475.1558      0.28097350
       3475.8561      0.29919809
       3476.5564      0.25089527
       3477.2567      0.28432829
       3477.9570      0.28816779
       3478.6574      0.29486869
       3479.3577      0.26449172
       3480.0580      0.28735286
       3480.7583      0.28526603
       3481.4586      0.26567914
       3482.1589      0.28407303
       3482.8593      0.26603772
       3483.5596      0.26599644
       3484.2599      0.27043874
       3484.9602      0.27740029
       3485.6605      0.29760196
       3486.3608      0.28713656
       3487.0612      0.30108091
       3487.7615      0.27205741
       3488.4618      0.30569399
       3489.1621      0.27047152
       3489.8624      0.28133865
       3490.5627      0.28022524
       3491.2631      0.24558281
       3491.9634      0.28564328
       3492.6637      0.27863067
       3493.3640      0.24427445
       3494.0643      0.29226985
       3494.7646      0.29431790
       3495.4650      0.27970237
       3496.1653      0.29687597
       3496.8656      0.30377133
       3497.5659      0.24830311
       3498.2662      0.26404460
       3498.9665      0.30205397
       3499.6669      0.25907569
       3500.3672      0.29069820
       3501.0675      0.29370541
       3501.7678      0.28890948
       3502.4681      0.32874290
       3503.1684      0.28704734
       3503.8688      0.26511524
       3504.5691      0.26730475
       3505.2694      0.26566773
       3505.9697      0.28314098
       3506.6700      0.28724254
       3507.3703      0.26609805
       3508.0707      0.25729824
       3508.7710      0.28276711
       3509.4713      0.26944970
       3510.1716      0.26696668
       3510.8719      0.29162840
       3511.5723      0.28037148
       3512.2726      0.29735793
       3512.9729      0.28796793
       3513.6732      0.28182195
       3514.3735      0.29148883
       3515.0738      0.29194392
       3515.7742      0.28322792
       3516.4745      0.32016086
       3517.1748      0.28037727
       3517.8751      0.30085198
       3518.5754      0.31300324
       3519.2757      0.31006092
       3519.9761      0.28716397
       3520.6764      0.27964619
       3521.3767      0.29933666
       3522.0770      0.28747618
       3522.7773      0.28543761
       3523.4776      0.29776378
       3524.1780      0.33287727
       3524.8783      0.31564433
       3525.5786      0.31000478
       3526.2789      0.28944105
       3526.9792      0.30343226
       3527.6795      0.30359343
       3528.3799      0.28940459
       3529.0802      0.29118062
       3529.7805      0.30100810
       3530.4808      0.31055083
       3531.1811      0.28645329
       3531.8814      0.26179652
       3532.5818      0.27100527
       3533.2821      0.29402332
       3533.9824      0.28344400
       3534.6827      0.27634588
       3535.3830      0.34523578
       3536.0833      0.29368443
       3536.7837      0.30733801
       3537.4840      0.29403470
       3538.1843      0.30327884
       3538.8846      0.29713479
       3539.5849      0.27115480
       3540.2852      0.29094795
       3540.9856      0.25995235
       3541.6859      0.23325173
       3542.3862      0.27334532
       3543.0865      0.28453701
       3543.7868      0.28053050
       3544.4871      0.29739968
       3545.1875      0.28492322
       3545.8878      0.29878172
       3546.5881      0.28138139
       3547.2884      0.31084738
       3547.9887      0.30670914
       3548.6890      0.29474535
       3549.3894      0.30304139
       3550.0897      0.29143417
       3550.7900      0.31538831
       3551.4903      0.29790202
       3552.1906      0.29418760
       3552.8909      0.27808209
       3553.5913      0.29854283
       3554.2916      0.28166867
       3554.9919      0.28817066
       3555.6922      0.27290984
       3556.3925      0.29088041
       3557.0929      0.30476906
       3557.7932      0.28660548
       3558.4935      0.32274705
       3559.1938      0.29751201
       3559.8941      0.28561288
       3560.5944      0.26982880
       3561.2948      0.28275942
       3561.9951      0.30674487
       3562.6954      0.27701638
       3563.3957      0.26357643
       3564.0960      0.27448931
       3564.7963      0.28221042
       3565.4967      0.28225537
       3566.1970      0.29393520
       3566.8973      0.28033257
       3567.5976      0.27480996
       3568.2979      0.25800348
       3568.9982      0.29505475
       3569.6986      0.31824661
       3570.3989      0.30391329
       3571.0992      0.31769069
       3571.7995      0.30324292
       3572.4998      0.30204136
       3573.2001      0.27813116
       3573.9005      0.29461957
       3574.6008      0.27229723
       3575.3011      0.21613846
       3576.0014      0.26523720
       3576.7017      0.27722052
       3577.4020      0.29039683
       3578.1024      0.28416557
       3578.8027      0.29108528
       3579.5030      0.32881641
       3580.2033      0.31397202
       3580.9036      0.33874046
       3581.6039      0.28601244
       3582.3043      0.25965724
       3583.0046      0.27311823
       3583.7049      0.27950775
       3584.4052      0.27168355
       3585.1055      0.29159586
       3585.8058      0.29600927
       3586.5062      0.27460567
       3587.2065      0.25357221
       3587.9068      0.28491655
       3588.6071      0.25283786
       3645.4594       4.0934615
       3646.2394       3.6195854
       3647.0195       4.5525701
       3647.7996       4.8513715
       3648.5797       3.5747553
       3649.3597       7.3118315
       3650.1398       5.0436325
       3650.9199       5.6649481
       3651.7000       1.9473693
       3652.4800       3.3965309
       3653.2601       2.7713079
       3654.0402       1.7851302
       3654.8202       2.5976828
       3655.6003      0.77958286
       3656.3804       2.3100130
       3657.1605       3.4156693
       3657.9405       2.7602551
       3658.7206       5.3505689
       3659.5007       4.4776525
       3660.2808       2.5583698
       3661.0608       3.2144927
       3661.8409       1.6266981
       3662.6210       2.4989012
       3663.4010       3.7777461
       3664.1811       3.1662319
       3664.9612       3.6673459
       3665.7413       3.3150634
       3666.5213       3.1159927
       3667.3014       2.3656772
       3668.0815       2.1771530
       3668.8616       2.2550339
       3669.6416       1.7474521
       3670.4217       2.4669316
       3671.2018       2.0949337
       3671.9818       2.7491286
       3672.7619       1.6288512
       3673.5420       2.0138860
       3674.3221       2.2058184
       3675.1021       1.4001980
       3675.8822       2.3376865
       3676.6623       1.6883343
       3677.4424       2.6219517
       3678.2224       3.1039308
       3679.0025       2.2093212
       3679.7826       1.8342424
       3680.5626       1.6424191
       3681.3427       2.5599918
       3682.1228       1.6527103
       3682.9029       1.3508005
       3683.6829       2.4962317
       3684.4630       2.7007405
       3685.2431       2.0728521
       3686.0232       2.3757208
       3686.8032       1.7535362
       3687.5833       1.6609131
       3688.3634       2.0393925
       3689.1434       2.3100941
       3689.9235       1.2513868
       3690.7036      0.91117735
       3691.4837       1.3281982
       3692.2637       1.5939481
       3693.0438       1.0369614
       3693.8239       1.2861847
       3694.6040       1.1080607
       3695.3840       2.4293192
       3696.1641       2.1133997
       3696.9442       1.5770873
       3697.7242       2.5906315
       3698.5043       8.8477609
       3699.2844       21.196749
       3700.0645       13.432537
       3700.8445       7.3455174
       3701.6246       12.671208
       3702.4047       11.351516
       3703.1848       5.5399254
       3703.9648       1.4652096
       3704.7449       1.4545190
       3705.5250       1.4538102
       3706.3050       1.5554315
       3707.0851       1.3318147
       3707.8652       1.2769942
       3708.6453       1.0589465
       3709.4253       1.0935883
       3710.2054       1.0844873
       3710.9855       1.6415333
       3711.7656       1.0199741
       3712.5456       1.2294944
       3713.3257       1.2664289
       3714.1058       1.6060372
       3714.8858       1.3098460
       3715.6659       1.1825662
       3716.4460       1.0799827
       3717.2261       1.4088757
       3718.0061      0.98664629
       3718.7862       1.4668119
       3719.5663       1.3889734
       3720.3464       2.7241271
       3721.1264       2.9141193
       3721.9065       3.1499121
       3722.6866       3.4841383
       3723.4666       3.3202726
       3724.2467       3.8421443
       3725.0268       4.7252588
       3725.8069       5.7587053
       3726.5869       6.2809594
       3727.3670       5.9196307
       3728.1471       5.9026258
       3728.9272       4.9427276
       3729.7072       4.4839337
       3730.4873       3.0101694
       3731.2674       2.2805918
       3732.0474       1.5572563
       3732.8275       1.3049526
       3733.6076       1.1559730
       3734.3877       1.0176205
       3735.1677      0.74428762
       3735.9478       1.0067159
       3736.7279      0.94197367
       3737.5080      0.78539701
       3738.2880       1.1671796
       3739.0681      0.67743631
       3739.8482      0.84478142
       3740.6282      0.85930061
       3741.4083      0.68727010
       3742.1884      0.91251557
       3742.9685       1.0633401
       3743.7485      0.92767726
       3744.5286       1.1514180
       3745.3087      0.99417097
       3746.0888      0.83234839
       3746.8688      0.89813269
       3747.6489      0.87211149
       3748.4290      0.69107801
       3749.2090       1.0455860
       3749.9891      0.98777067
       3750.7692      0.70802539
       3751.5493      0.81099694
       3752.3293      0.66804114
       3753.1094      0.97619614
       3753.8895      0.79247006
       3754.6696      0.73066956
       3755.4496      0.72660363
       3756.2297      0.63115882
       3757.0098      0.85295676
       3757.7898      0.77267608
       3758.5699      0.83497816
       3759.3500      0.99595719
       3760.1301      0.77588484
       3760.9101      0.86435842
       3761.6902      0.81453666
       3762.4703      0.85505962
       3763.2504       1.1148121
       3764.0304      0.83419441
       3764.8105       1.0260622
       3765.5906      0.87184502
       3766.3706      0.93389510
       3767.1507      0.71714409
       3767.9308      0.95100060
       3768.7109      0.63168130
       3769.4909      0.73489975
       3770.2710      0.67120459
       3771.0511      0.70707652
       3771.8312      0.56005139
       3772.6112      0.72866253
       3773.3913      0.54911686
       3774.1714      0.72104196
       3774.9514      0.59611929
       3775.7315      0.56538534
       3776.5116       1.0394603
       3777.2917      0.83504763
       3778.0717      0.86691008
       3778.8518      0.69166353
       3779.6319      0.71726795
       3780.4120      0.83949474
       3781.1920      0.78014390
       3781.9721      0.47288792
       3782.7522      0.78842115
       3783.5322      0.88102864
       3784.3123      0.84752469
       3785.0924      0.96604656
       3785.8725      0.85045694
       3786.6525       1.1552959
       3787.4326       1.0060801
       3788.2127       1.0983726
       3788.9928       1.0508096
       3789.7728      0.87290046
       3790.5529      0.69878295
       3791.3330      0.85052258
       3792.1130      0.86573701
       3792.8931      0.76223917
       3793.6732      0.97719873
       3794.4533      0.79752446
       3795.2333      0.54754214
       3796.0134      0.76909342
       3796.7935      0.94773336
       3797.5736      0.45486580
       3798.3536      0.66194380
       3799.1337      0.57469532
       3799.9138      0.69926861
       3800.6939       1.0606775
       3801.4739       1.1996331
       3802.2540      0.80105477
       3803.0341      0.90037100
       3803.8141       1.0690633
       3804.5942      0.59453655
       3805.3743       1.0198819
       3806.1544      0.39666348
       3806.9344      0.70598697
       3807.7145      0.71554379
       3808.4946      0.66874608
       3809.2747      0.92427999
       3810.0547      0.50833210
       3810.8348       1.0855171
       3811.6149      0.92378253
       3812.3949      0.86704979
       3813.1750      0.83923120
       3813.9551      0.75801101
       3814.7352      0.92528280
       3815.5152      0.95460700
       3816.2953      0.97322190
       3817.0754      0.87957896
       3817.8555      0.86282712
       3818.6355       1.0298303
       3819.4156       1.1482655
       3820.1957       1.0029613
       3820.9757      0.66390110
       3821.7558      0.77381217
       3822.5359      0.65382376
       3823.3160      0.78936914
       3824.0960      0.68427040
       3824.8761      0.60954340
       3825.6562      0.64084928
       3826.4363      0.55746771
       3827.2163      0.55375271
       3827.9964      0.86060291
       3828.7765      0.60358868
       3829.5565      0.91356822
       3830.3366       1.0520680
       3831.1167      0.76438364
       3831.8968      0.56889643
       3832.6768      0.66921247
       3833.4569      0.71194389
       3834.2370      0.57861557
       3835.0171      0.70134232
       3835.7971      0.75152592
       3836.5772       1.0050328
       3837.3573      0.57451423
       3838.1373      0.43327136
       3838.9174      0.60106459
       3839.6975      0.52473791
       3840.4776      0.49364277
       3841.2576      0.50745504
       3842.0377      0.67364448
       3842.8178      0.60278553
       3843.5979      0.55149971
       3844.3779      0.63814787
       3845.1580      0.83041669
       3845.9381      0.58977870
       3846.7181      0.58974263
       3847.4982      0.64040835
       3848.2783      0.43209920
       3849.0584      0.68610507
       3849.8384      0.60433564
       3850.6185      0.63320658
       3851.3986      0.74945540
       3852.1787      0.64772122
       3852.9587      0.82347742
       3853.7388      0.85847780
       3854.5189      0.78325676
       3855.2989      0.62839504
       3856.0790       1.2416666
       3856.8591      0.82730177
       3857.6392      0.63852015
       3858.4192      0.72788301
       3859.1993      0.77907015
       3859.9794      0.85165000
       3860.7595      0.80434007
       3861.5395      0.61012978
       3862.3196      0.83902261
       3863.0997      0.72838540
       3863.8797      0.75721063
       3864.6598      0.79219721
       3865.4399      0.84189665
       3866.2200      0.68346453
       3867.0000      0.66158623
       3867.7801      0.89283313
       3868.5602      0.71107661
       3869.3403      0.65073863
       3870.1203      0.97011003
       3870.9004      0.67488038
       3871.6805      0.82609476
       3872.4605      0.73177189
       3873.2406      0.69984823
       3874.0207      0.69072656
       3874.8008      0.62730761
       3875.5808      0.80522574
       3876.3609      0.82033717
       3877.1410      0.85142670
       3877.9211      0.68557137
       3878.7011      0.68142139
       3879.4812      0.75306703
       3880.2613      0.74311006
       3881.0413      0.86915807
       3881.8214      0.85260347
       3882.6015      0.86798521
       3883.3816      0.95124104
       3884.1616      0.63662469
       3884.9417      0.88686477
       3885.7218      0.70002716
       3886.5019      0.47515077
       3887.2819      0.73851879
       3888.0620      0.68850761
       3888.8421      0.64039877
       3889.6221      0.71577264
       3890.4022      0.50933725
       3891.1823      0.52159686
       3891.9624      0.36499258
       3892.7424      0.56058250
       3893.5225      0.57580185
       3894.3026      0.45720839
       3895.0827      0.51584536
       3895.8627      0.96817799
       3896.6428      0.73539494
       3897.4229      0.59653395
       3898.2029      0.53650647
       3898.9830      0.60521382
       3899.7631      0.61754212
       3900.5432      0.60169247
       3901.3232      0.64486852
       3902.1033      0.62348895
       3902.8834      0.65124665
       3903.6635      0.49285461
       3904.4435      0.60440150
       3905.2236      0.65510706
       3906.0037      0.54631442
       3906.7837      0.49197264
       3907.5638      0.65522747
       3908.3439      0.80800955
       3909.1240      0.51950758
       3909.9040      0.79376327
       3910.6841      0.84342802
       3911.4642      0.73565436
       3912.2443      0.61506075
       3913.0243       1.0048343
       3913.8044      0.54379134
       3914.5845      0.89295129
       3915.3645      0.87935350
       3916.1446      0.79375951
       3916.9247      0.71883749
       3917.7048      0.61373054
       3918.4848      0.84837575
       3919.2649      0.75839668
       3920.0450      0.72944826
       3920.8251      0.82856100
       3921.6051      0.88822617
       3922.3852      0.71845333
       3923.1653      0.68778207
       3923.9453      0.66040402
       3924.7254      0.71038125
       3925.5055      0.82689194
       3926.2856      0.90824305
       3927.0656      0.80617411
       3927.8457      0.90395787
       3928.6258      0.81317248
       3929.4059      0.77536400
       3930.1859      0.84105608
       3930.9660      0.75368194
       3931.7461      0.87297264
       3932.5261      0.76253983
       3933.3062      0.92307321
       3934.0863      0.79385087
       3934.8664      0.87449256
       3935.6464      0.77552320
       3936.4265      0.69497613
       3937.2066      0.76950655
       3937.9867      0.83498412
       3938.7667      0.90279995
       3939.5468      0.85407931
       3940.3269      0.81390717
       3941.1069      0.78905084
       3941.8870      0.56315101
       3942.6671      0.46848998
       3943.4472      0.64025210
       3944.2272      0.74070207
       3945.0073      0.69652509
       3945.7874      0.44293969
       3946.5675      0.70973838
       3947.3475      0.59388750
       3948.1276      0.52501908
       3948.9077      0.94804715
       3949.6877      0.66522698
       3950.4678      0.71504659
       3951.2479      0.85566167
       3952.0280      0.98137429
       3952.8080      0.85335272
       3953.5881       1.1143951
       3954.3682      0.97973916
       3955.1483      0.98990672
       3955.9283      0.71326874
       3956.7084      0.95664887
       3957.4885       1.0064457
       3958.2685      0.88167239
       3959.0486      0.78860017
       3959.8287      0.65579403
       3960.6088      0.65709731
       3961.3888      0.73671378
       3962.1689      0.66589483
       3962.9490      0.67886232
       3963.7291      0.74736775
       3964.5091      0.75728809
       3965.2892       1.1263578
       3966.0693      0.69775801
       3966.8493      0.77830171
       3967.6294      0.77452177
       3968.4095      0.72704054
       3969.1896      0.71554647
       3969.9696      0.83664670
       3970.7497      0.79985295
       3971.5298      0.67511445
       3972.3099      0.65985757
       3973.0899      0.78052767
       3973.8700      0.61386734
       3974.6501      0.86300332
       3975.4301      0.71657503
       3976.2102      0.56913879
       3976.9903      0.44164789
       3977.7704      0.79451797
       3978.5504      0.63830868
       3979.3305      0.45135710
       3980.1106      0.71059938
       3980.8907      0.63933784
       3981.6707      0.87406968
       3982.4508      0.52218910
       3983.2309      0.65463246
       3984.0109      0.67383847
       3984.7910      0.71078168
       3985.5711      0.57422050
       3986.3512      0.70738459
       3987.1312      0.72493570
       3987.9113      0.76655006
       3988.6914      0.90484075
       3989.4715      0.55391707
       3990.2515      0.73926260
       3991.0316      0.69513094
       3991.8117      0.85868389
       3992.5917      0.73082383
       3993.3718      0.72805895
       3994.1519      0.66858354
       3994.9320      0.72807620
       3995.7120      0.62337092
       3996.4921      0.91570045
       3997.2722      0.78546952
       3998.0523      0.91668284
       3998.8323      0.95233286
       3999.6124      0.83419235
       4000.3925      0.77622024
       4001.1725      0.66345139
       4001.9526      0.88590500
       4002.7327      0.91088683
       4003.5128      0.93909031
       4004.2928      0.80259347
       4005.0729      0.71664399
       4005.8530      0.92060425
       4006.6331      0.60675131
       4007.4131      0.91491607
       4008.1932       1.0436421
       4008.9733      0.89635770
       4009.7533       1.1289309
       4010.5334      0.73878994
       4011.3135       1.0377395
       4012.0936      0.84045760
       4012.8736       1.0048268
       4013.6537      0.57053308
       4014.4338      0.97689217
       4015.2139      0.81699009
       4015.9939      0.88027318
       4016.7740      0.77962692
       4017.5541       1.1063073
       4018.3341      0.88782350
       4019.1142      0.65576709
       4019.8943      0.73863774
       4020.6744      0.91349726
       4021.4544      0.93547644
       4022.2345      0.82294707
       4023.0146      0.69162388
       4023.7947      0.88979975
       4024.5747      0.67051294
       4025.3548      0.72056493
       4026.1349      0.79048346
       4026.9149      0.80843192
       4027.6950      0.96299549
       4028.4751      0.96024794
       4029.2552      0.88311008
       4030.0352       1.1229347
       4030.8153      0.93670618
       4031.5954      0.87948507
       4032.3755      0.90052290
       4033.1555      0.64514757
       4033.9356      0.94012862
       4034.7157      0.72934823
       4035.4957      0.87935042
       4036.2758       1.0430238
       4037.0559      0.96325889
       4037.8360      0.68221127
       4038.6160       1.0270250
       4039.3961      0.91668289
       4040.1762      0.86129840
       4040.9563      0.81712547
       4041.7363      0.51001100
       4042.5164      0.79824617
       4043.2965      0.69487394
       4044.0765      0.70907160
       4044.8566      0.67433747
       4045.6367      0.63209324
       4046.4168      0.78915395
       4047.1968      0.76188428
       4047.9769      0.80475991
       4048.7570      0.64453249
       4049.5371      0.62757011
       4050.3171      0.73906812
       4051.0972       1.0635679
       4051.8773      0.64973658
       4052.6574      0.84729953
       4053.4374       1.0170013
       4054.2175      0.88097346
       4054.9976      0.91956902
       4055.7776      0.66001472
       4056.5577      0.79335597
       4057.3378      0.79204147
       4058.1179      0.67978931
       4058.8979      0.77321509
       4059.6780      0.84911760
       4060.4581      0.83330084
       4061.2382      0.98511051
       4062.0182      0.72393751
       4062.7983      0.84483850
       4063.5784      0.94497849
       4064.3584       1.0579984
       4065.1385      0.71776264
       4065.9186       1.0290512
       4066.6987       1.0532275
       4067.4787      0.81347836
       4068.2588      0.82791616
       4069.0389      0.79283869
       4069.8190      0.82799661
       4070.5990       1.0995974
       4071.3791      0.79732030
       4072.1592      0.83755560
       4072.9392      0.76074304
       4073.7193      0.89060180
       4074.4994      0.79036551
       4075.2795      0.84347486
       4076.0595      0.74889234
       4076.8396      0.96193271
       4077.6197       1.1904921
       4078.3998      0.68814681
       4079.1798       1.3247756
       4079.9599      0.90835893
       4080.7400      0.95205792
       4081.5200       1.1983276
       4082.3001      0.75366917
       4083.0802      0.91852254
       4083.8603      0.97742658
       4084.6403      0.69254852
       4085.4204      0.88247755
       4086.2005      0.56578531
       4086.9806       1.0022753
       4087.7606      0.75806940
       4088.5407      0.77896350
       4089.3208      0.80153986
       4090.1008      0.70765607
       4090.8809      0.92825911
       4091.6610      0.82014751
       4092.4411      0.96421661
       4093.2211      0.88227051
       4094.0012      0.78539720
       4094.7813      0.95315352
       4095.5614      0.91839657
       4096.3414      0.44289900
       4097.1215      0.64942684
       4097.9016      0.69505013
       4098.6816      0.75377248
       4099.4617      0.72540720
       4100.2418       1.0198484
       4101.0219      0.92787298
       4101.8019      0.82990217
       4102.5820      0.63372113
       4103.3621      0.73197833
       4104.1422      0.85372402
       4104.9222      0.57345837
       4105.7023      0.82308098
       4106.4824      0.75704112
       4107.2624      0.75398407
       4108.0425      0.94278648
       4108.8226      0.88015248
       4109.6027      0.53667008
       4110.3827      0.89710546
       4111.1628      0.80954297
       4111.9429      0.70623348
       4112.7230      0.71849931
       4113.5030      0.64247836
       4114.2831      0.70203435
       4115.0632      0.50378251
       4115.8432      0.70765422
       4116.6233      0.85242260
       4117.4034      0.69138804
       4118.1835       1.0754796
       4118.9635      0.59516685
       4119.7436      0.88644908
       4120.5237      0.81128023
       4121.3038      0.57820099
       4122.0838      0.82990148
       4122.8639      0.50692828
       4123.6440      0.48524343
       4124.4240      0.50105454
       4125.2041      0.31841890
       4125.9842      0.56851573
       4126.7643      0.61761580
       4127.5443      0.54874141
       4128.3244      0.78996432
       4129.1045      0.77239202
       4129.8846      0.72773926
       4130.6646      0.77651171
       4131.4447      0.67998309
       4132.2248      0.77299639
       4133.0048      0.75336540
       4133.7849      0.75702982
       4134.5650      0.62626157
       4135.3451      0.75863084
       4136.1251      0.80340679
       4136.9052      0.78457706
       4137.6853      0.86073477
       4138.4654      0.72930872
       4139.2454      0.70780816
       4140.0255      0.73367924
       4140.8056      0.94059476
       4141.5856      0.85435955
       4142.3657      0.82866580
       4143.1458      0.85924316
       4143.9259      0.79438555
       4144.7059      0.90547906
       4145.4860      0.81888443
       4146.2661      0.64077552
       4147.0462      0.79885179
       4147.8262      0.85595761
       4148.6063      0.97738895
       4149.3864      0.78799932
       4150.1664      0.82293448
       4150.9465      0.91391069
       4151.7266      0.81294811
       4152.5067      0.97448657
       4153.2867      0.63140615
       4154.0668      0.83992821
       4154.8469      0.83929418
       4155.6270       1.0183685
       4156.4070      0.72573184
       4157.1871      0.83127275
       4157.9672      0.73375597
       4158.7472      0.79735569
       4159.5273      0.74844082
       4160.3074       1.1063788
       4161.0875      0.89360794
       4161.8675      0.52138267
       4162.6476      0.79725738
       4163.4277      0.84338348
       4164.2078      0.61297709
       4164.9878      0.99565009
       4165.7679      0.87845095
       4166.5480       1.0156026
       4167.3280      0.99007689
       4168.1081      0.84764286
       4168.8882      0.85415397
       4169.6683      0.99696931
       4170.4483      0.79694732
       4171.2284      0.95635855
       4172.0085      0.82435155
       4172.7886      0.83538089
       4173.5686      0.75731882
       4174.3487      0.94466858
       4175.1288      0.74305173
       4175.9088      0.92483616
       4176.6889      0.75853641
       4177.4690      0.75956058
       4178.2491      0.65005016
       4179.0291      0.83590835
       4179.8092      0.72991376
       4180.5893      0.74307259
       4181.3694      0.91485316
       4182.1494      0.86357871
       4182.9295      0.66788514
       4183.7096      0.80613837
       4184.4896      0.74530384
       4185.2697      0.68775433
       4186.0498      0.81730820
       4186.8299      0.97470466
       4187.6099      0.84726844
       4188.3900      0.92112293
       4189.1701      0.72580587
       4189.9502      0.81254923
       4190.7302      0.72217471
       4191.5103      0.84398087
       4192.2904      0.81865533
       4193.0704      0.80717701
       4193.8505      0.92247138
       4194.6306      0.61576748
       4195.4107      0.79646474
       4196.1907      0.49469850
       4196.9708      0.59665354
       4197.7509      0.98961883
       4198.5310      0.72130216
       4199.3110      0.92812225
       4200.0911      0.73647511
       4200.8712      0.78349248
       4201.6512      0.90547512
       4202.4313      0.91284888
       4203.2114      0.75923470
       4203.9915      0.83258508
       4204.7715      0.72415460
       4205.5516      0.76451249
       4206.3317      0.69448255
       4207.1118      0.65915740
       4207.8918      0.78780119
       4208.6719      0.92074201
       4209.4520      0.79861310
       4210.2320      0.63194169
       4211.0121      0.75064868
       4211.7922      0.89097662
       4212.5723      0.57327830
       4213.3523       1.0115342
       4214.1324      0.89924084
       4214.9125      0.75810000
       4215.6926       1.0424929
       4216.4726      0.78269253
       4217.2527      0.76707654
       4218.0328      0.88869945
       4218.8128      0.89038742
       4219.5929      0.85359263
       4220.3730       1.0053701
       4221.1531       1.0389636
       4221.9331      0.81788050
       4222.7132      0.69964355
       4223.4933      0.66388200
       4224.2734      0.70812101
       4225.0534      0.82810057
       4225.8335      0.73278250
       4226.6136      0.94072641
       4227.3936      0.77086837
       4228.1737      0.77904006
       4228.9538      0.71009865
       4229.7339      0.93687027
       4230.5139      0.78612767
       4231.2940      0.61848932
       4232.0741      0.65131520
       4232.8542      0.83688983
       4233.6342      0.77247995
       4234.4143      0.93435272
       4235.1944      0.90668872
       4235.9744      0.83773749
       4236.7545      0.84455754
       4237.5346      0.97030901
       4238.3147      0.65324512
       4239.0947      0.78037780
       4239.8748      0.86724251
       4240.6549      0.92362734
       4241.4350      0.87480421
       4242.2150      0.94994703
       4242.9951      0.84254538
       4243.7752      0.73437018
       4244.5552      0.84067790
       4245.3353      0.76819076
       4246.1154      0.69470822
       4246.8955      0.91346850
       4247.6755      0.63715866
       4248.4556      0.90812616
       4249.2357      0.56023568
       4250.0158      0.94493881
       4250.7958      0.72670702
       4251.5759      0.95652514
       4252.3560      0.85128028
       4253.1360      0.75951926
       4253.9161      0.74588088
       4254.6962      0.81780008
       4255.4763      0.94601239
       4256.2563      0.76109647
       4257.0364      0.56890371
       4257.8165      0.68466348
       4258.5966      0.87532633
       4259.3766      0.87975173
       4260.1567      0.83145223
       4260.9368      0.79130791
       4261.7168      0.74427617
       4262.4969      0.96007117
       4263.2770      0.75616531
       4264.0571      0.75122545
       4264.8371      0.70014831
       4265.6172      0.75754650
       4266.3973      0.82772057
       4267.1774      0.83972750
       4267.9574      0.62916042
       4268.7375      0.91176761
       4269.5176      0.83160707
       4270.2976      0.86722182
       4271.0777      0.65656456
       4271.8578      0.65228114
       4272.6379      0.70053752
       4273.4179      0.84818722
       4274.1980      0.68540659
       4274.9781      0.75216925
       4275.7582      0.74009689
       4276.5382      0.70662381
       4277.3183      0.76112567
       4278.0984      0.74799563
       4278.8784      0.91105847
       4279.6585      0.82786463
       4280.4386      0.82095136
       4281.2187      0.62609014
       4281.9987      0.69521090
       4282.7788      0.76716213
       4283.5589      0.94005896
       4284.3390      0.70995374
       4285.1190      0.77734745
       4285.8991      0.89497663
       4286.6792      0.75634969
       4287.4592      0.74683839
       4288.2393      0.90912215
       4289.0194      0.89313709
       4289.7995      0.75725508
       4290.5795      0.76108416
       4291.3596      0.90123104
       4292.1397      0.75478394
       4292.9198      0.89009285
       4293.6998      0.69248143
       4294.4799      0.69046983
       4295.2600      0.72606791
       4296.0400      0.77249282
       4296.8201      0.86780066
       4297.6002      0.70953648
       4298.3803      0.85888080
       4299.1603      0.85879541
       4299.9404      0.65208987
       4300.7205      0.91899520
       4301.5006      0.84197006
       4302.2806      0.89343166
       4303.0607      0.86120844
       4303.8408      0.85474601
       4304.6209      0.80417358
       4305.4009       1.0160771
       4306.1810      0.69437501
       4306.9611      0.72718227
       4307.7411      0.91953886
       4308.5212       1.0011592
       4309.3013      0.67037778
       4310.0814      0.81390768
       4310.8614      0.78170869
       4311.6415      0.91226081
       4312.4216      0.98244673
       4313.2017      0.91681031
       4313.9817      0.81887179
       4314.7618       1.0256176
       4315.5419      0.80395003
       4316.3219      0.74594697
       4317.1020      0.78397159
       4317.8821      0.82960000
       4318.6622      0.83628615
       4319.4422      0.78448238
       4320.2223      0.87566491
       4321.0024      0.59443074
       4321.7825      0.82561793
       4322.5625      0.66325773
       4323.3426      0.77599684
       4324.1227      0.76989622
       4324.9027      0.65310208
       4325.6828      0.68674813
       4326.4629      0.90018427
       4327.2430      0.74574727
       4328.0230      0.93135347
       4328.8031      0.75083438
       4329.5832      0.92441603
       4330.3633      0.82560990
       4331.1433      0.85661768
       4331.9234      0.71401198
       4332.7035      0.88313019
       4333.4835      0.83292310
       4334.2636      0.63233004
       4335.0437      0.78040224
       4335.8238      0.80649240
       4336.6038      0.90733682
       4337.3839      0.81547399
       4338.1640      0.64546849
       4338.9441      0.75022284
       4339.7241      0.60913523
       4340.5042      0.78924412
       4341.2843      0.81502642
       4342.0643      0.64941266
       4342.8444      0.64974959
       4343.6245      0.65510037
       4344.4046      0.88289711
       4345.1846       1.1577669
       4345.9647      0.73523986
       4346.7448      0.92926908
       4347.5249      0.91056804
       4348.3049      0.74504093
       4349.0850      0.70015066
       4349.8651      0.86144183
       4350.6451      0.81720576
       4351.4252      0.71412864
       4352.2053      0.87653200
       4352.9854      0.62337596
       4353.7654      0.69688795
       4354.5455      0.67824232
       4355.3256      0.73214412
       4356.1057      0.73614204
       4356.8857      0.76350759
       4357.6658      0.46963975
       4358.4459      0.76202329
       4359.2259      0.63182809
       4360.0060      0.68966146
       4360.7861      0.73675387
       4361.5662      0.54076101
       4362.3462      0.74955858
       4363.1263      0.66386822
       4363.9064      0.85437145
       4364.6865       1.2051824
       4365.4665       1.3321652
       4366.2466       1.1607408
       4367.0267       1.0811585
       4367.8067       1.0209638
       4368.5868       1.1176987
       4369.3669      0.80539755
       4370.1470       1.0010870
       4370.9270      0.61203513
       4371.7071      0.75249933
       4372.4872      0.84251780
       4373.2673      0.77941749
       4374.0473      0.65454714
       4374.8274      0.60249048
       4375.6075      0.72063989
       4376.3875      0.66932614
       4377.1676      0.76537186
       4377.9477      0.68127435
       4378.7278      0.77117347
       4379.5078      0.94859520
       4380.2879      0.70359689
       4381.0680      0.74037059
       4381.8481      0.77117743
       4382.6281      0.80171453
       4383.4082      0.76144944
       4384.1883      0.68637656
       4384.9683      0.71593542
       4385.7484      0.89730294
       4386.5285      0.76692063
       4387.3086      0.87270794
       4388.0886      0.66279812
       4388.8687      0.96762900
       4389.6488      0.80588589
       4390.4289      0.90222100
       4391.2089      0.78573350
       4391.9890      0.75162837
       4392.7691      0.76688871
       4393.5491      0.74137557
       4394.3292      0.80614358
       4395.1093      0.85862304
       4395.8894       1.0142924
       4396.6694      0.61899907
       4397.4495      0.78884192
       4398.2296      0.79905924
       4399.0097      0.77788735
       4399.7897       1.0497757
       4400.5698      0.79099690
       4401.3499      0.69797539
       4402.1299      0.84374333
       4402.9100      0.86826692
       4403.6901      0.87208760
       4404.4702      0.65572908
       4405.2502      0.96742603
       4406.0303      0.84969052
       4406.8104      0.64764861
       4407.5905      0.79860239
       4408.3705      0.69073912
       4409.1506      0.85936070
       4409.9307      0.78190867
       4410.7107      0.83041085
       4411.4908      0.87516971
       4412.2709      0.90802852
       4413.0510      0.70756598
       4413.8310      0.75158017
       4414.6111      0.64570377
       4415.3912      0.70404713
       4416.1713      0.85156045
       4416.9513      0.69565659
       4417.7314      0.75981300
       4418.5115      0.57679225
       4419.2915      0.71344480
       4420.0716      0.85703704
       4420.8517      0.71264935
       4421.6318      0.65117748
       4422.4118      0.87816593
       4423.1919      0.75492121
       4423.9720      0.75189891
       4424.7521      0.77655586
       4425.5321      0.75757263
       4426.3122      0.69360334
       4427.0923      0.71221018
       4427.8723      0.53972467
       4428.6524      0.71389500
       4429.4325      0.92217166
       4430.2126      0.78880647
       4430.9926      0.88672529
       4431.7727      0.83805419
       4432.5528      0.89329767
       4433.3329      0.92080180
       4434.1129      0.94407032
       4434.8930      0.71756937
       4435.6731      0.49502402
       4436.4531      0.81773338
       4437.2332      0.88405106
       4438.0133      0.89660822
       4438.7934      0.65888130
       4439.5734      0.84923527
       4440.3535      0.75115990
       4441.1336       1.0452254
       4441.9137      0.66023268
       4442.6937      0.73245691
       4443.4738      0.75000488
       4444.2539      0.87481531
       4445.0339      0.93519580
       4445.8140      0.79540981
       4446.5941      0.65969742
       4447.3742      0.64154736
       4448.1542      0.62280710
       4448.9343      0.89899647
       4449.7144      0.87577049
       4450.4945      0.81820534
       4451.2745      0.72082165
       4452.0546      0.79880437
       4452.8347      0.88701837
       4453.6147      0.83920723
       4454.3948      0.69210845
       4455.1749      0.98457699
       4455.9550      0.69167666
       4456.7350      0.63535585
       4457.5151      0.50232435
       4458.2952      0.60826361
       4459.0753      0.31022999
       4459.8553      0.73902913
       4460.6354      0.53988938
       4461.4155      0.65322298
       4462.1955      0.36158265
       4462.9756      0.48789693
       4463.7557      0.60374985
       4464.5358      0.73846258
       4465.3158      0.63445988
       4466.0959      0.82066387
       4466.8760      0.83839614
       4467.6561      0.86133421
       4468.4361      0.75780811
       4469.2162      0.75700604
       4469.9963      0.81319914
       4470.7763      0.68494046
       4471.5564      0.75176772
       4472.3365      0.76555263
       4473.1166      0.51897688
       4473.8966      0.55268450
       4474.6767      0.65139260
       4475.4568      0.67109679
       4476.2369      0.56878442
       4477.0169      0.69054272
       4477.7970      0.82010368
       4478.5771      0.93728693
       4479.3571      0.71266843
       4480.1372      0.56066658
       4480.9173      0.65278940
       4481.6974      0.86332996
       4482.4774      0.65368090
       4483.2575      0.62295626
       4484.0376      0.81988160
       4484.8177      0.82141926
       4485.5977      0.73364158
       4486.3778      0.79737337
       4487.1579      0.79787713
       4487.9379      0.45653344
       4488.7180      0.90517783
       4489.4981      0.65965749
       4490.2782      0.80793916
       4491.0582      0.77817306
       4491.8383      0.75200854
       4492.6184      0.71693504
       4493.3985      0.83573936
       4494.1785      0.77305174
       4494.9586      0.77420264
       4495.7387      0.84018502
       4496.5187      0.80020534
       4497.2988      0.99018995
       4498.0789      0.63542980
       4498.8590      0.83335670
       4499.6390      0.97847862
       4500.4191      0.64160381
       4501.1992      0.68389755
       4501.9793      0.81503398
       4502.7593      0.72100496
       4503.5394      0.76439202
       4504.3195      0.76120339
       4505.0995      0.76627291
       4505.8796      0.98013814
       4506.6597      0.74062283
       4507.4398      0.91913077
       4508.2198      0.55768402
       4508.9999      0.72854631
       4509.7800      0.76213728
       4510.5601      0.67831880
       4511.3401      0.81429404
       4512.1202      0.87149506
       4512.9003      0.69136012
       4513.6803      0.65106579
       4514.4604       1.0142407
       4515.2405      0.75198079
       4516.0206      0.86851144
       4516.8006      0.74638666
       4517.5807      0.67122051
       4518.3608      0.76137228
       4519.1409      0.86562736
       4519.9209      0.86261558
       4520.7010      0.67999131
       4521.4811      0.80484675
       4522.2611      0.88764843
       4523.0412      0.79386353
       4523.8213      0.59004529
       4524.6014      0.76574483
       4525.3814      0.75305207
       4526.1615      0.83240852
       4526.9416      0.90931639
       4527.7217      0.80914992
       4528.5017       1.0038834
       4529.2818      0.71561709
       4530.0619      0.84253232
       4530.8419      0.78821293
       4531.6220      0.81731495
       4532.4021      0.87029873
       4533.1822      0.84381860
       4533.9622      0.82974582
       4534.7423      0.70178452
       4535.5224      0.68373100
       4536.3025      0.77769890
       4537.0825      0.69464957
       4537.8626      0.76983735
       4538.6427      0.88320908
       4539.4227      0.68644408
       4540.2028      0.78827545
       4540.9829      0.59980189
       4541.7630      0.70368843
       4542.5430      0.82204537
       4543.3231      0.75842425
       4544.1032      0.62951901
       4544.8833      0.78711650
       4545.6633      0.75437334
       4546.4434      0.66897264
       4547.2235      0.73182131
       4548.0035      0.78116927
       4548.7836      0.90472639
       4549.5637      0.86977768
       4550.3438      0.61821623
       4551.1238      0.83063566
       4551.9039      0.87864064
       4552.6840      0.80091536
       4553.4641      0.70861917
       4554.2441      0.84652346
       4555.0242      0.92000644
       4555.8043      0.94549383
       4556.5844      0.64586523
       4557.3644      0.86988538
       4558.1445      0.82914997
       4558.9246      0.73180312
       4559.7046      0.71061961
       4560.4847      0.77818819
       4561.2648      0.76102041
       4562.0449      0.64074789
       4562.8249      0.72852179
       4563.6050      0.69334974
       4564.3851      0.80197951
       4565.1652      0.74785412
       4565.9452      0.67988353
       4566.7253      0.75541271
       4567.5054      0.70889231
       4568.2854      0.73103382
       4569.0655      0.79789630
       4569.8456      0.72600173
       4570.6257      0.77969684
       4571.4057      0.86983912
       4572.1858      0.78311445
       4572.9659      0.95332400
       4573.7460      0.78010775
       4574.5260      0.83433359
       4575.3061      0.58566656
       4576.0862      0.79924707
       4576.8662      0.77514835
       4577.6463      0.67757665
       4578.4264      0.64610072
       4579.2065      0.82364714
       4579.9865      0.77826626
       4580.7666      0.88820647
       4581.5467      0.78766219
       4582.3268      0.86326418
       4583.1068      0.86415195
       4583.8869      0.86192554
       4584.6670      0.85652657
       4585.4470      0.70537471
       4586.2271      0.94106711
       4587.0072      0.72328485
       4587.7873      0.87576559
       4588.5673      0.78824080
       4589.3474      0.71139365
       4590.1275      0.69460834
       4590.9076      0.96539954
       4591.6876      0.80569393
       4592.4677      0.83393713
       4593.2478      0.90601781
       4594.0278      0.77582394
       4594.8079      0.87114406
       4595.5880      0.88852674
       4596.3681      0.75919123
       4597.1481      0.75359857
       4597.9282      0.84463906
       4598.7083      0.87432576
       4599.4884      0.89223631
       4600.2684      0.71377009
       4601.0485      0.89027356
       4601.8286      0.78865892
       4602.6086      0.88767081
       4603.3887      0.81401166
       4604.1688      0.66086114
       4604.9489      0.73043754
       4605.7289      0.75050624
       4606.5090      0.82281654
       4607.2891      0.75275024
       4608.0692      0.73616043
       4608.8492      0.67789085
       4609.6293      0.81140029
       4610.4094      0.78661341
       4611.1894      0.78448462
       4611.9695       1.0231680
       4612.7496      0.86696355
       4613.5297      0.79915337
       4614.3097      0.79769974
       4615.0898      0.81152346
       4615.8699      0.89018963
       4616.6500      0.82788192
       4617.4300      0.63984462
       4618.2101      0.82989299
       4618.9902      0.60240393
       4619.7702      0.60058777
       4620.5503      0.72956956
       4621.3304      0.88280159
       4622.1105      0.75447045
       4622.8905      0.79696617
       4623.6706      0.81066242
       4624.4507      0.92094368
       4625.2308      0.68574209
       4626.0108      0.60692284
       4626.7909      0.94395039
       4627.5710      0.87156146
       4628.3510      0.85173546
       4629.1311      0.82494464
       4629.9112      0.75349399
       4630.6913      0.84311109
       4631.4713      0.75258381
       4632.2514      0.89829862
       4633.0315      0.84654210
       4633.8116      0.80743359
       4634.5916      0.96644562
       4635.3717      0.73220736
       4636.1518      0.71577135
       4636.9318      0.74314619
       4637.7119      0.67062086
       4638.4920      0.69071934
       4639.2721      0.82941261
       4640.0521      0.82169074
       4640.8322      0.79149583
       4641.6123      0.90806090
       4642.3924      0.83955524
       4643.1724       1.0389457
       4643.9525      0.60605840
       4644.7326      0.70973665
       4645.5126      0.71220171
       4646.2927      0.83557572
       4647.0728      0.87894806
       4647.8529      0.91908610
       4648.6329      0.84786528
       4649.4130      0.78781899
       4650.1931      0.75868934
       4650.9732      0.71370350
       4651.7532      0.74598584
       4652.5333      0.81890754
       4653.3134      0.82373475
       4654.0934      0.76219701
       4654.8735      0.94081138
       4655.6536      0.73532024
       4656.4337      0.62407420
       4657.2137      0.70537491
       4657.9938      0.93774004
       4658.7739       1.0160145
       4659.5540      0.65026206
       4660.3340      0.82312982
       4661.1141      0.72819521
       4661.8942      0.92624186
       4662.6742      0.82597201
       4663.4543      0.67997523
       4664.2344      0.78946146
       4665.0145      0.82327858
       4665.7945      0.79906690
       4666.5746      0.85644662
       4667.3547      0.58200104
       4668.1348      0.82424160
       4668.9148      0.62359989
       4669.6949      0.80453818
       4670.4750      0.75385635
       4671.2550      0.57028787
       4672.0351      0.78775322
       4672.8152      0.71521579
       4673.5953      0.83593327
       4674.3753      0.76559383
       4675.1554      0.77422064
       4675.9355      0.85449335
       4676.7156      0.75515969
       4677.4956      0.78756990
       4678.2757      0.72636494
       4679.0558      0.77949655
       4679.8358      0.86885734
       4680.6159      0.82184747
       4681.3960      0.84817988
       4682.1761      0.78110689
       4682.9561      0.84671189
       4683.7362      0.65800016
       4684.5163      0.66679724
       4685.2964      0.65922897
       4686.0764      0.71423070
       4686.8565      0.85969856
       4687.6366      0.96901663
       4688.4166      0.85668891
       4689.1967      0.73333232
       4689.9768      0.54230360
       4690.7569      0.82767324
       4691.5369      0.93847678
       4692.3170      0.80604779
       4693.0971      0.71305202
       4693.8772      0.95209183
       4694.6572      0.71148600
       4695.4373      0.81572202
       4696.2174      0.84114385
       4696.9974      0.59364167
       4697.7775      0.95478565
       4698.5576      0.86209064
       4699.3377      0.79325963
       4700.1177      0.69238577
       4700.8978      0.82939716
       4701.6779      0.77809582
       4702.4580      0.76388305
       4703.2380      0.98170410
       4704.0181      0.50987169
       4704.7982      0.43232130
       4705.5782      0.94207747
       4706.3583      0.66905788
       4707.1384      0.97790311
       4707.9185       1.4129462
       4708.6985       1.1231577
       4709.4786       1.1943002
       4710.2587      0.89943687
       4711.0388      0.79274144
       4711.8188      0.77129099
       4712.5989      0.96383206
       4713.3790      0.87021610
       4714.1590      0.93266849
       4714.9391      0.77143663
       4715.7192      0.86878692
       4716.4993      0.85377955
       4717.2793      0.88360364
       4718.0594      0.90207530
       4718.8395      0.79668395
       4719.6196      0.74064033
       4720.3996      0.63624082
       4721.1797      0.79093801
       4721.9598      0.87561142
       4722.7398      0.86188032
       4723.5199      0.62628019
       4724.3000       1.0155111
       4725.0801      0.55038842
       4725.8601      0.73813104
       4726.6402      0.58605073
       4727.4203      0.53428169
       4728.2004       1.2501927
       4728.9804      0.74324992
       4729.7605      0.91256743
       4730.5406      0.79743372
       4731.3206      0.89172991
       4732.1007      0.85416860
       4732.8808      0.88283246
       4733.6609      0.72603759
       4734.4409      0.94037149
       4735.2210       1.0503326
       4736.0011      0.87799683
       4736.7812      0.77779510
       4737.5612      0.87288430
       4738.3413      0.73658936
       4739.1214      0.84879956
       4739.9014      0.72308171
       4740.6815      0.86404807
       4741.4616      0.72560521
       4742.2417      0.71685535
       4743.0217      0.88202026
       4743.8018      0.78893529
       4744.5819       1.0492070
       4745.3620      0.54769436
       4746.1420      0.80576911
       4746.9221      0.87426218
       4747.7022      0.45493348
       4748.4822      0.64980878
       4749.2623      0.84872187
       4750.0424      0.63481707
       4750.8225      0.82335843
       4751.6025      0.90846717
       4752.3826      0.66285397
       4753.1627       1.0214562
       4753.9428      0.73013417
       4754.7228      0.93462775
       4755.5029      0.78889562
       4756.2830      0.62148980
       4757.0630      0.65848041
       4757.8431      0.72648324
       4758.6232      0.54551376
       4759.4033      0.89668568
       4760.1833      0.76456776
       4760.9634       1.0368197
       4761.7435      0.96106125
       4762.5236      0.71129048
       4763.3036      0.79227416
       4764.0837      0.77374166
       4764.8638      0.63189535
       4765.6438       1.1104308
       4766.4239      0.77612231
       4767.2040      0.85871861
       4767.9841      0.79995265
       4768.7641      0.76422587
       4769.5442      0.83546127
       4770.3243      0.73157545
       4771.1044      0.55535911
       4771.8844       1.1858729
       4772.6645      0.72885787
       4773.4446      0.84876417
       4774.2246      0.88576152
       4775.0047      0.81004802
       4775.7848      0.79158759
       4776.5649      0.87443021
       4777.3449      0.65647088
       4778.1250      0.78678956
       4778.9051      0.86451397
       4779.6852      0.79607446
       4780.4652      0.88866701
       4781.2453      0.70642928
       4782.0254      0.83320429
       4782.8054      0.62545108
       4783.5855      0.82739076
       4784.3656      0.65714784
       4785.1457      0.76252533
       4785.9257      0.78683558
       4786.7058      0.76602988
       4787.4859      0.97780676
       4788.2660      0.96376785
       4789.0460      0.91702671
       4789.8261      0.59952793
       4790.6062      0.57303198
       4791.3862      0.63125567
       4792.1663      0.84059770
       4792.9464      0.83686120
       4793.7265      0.98096227
       4794.5065      0.87479814
       4795.2866      0.88226119
       4796.0667      0.82496983
       4796.8468       1.1173720
       4797.6268      0.78056637
       4798.4069      0.86836976
       4799.1870      0.95274337
       4799.9670      0.78128712
       4800.7471      0.70391271
       4801.5272      0.77810373
       4802.3073      0.71743316
       4803.0873      0.82901822
       4803.8674      0.80583357
       4804.6475      0.95171160
       4805.4276      0.92301904
       4806.2076      0.89330542
       4806.9877      0.59277694
       4807.7678      0.75459060
       4808.5479      0.95987967
       4809.3279      0.72044709
       4810.1080      0.71535983
       4810.8881      0.89094025
       4811.6681      0.57188778
       4812.4482      0.71878870
       4813.2283      0.65794039
       4814.0084      0.81574735
       4814.7884      0.70287936
       4815.5685      0.81993300
       4816.3486      0.89398473
       4817.1287      0.79619679
       4817.9087      0.87298937
       4818.6888      0.83560481
       4819.4689      0.58900026
       4820.2489      0.72719775
       4821.0290      0.65930106
       4821.8091      0.70058490
       4822.5892      0.83036170
       4823.3692      0.75802255
       4824.1493      0.73848878
       4824.9294      0.81645652
       4825.7095      0.93754506
       4826.4895      0.86735452
       4827.2696      0.66035540
       4828.0497      0.79178347
       4828.8297       1.0683275
       4829.6098      0.78024220
       4830.3899      0.92927870
       4831.1700      0.87841287
       4831.9500      0.87015217
       4832.7301      0.90289936
       4833.5102      0.78393122
       4834.2903      0.84047985
       4835.0703      0.98175442
       4835.8504      0.71264326
       4836.6305      0.59047371
       4837.4105      0.65584739
       4838.1906      0.89273123
       4838.9707      0.70905021
       4839.7508      0.83926674
       4840.5308      0.61243174
       4841.3109      0.91802981
       4842.0910      0.67469921
       4842.8711      0.89899612
       4843.6511      0.83080303
       4844.4312      0.89583056
       4845.2113      0.87685059
       4845.9913      0.82573241
       4846.7714      0.71101268
       4847.5515      0.78750530
       4848.3316      0.81066789
       4849.1116      0.85642797
       4849.8917      0.91553458
       4850.6718      0.89353380
       4851.4519      0.96199756
       4852.2319       1.0192807
       4853.0120       1.0293719
       4853.7921      0.38222813
       4854.5721      0.68270053
       4855.3522      0.39183992
       4856.1323      0.49833402
       4856.9124      0.51137207
       4857.6924      0.69575077
       4858.4725      0.22748591
       4859.2526      0.65288640
       4860.0327       2.6893770
       4860.8127       2.1731493
       4861.5928      0.77726014
       4862.3729       1.0593870
       4863.1529       1.1686715
       4863.9330       1.0454118
       4864.7131      0.75900480
       4865.4932       1.1510670
       4866.2732      0.87239565
       4867.0533      0.78450931
       4867.8334      0.80097183
       4868.6135      0.70017347
       4869.3935      0.94705741
       4870.1736      0.98992435
       4870.9537      0.70495845
       4871.7337      0.80516065
       4872.5138      0.69751724
       4873.2939      0.75177868
       4874.0740      0.88069640
       4874.8540      0.83629153
       4875.6341      0.70707097
       4876.4142      0.78937211
       4877.1943      0.71819785
       4877.9743      0.81565740
       4878.7544      0.74278656
       4879.5345      0.82764622
       4880.3145      0.78944165
       4881.0946      0.73109815
       4881.8747      0.69203507
       4882.6548      0.78237784
       4883.4348      0.82291341
       4884.2149      0.51297438
       4884.9950      0.79877680
       4885.7751      0.73013377
       4886.5551      0.80743267
       4887.3352       1.0943727
       4888.1153      0.80907939
       4888.8953      0.80318870
       4889.6754      0.76307140
       4890.4555      0.79469404
       4891.2356      0.57815934
       4892.0156      0.94283750
       4892.7957      0.53576262
       4893.5758      0.73102441
       4894.3559      0.74438483
       4895.1359       1.3313096
       4895.9160       1.6684809
       4896.6961       2.2310666
       4897.4761       2.3185409
       4898.2562       2.3384568
       4899.0363       2.4531364
       4899.8164       2.2946085
       4900.5964       1.9587845
       4901.3765       1.6542382
       4902.1566       1.3091948
       4902.9367       1.0482533
       4903.7167      0.70741743
       4904.4968       1.0182425
       4905.2769      0.58227093
       4906.0569      0.64385294
       4906.8370      0.73233846
       4907.6171      0.60489577
       4908.3972      0.68653438
       4909.1772      0.81817911
       4909.9573      0.69432664
       4910.7374      0.77667954
       4911.5175      0.53634273
       4912.2975      0.73609967
       4913.0776      0.57922774
       4913.8577      0.68610215
       4914.6377      0.82318612
       4915.4178      0.78945603
       4916.1979      0.93753119
       4916.9780      0.83793133
       4917.7580       1.0270886
       4918.5381      0.86569195
       4919.3182       1.0926075
       4920.0983      0.80886316
       4920.8783      0.91929111
       4921.6584      0.81010664
       4922.4385      0.85068396
       4923.2185       1.1006885
       4923.9986      0.83767754
       4924.7787      0.73187741
       4925.5588      0.68703403
       4926.3388      0.91237933
       4927.1189      0.69731496
       4927.8990      0.91359364
       4928.6791      0.71198780
       4929.4591       1.0443713
       4930.2392      0.90475402
       4931.0193      0.86877425
       4931.7993      0.85032376
       4932.5794      0.83855532
       4933.3595      0.78829659
       4934.1396      0.72822350
       4934.9196      0.65741541
       4935.6997      0.81645284
       4936.4798      0.73788627
       4937.2599      0.68358701
       4938.0399      0.50337478
       4938.8200      0.45730629
       4939.6001      0.56119190
       4940.3801      0.38737875
       4941.1602      0.32900907
       4941.9403             NaN
       4942.7204             NaN
       4943.5004             NaN
       4944.2805             NaN
       4945.0606             NaN
       4945.8407             NaN
       4946.6207             NaN
       4947.4008             NaN
       4948.1809             NaN
       4948.9609             NaN
       4949.7410             NaN
       4950.5211             NaN
       4951.3012             NaN
       4952.0812             NaN
       4952.8613             NaN
       4953.6414             NaN
       4954.4215             NaN
       4955.2015             NaN
       4955.9816             NaN
       4956.7617             NaN
       4957.5417             NaN
       4958.3218             NaN
       4959.1019             NaN
       4959.8820             NaN
       4960.6620             NaN
       4961.4421             NaN
       4962.2222             NaN
       4963.0023             NaN
       4963.7823             NaN
       4964.5624             NaN
       4965.3425             NaN
       4966.1225             NaN
       4966.9026             NaN
       4967.6827             NaN
       4968.4628             NaN
       4969.2428             NaN
       4970.0229             NaN
       4970.8030             NaN
       4971.5831             NaN
       4972.3631             NaN
       4973.1432             NaN
       4973.9233             NaN
       4974.7033             NaN
       4975.4834             NaN
       4976.2635             NaN
       4977.0436             NaN
       4977.8236             NaN
       4978.6037             NaN
       4979.3838             NaN
       4980.1639             NaN
       4980.9439             NaN
       4981.7240             NaN
       4982.5041             NaN
       4983.2841             NaN
       4984.0642             NaN
       4984.8443             NaN
       4985.6244             NaN
       4986.4044             NaN
       4987.1845             NaN
       4987.9646             NaN
       4988.7447             NaN
       4989.5247             NaN
       4990.3048             NaN
       4991.0849             NaN
       4991.8649             NaN
       4992.6450             NaN
       4993.4251             NaN
       4994.2052             NaN
       4994.9852             NaN
       4995.7653             NaN
       4996.5454             NaN
       4997.3255             NaN
       4998.1055             NaN
       4998.8856             NaN
       4999.6657             NaN
       5000.4457             NaN
       5001.2258             NaN
       5002.0059             NaN
       5002.7860             NaN
       5003.5660             NaN
       5004.3461             NaN
       5005.1262             NaN
       5005.9063             NaN
       5006.6863             NaN
       5007.4664             NaN
       5008.2465             NaN
       5009.0265             NaN
       5009.8066             NaN
       5010.5867             NaN
       5011.3668      0.90033728
       5012.1468      0.82103296
       5012.9269      0.83332761
       5013.7070       1.0704549
       5014.4871       1.2160800
       5015.2671      0.90531305
       5016.0472      0.94985533
       5016.8273      0.48978498
       5017.6073      0.84645449
       5018.3874       1.0328404
       5019.1675      0.87407723
       5019.9476      0.99195389
       5020.7276      0.75833327
       5021.5077      0.99111976
       5022.2878      0.96853228
       5023.0679      0.77062850
       5023.8479      0.84773869
       5024.6280      0.72519915
       5025.4081      0.84413200
       5026.1881      0.88111588
       5026.9682      0.88402723
       5027.7483       1.0118824
       5028.5284      0.86018828
       5029.3084      0.67000390
       5030.0885      0.79164563
       5030.8686      0.59218160
       5031.6487      0.75998531
       5032.4287      0.78009664
       5033.2088      0.78949217
       5033.9889      0.64474481
       5034.7689      0.73350100
       5035.5490      0.82519033
       5036.3291      0.68936815
       5037.1092      0.93858994
       5037.8892       1.0486973
       5038.6693      0.63283444
       5039.4494      0.47307211
       5040.2295       1.1774413
       5041.0095      0.67144321
       5041.7896       1.2539720
       5042.5697       1.2737406
       5043.3497       1.7889463
       5044.1298       1.9106012
       5044.9099       1.7319652
       5045.6900       2.1128457
       5046.4700       2.2949582
       5047.2501       2.0618525
       5048.0302       1.6782951
       5048.8103       1.5306427
       5049.5903       1.2745007
       5050.3704       1.1541978
       5051.1505       1.1559173
       5051.9305       1.0762757
       5052.7106      0.74147013
       5053.4907      0.96998241
       5054.2708      0.67496918
       5055.0508      0.81415401
       5055.8309      0.77826592
       5056.6110      0.84461260
       5057.3911      0.95377815
       5058.1711      0.75701337
       5058.9512      0.81218527
       5059.7313      0.57541720
       5060.5114      0.73625122
       5061.2914      0.83243499
       5062.0715      0.66823021
       5062.8516      0.83481913
       5063.6316      0.76080541
       5064.4117      0.75169869
       5065.1918      0.76063008
       5065.9719      0.79046153
       5066.7519       1.0768472
       5067.5320      0.63139817
       5068.3121      0.46914015
       5069.0922      0.79153439
       5069.8722      0.56437938
       5070.6523      0.75824505
       5071.4324      0.79521758
       5072.2124      0.85652689
       5072.9925      0.80855037
       5073.7726      0.92083750
       5074.5527      0.82874723
       5075.3327      0.72118721
       5076.1128      0.76178881
       5076.8929      0.67771663
       5077.6730      0.91492360
       5078.4530      0.75462845
       5079.2331      0.73683398
       5080.0132      0.65123119
       5080.7932      0.85305731
       5081.5733      0.48861452
       5082.3534      0.94411564
       5083.1335      0.96821455
       5083.9135       1.2083320
       5084.6936       1.2358421
       5085.4737      0.90016186
       5086.2538      0.61930382
       5087.0338       1.1733187
       5087.8139      0.77533556
       5088.5940      0.69044876
       5089.3740      0.66080638
       5090.1541      0.85208579
       5090.9342      0.68678630
       5091.7143       1.0445776
       5092.4943      0.80726227
       5093.2744      0.90923380
       5094.0545      0.79748495
       5094.8346      0.80480742
       5095.6146       1.0359333
       5096.3947      0.95382543
       5097.1748      0.87086605
       5097.9548       1.0539000
       5098.7349      0.95693230
       5099.5150      0.83820964
       5100.2951      0.63044498
       5101.0751      0.70505426
       5101.8552      0.86762010
       5102.6353      0.60977932
       5103.4154      0.78975504
       5104.1954       1.1416457
       5104.9755      0.79788047
       5105.7556      0.74532619
       5106.5356      0.58250105
       5107.3157      0.30164291
       5108.0958      0.28573401
       5108.8759       1.2560443
       5109.6559      0.77776788
       5110.4360       1.1040598
       5111.2161      0.74110860
       5111.9962      0.96361097
       5112.7762      0.75814957
       5113.5563      0.51269528
       5114.3364      0.69311042
       5115.1164      0.92683228
       5115.8965      0.80165504
       5116.6766      0.74648468
       5117.4567      0.91693365
       5118.2367      0.81270403
       5119.0168      0.67269114
       5119.7969      0.72977367
       5120.5770      0.61293497
       5121.3570      0.82199897
       5122.1371      0.79094200
       5122.9172      0.84404865
       5123.6972      0.58011585
       5124.4773      0.83093998
       5125.2574      0.73965526
       5126.0375      0.84651078
       5126.8175      0.78436822
       5127.5976       1.0271301
       5128.3777      0.85295017
       5129.1578      0.88092837
       5129.9378      0.92630841
       5130.7179      0.78146417
       5131.4980      0.82385743
       5132.2780      0.92924898
       5133.0581      0.73788030
       5133.8382      0.67675547
       5134.6183      0.70666272
       5135.3983      0.81372494
       5136.1784      0.63960110
       5136.9585      0.89979487
       5137.7386      0.77898819
       5138.5186      0.82956468
       5139.2987      0.83729924
       5140.0788      0.78503945
       5140.8588      0.87204066
       5141.6389      0.82401679
       5142.4190      0.86113368
       5143.1991      0.49127870
       5143.9791      0.87780484
       5144.7592      0.35381867
       5145.5393      0.63449827
       5146.3194       1.1254263
       5147.0994      0.26735811
       5147.8795      0.60533584
       5148.6596       1.0460179
       5149.4396      0.65669571
       5150.2197      0.84654446
       5150.9998      0.93161306
       5151.7799      0.89838716
       5152.5599      0.56409538
       5153.3400      0.90410153
       5154.1201      0.45951310
       5154.9002      0.73271943
       5155.6802      0.73271561
       5156.4603      0.57541526
       5157.2404      0.96050926
       5158.0204      0.80373725
       5158.8005      0.69129170
       5159.5806      0.56436645
       5160.3607      0.92792492
       5161.1407      0.67323968
       5161.9208      0.89084773
       5162.7009      0.65907439
       5163.4810      0.68456000
       5164.2610      0.72709737
       5165.0411      0.83399550
       5165.8212      0.81895801
       5166.6012      0.63838437
       5167.3813      0.93300470
       5168.1614      0.54132629
       5168.9415      0.56644567
       5169.7215      0.60430482
       5170.5016      0.58597408
       5171.2817      0.67907507
       5172.0618      0.54584521
       5172.8418      0.76736270
       5173.6219      0.75415654
       5174.4020      0.67339852
       5175.1820      0.78565815
       5175.9621       1.0744319
       5176.7422      0.78802512
       5177.5223      0.26356868
       5178.3023     -0.20695755
       5179.0824      0.16136475
       5179.8625      0.30609818
       5180.6426      0.78149826
       5181.4226      0.88114874
       5182.2027      0.73899577
       5182.9828      0.79334231
       5183.7628      0.64351224
       5184.5429      0.62224713
       5185.3230      0.79085957
       5186.1031       1.1634775
       5186.8831      0.50321571
       5187.6632      0.74208474
       5188.4433      0.84666086
       5189.2234      0.59572859
       5190.0034      0.44497673
       5190.7835      0.66025231
       5191.5636      0.63155098
       5192.3436      0.69346382
       5193.1237      0.60545063
       5193.9038      0.71683269
       5194.6839      0.87422913
       5195.4639      0.74850489
       5196.2440      0.78221890
       5197.0241      0.77779209
       5197.8042      0.92348485
       5198.5842      0.62423358
       5199.3643      0.66955907
       5200.1444      0.67762965
       5200.9244      0.68119656
       5201.7045      0.69634170
       5202.4846      0.92733049
       5203.2647      0.64208311
       5204.0447      0.56189291
       5204.8248       1.0250962
       5205.6049      0.70849662
       5206.3850      0.75336775
       5207.1650      0.65903154
       5207.9451      0.69168207
       5208.7252      0.74785095
       5209.5052      0.87697536
       5210.2853      0.58098800
       5211.0654      0.47842467
       5211.8455      0.75038623
       5212.6255      0.73634128
       5213.4056      0.58385717
       5214.1857      0.56250315
       5214.9658      0.51846391
       5215.7458      0.99523467
       5216.5259      0.65374152
       5217.3060      0.78677919
       5218.0860      0.88616593
       5218.8661       1.1289539
       5219.6462      0.68929771
       5220.4263      0.83205077
       5221.2063      0.61356535
       5221.9864      0.71526244
       5222.7665      0.88317136
       5223.5466      0.69730882
       5224.3266      0.74311894
       5225.1067      0.53023679
       5225.8868      0.87665974
       5226.6668      0.72850165
       5227.4469      0.87142906
       5228.2270      0.76530318
       5229.0071      0.76309071
       5229.7871      0.56877408
       5230.5672      0.82614729
       5231.3473      0.80111415
       5232.1274      0.53681948
       5232.9074      0.68731553
       5233.6875      0.71658062
       5234.4676      0.75743611
       5235.2476      0.76637514
       5236.0277      0.64257998
       5236.8078      0.85508198
       5237.5879      0.94306355
       5238.3679      0.72728666
       5239.1480      0.85952297
       5239.9281      0.82224637
       5240.7082       1.0253538
       5241.4882       1.1575176
       5242.2683      0.68526980
       5243.0484      0.93834793
       5243.8284      0.67936730
       5244.6085      0.71622644
       5245.3886      0.75028246
       5246.1687      0.81308009
       5246.9487      0.55046989
       5247.7288      0.76711323
       5248.5089      0.72114776
       5249.2890      0.70549061
       5250.0690      0.71669056
       5250.8491      0.69197167
       5251.6292      0.68687245
       5252.4092      0.91325088
       5253.1893      0.77031121
       5253.9694      0.61182283
       5254.7495      0.72996182
       5255.5295      0.66905218
       5256.3096      0.79055426
       5257.0897      0.89614863
       5257.8698      0.75572762
       5258.6498      0.91565569
       5259.4299      0.62478343
       5260.2100      0.59767295
       5260.9900      0.85799073
       5261.7701      0.74245473
       5262.5502      0.81761718
       5263.3303      0.71830757
       5264.1103      0.74988122
       5264.8904      0.90484193
       5265.6705      0.79180906
       5266.4506      0.73768232
       5267.2306      0.72644019
       5268.0107      0.61945668
       5268.7908      0.60744560
       5269.5708      0.75359297
       5270.3509      0.58847574
       5271.1310      0.56368733
       5271.9111      0.78140413
       5272.6911      0.79638871
       5273.4712      0.73762000
       5274.2513      0.80332068
       5275.0314      0.84259556
       5275.8114      0.80832676
       5276.5915      0.67401822
       5277.3716      0.74491669
       5278.1516      0.76317891
       5278.9317      0.85508131
       5279.7118      0.70919569
       5280.4919      0.75389998
       5281.2719      0.83062480
       5282.0520      0.77864205
       5282.8321      0.69013520
       5283.6122      0.63189308
       5284.3922      0.73615038
       5285.1723      0.63134976
       5285.9524      0.83803173
       5286.7324      0.73521359
       5287.5125      0.89064196
       5288.2926      0.68262703
       5289.0727      0.65121620
       5289.8527      0.60940220
       5290.6328      0.61865283
       5291.4129      0.75987240
       5292.1930      0.68086874
       5292.9730      0.84727807
       5293.7531      0.74259739
       5294.5332      0.58967057
       5295.3132      0.87461004
       5296.0933      0.65486807
       5296.8734      0.86354584
       5297.6535      0.87624835
       5298.4335      0.68129473
       5299.2136      0.73791002
       5299.9937      0.83624614
       5300.7738      0.68464224
       5301.5538      0.76040499
       5302.3339      0.62349499
       5303.1140      0.79132608
       5303.8940      0.87122795
       5304.6741      0.78771943
       5305.4542      0.69411759
       5306.2343      0.83278269
       5307.0143      0.66998650
       5307.7944      0.82071666
       5308.5745      0.64221311
       5309.3546      0.71820595
       5310.1346      0.73794213
       5310.9147      0.71878520
       5311.6948      0.76105019
       5312.4749      0.72222801
       5313.2549      0.58628583
       5314.0350      0.77821809
       5314.8151      0.66303129
       5315.5951      0.70142195
       5316.3752      0.66721477
       5317.1553      0.75466038
       5317.9354      0.66270453
       5318.7154      0.78575889
       5319.4955      0.76093339
       5320.2756      0.78284629
       5321.0557      0.78357929
       5321.8357      0.73205267
       5322.6158      0.51079854
       5323.3959      0.58781382
       5324.1759      0.76795066
       5324.9560      0.89456211
       5325.7361      0.90946969
       5326.5162       1.0125213
       5327.2962      0.86960677
       5328.0763      0.68552912
       5328.8564      0.82817780
       5329.6365      0.81113029
       5330.4165      0.86413917
       5331.1966      0.87856125
       5331.9767      0.77388134
       5332.7567      0.88294712
       5333.5368      0.85580640
       5334.3169      0.78193661
       5335.0970      0.82258906
       5335.8770      0.74751232
       5336.6571      0.76266644
       5337.4372      0.81591837
       5338.2173      0.74058495
       5338.9973       1.0267644
       5339.7774      0.62391339
       5340.5575      0.67765177
       5341.3375      0.90629642
       5342.1176      0.73695386
       5342.8977      0.81381200
       5343.6778      0.69059604
       5344.4578      0.83585524
       5345.2379      0.67483217
       5346.0180      0.94680567
       5346.7981      0.54777109
       5347.5781      0.73888197
       5348.3582      0.72768144
       5349.1383      0.63113161
       5349.9183      0.98377923
       5350.6984      0.63397160
       5351.4785      0.84557581
       5352.2586      0.62805041
       5353.0386      0.79498382
       5353.8187      0.74060513
       5354.5988      0.88580092
       5355.3789      0.79035792
       5356.1589      0.77998438
       5356.9390      0.72522722
       5357.7191      0.73364123
       5358.4991      0.83404925
       5359.2792      0.71539825
       5360.0593      0.87334537
       5360.8394      0.78685767
       5361.6194      0.77525666
       5362.3995      0.73089918
       5363.1796      0.71828387
       5363.9597      0.74503331
       5364.7397      0.90712201
       5365.5198      0.88547904
       5366.2999      0.71087338
       5367.0799      0.87394960
       5367.8600      0.65897148
       5368.6401      0.69287656
       5369.4202      0.80960973
       5370.2002      0.54628723
       5370.9803      0.56964951
       5371.7604      0.91294792
       5372.5405      0.65774180
       5373.3205      0.82529762
       5374.1006      0.90584541
       5374.8807      0.75909359
       5375.6607      0.74861164
       5376.4408      0.75915009
       5377.2209      0.96525351
       5378.0010       1.0328402
       5378.7810      0.74861750
       5379.5611      0.80746193
       5380.3412      0.92442276
       5381.1213      0.89835633
       5381.9013      0.67862090
       5382.6814      0.87622001
       5383.4615      0.83395484
       5384.2415      0.85187438
       5385.0216      0.50135487
       5385.8017      0.69639796
       5386.5818      0.94734079
       5387.3618      0.63962324
       5388.1419      0.27707298
       5388.9220      0.61222012
       5389.7021      0.35320736
       5390.4821      0.54083063
       5391.2622      0.73203621
       5392.0423      0.62241747
       5392.8223      0.65000098
       5393.6024       1.3102980
       5394.3825      0.86887401
       5395.1626      0.43233160
       5395.9426       1.0937735
       5396.7227      0.75484466
       5397.5028       1.0899576
       5398.2829      0.49259236
       5399.0629      0.65320020
       5399.8430      0.87698472
       5400.6231      0.77632953
       5401.4031      0.68609176
       5402.1832       1.0649482
       5402.9633      0.96409374
       5403.7434      0.85492689
       5404.5234      0.82597022
       5405.3035      0.86027852
       5406.0836      0.94242308
       5406.8637      0.78100873
       5407.6437      0.75261337
       5408.4238      0.76833752
       5409.2039      0.90816010
       5409.9839      0.97705651
       5410.7640      0.84882543
       5411.5441      0.86499563
       5412.3242      0.73886559
       5413.1042      0.78620106
       5413.8843      0.74668552
       5414.6644      0.71017129
       5415.4445      0.65782399
       5416.2245      0.74503380
       5417.0046      0.89115018
       5417.7847      0.86055938
       5418.5647      0.87767789
       5419.3448      0.83346187
       5420.1249      0.77201392
       5420.9050      0.93903259
       5421.6850      0.82068952
       5422.4651      0.98161331
       5423.2452      0.79131329
       5424.0253       1.0727694
       5424.8053       1.3877745
       5425.5854      0.65340388
       5426.3655      0.75767744
       5427.1455      0.83786977
       5427.9256      0.15037716
       5428.7057       1.1891657
       5429.4858       1.2340648
       5430.2658       1.0669799
       5431.0459      0.60224065
       5431.8260      0.51529741
       5432.6061       1.3064279
       5433.3861      0.51615751
       5434.1662      0.71942315
       5434.9463      0.61728776
       5435.7263      0.80788884
       5436.5064      0.78555201
       5437.2865      0.52356636
       5438.0666      0.77129250
       5438.8466      0.87371384
       5439.6267       1.1891935
       5440.4068       1.0207406
       5441.1869      0.84938266
       5441.9669      0.58580931
       5442.7470      0.94999287
       5443.5271      0.80756971
       5444.3071      0.84290906
       5445.0872      0.75925064
       5445.8673      0.81390986
       5446.6474      0.74697136
       5447.4274      0.95100601
       5448.2075      0.66121939
       5448.9876       1.0409347
       5449.7677      0.72221022
       5450.5477      0.96830083
       5451.3278       1.0953928
       5452.1079      0.60667582
       5452.8879      0.78003343
       5453.6680      0.74628437
       5454.4481      0.69496944
       5455.2282      0.77046206
       5456.0082      0.87082298
       5456.7883      0.92447548
       5457.5684      0.76699788
       5458.3485       1.1192951
       5459.1285       1.1504404
       5459.9086      0.29600613
       5460.6887      0.37155115
       5461.4687       1.1348557
       5462.2488      0.62714019
       5463.0289      0.73877416
       5463.8090      0.67188917
       5464.5890      0.61472960
       5465.3691      0.67716770
       5466.1492      0.75835686
       5466.9293      0.90648414
       5467.7093      0.94684097
       5468.4894      0.77028790
       5469.2695       1.0184611
       5470.0495      0.72537961
       5470.8296      0.85167703
       5471.6097      0.59304683
       5472.3898      0.42681957
       5473.1698      0.79002070
       5473.9499      0.61255397
       5474.7300      0.83620719
       5475.5101      0.94188687
       5476.2901      0.80729279
       5477.0702      0.92070286
       5477.8503      0.71160734
       5478.6303      0.70338010
       5479.4104       1.2869767
       5480.1905       1.2883111
       5480.9706      0.32800298
       5481.7506      0.48093956
       5482.5307      0.39993937
       5483.3108      0.12787034
       5484.0909      0.51522558
       5484.8709      0.99236321
       5485.6510      0.60153336
       5486.4311      0.69118894
       5487.2111      0.85873211
       5487.9912      0.80684807
       5488.7713      0.79120404
       5489.5514      0.67067761
       5490.3314      0.84519382
       5491.1115      0.76435468
       5491.8916      0.91909334
       5492.6717      0.80431683
       5493.4517       1.0015573
       5494.2318       1.0458646
       5495.0119      0.57773669
       5495.7919      0.71930066
       5496.5720       1.1140165
       5497.3521      0.65318489
       5498.1322      0.42894106
       5498.9122      0.96184884
       5499.6923      0.66980625
       5500.4724      0.76534688
       5501.2525      0.81145776
       5502.0325      0.55211700
       5502.8126       1.4304358
       5503.5927      0.35540075
       5504.3727      0.65166847
       5505.1528      0.80781886
       5505.9329      0.51050654
       5506.7130      0.86448761
       5507.4930      0.70952935
       5508.2731      0.87314908
       5509.0532      0.71073500
       5509.8333      0.82585313
       5510.6133      0.77718830
       5511.3934      0.80003767
       5512.1735      0.86544835
       5512.9535      0.78234714
       5513.7336      0.75617111
       5514.5137      0.66409105
       5515.2938      0.69726829
       5516.0738      0.82982469
       5516.8539      0.80775703
       5517.6340      0.83884992
       5518.4141      0.82382949
       5519.1941      0.86709982
       5519.9742       1.1157626
       5520.7543      0.88775427
       5521.5343      0.61318504
       5522.3144      0.88016878
       5523.0945      0.62575284
       5523.8746      0.62880919
       5524.6546      0.95340505
       5525.4347      0.94213163
       5526.2148      0.91416771
       5526.9949      0.94606238
       5527.7749      0.90873774
       5528.5550       1.0016292
       5529.3351      0.49439766
       5530.1151      0.63254656
       5530.8952      0.74090299
       5531.6753      0.54336388
       5532.4554      0.35853964
       5533.2354      0.41856567
       5534.0155      0.71291633
       5534.7956      0.97411687
       5535.5757      0.83164965
       5536.3557      0.87016834
       5537.1358      0.74079215
       5537.9159      0.89220865
       5538.6959      0.76649908
       5539.4760      0.82075475
       5540.2561      0.85856901
       5541.0362      0.78565938
       5541.8162      0.85474707
       5542.5963      0.94823832
       5543.3764      0.76059824
       5544.1565      0.67146958
       5544.9365      0.83013385
       5545.7166      0.83245615
       5546.4967      0.69829696
       5547.2767      0.81756170
       5548.0568      0.73477816
       5548.8369      0.68820859
       5549.6170      0.90394260
       5550.3970      0.91474305
       5551.1771      0.68061911
       5551.9572      0.93551886
       5552.7373      0.77006012
       5553.5173      0.66430946
       5554.2974      0.88193110
       5555.0775      0.84334537
       5555.8575      0.99414695
       5556.6376      0.88034664
       5557.4177      0.69682341
       5558.1978       1.0256508
       5558.9778      0.89880811
       5559.7579      0.47889815
       5560.5380      0.57638526
       5561.3181      0.84613040
       5562.0981      0.66199647
       5562.8782      0.85540061
       5563.6583      0.88231270
       5564.4384      0.99653960
       5565.2184      0.63762128
       5565.9985      0.80213964
       5566.7786      0.63744348
       5567.5586      0.85058863
       5568.3387      0.90045694
       5569.1188      0.83089986
       5569.8989      0.82246352
       5570.6789      0.79820937
       5571.4590      0.78889031
       5572.2391      0.70378840
       5573.0192      0.77312010
       5573.7992      0.70981047
       5574.5793      0.76030995
       5575.3594      0.88515762
       5576.1394      0.78788357
       5576.9195      0.89291614
       5577.6996      0.77076426
       5578.4797      0.72238237
       5579.2597      0.81015356
       5580.0398      0.75521837
       5580.8199      0.81445234
       5581.6000      0.59551476
       5582.3800      0.62919033
       5583.1601      0.78247864
       5583.9402      0.79796459
       5584.7202      0.70945232
       5585.5003      0.73903648
       5586.2804      0.77395757
       5587.0605      0.96814310
       5587.8405      0.80593201
       5588.6206      0.73680214
       5589.4007      0.81561673
       5590.1808      0.77552300
       5590.9608      0.98505753
       5591.7409      0.65686432
       5592.5210      0.75293654
       5593.3010      0.91221822
       5594.0811      0.70791522
       5594.8612      0.92976966
       5595.6413      0.81181615
       5596.4213      0.81344041
       5597.2014      0.72457147
       5597.9815      0.75144825
       5598.7616      0.78009853
       5599.5416      0.81877140
       5600.3217      0.75129758
       5601.1018      0.84613201
       5601.8818      0.88762154
       5602.6619      0.88642554
       5603.4420      0.65386815
       5604.2221      0.91255357
       5605.0021      0.73149023
       5605.7822      0.81170923
       5606.5623      0.68776394
       5607.3424      0.75583354
       5608.1224      0.64952894
       5608.9025      0.95818269
       5609.6826       1.0196171
       5610.4626      0.85992042
       5611.2427      0.84021322
       5612.0228       1.1247104
       5612.8029      0.84856040
       5613.5829      0.90226258
       5614.3630      0.99942503
       5615.1431      0.83771480
       5615.9232      0.83725503
       5616.7032      0.86126153
       5617.4833      0.70022607
       5618.2634      0.82893190
       5619.0434      0.92983846
       5619.8235      0.86709879
       5620.6036      0.72168626
       5621.3837      0.49443953
       5622.1637      0.56483581
       5622.9438      0.59275475
       5623.7239      0.83648097
       5624.5040      0.80279102
       5625.2840      0.53219876
       5626.0641      0.79767651
       5626.8442      0.97992927
       5627.6242      0.44218113
       5628.4043      0.88101271
       5629.1844      0.53442116
       5629.9645      0.74615853
       5630.7445      0.95985866
       5631.5246      0.96364155
       5632.3047      0.93233931
       5633.0848       1.0083298
       5633.8648      0.57857994
       5634.6449      0.70125803
       5635.4250      0.89854146
       5636.2050      0.85969100
       5636.9851      0.55405361
       5637.7652      0.80365273
       5638.5453      0.86555278
       5639.3253      0.64025181
       5640.1054      0.83906985
       5640.8855       1.1203027
       5641.6656      0.64300422
       5642.4456      0.90082421
       5643.2257      0.88807130
       5644.0058       1.0744975
       5644.7858       1.1020579
       5645.5659      0.90766507
       5646.3460      0.84101958
       5647.1261       1.0837438
       5647.9061      0.98093434
       5648.6862      0.88353817
       5649.4663      0.87975479
       5650.2464      0.85828293
       5651.0264       1.0472357
       5651.8065      0.94221018
       5652.5866      0.80459924
       5653.3666      0.59769298
       5654.1467      0.55017416
       5654.9268      0.85344818
       5655.7069      0.76988555
       5656.4869      0.77849992
       5657.2670      0.70611631
       5658.0471       1.0841102
       5658.8272      0.88427827
       5659.6072       1.0150181
       5660.3873      0.88046896
       5661.1674      0.93854879
       5661.9474      0.98090695
       5662.7275      0.77170586
       5663.5076      0.87869358
       5664.2877      0.78416457
       5665.0677      0.83343928
       5665.8478      0.74737505
       5666.6279      0.84435505
       5667.4080      0.90658117
       5668.1880      0.76047704
       5668.9681      0.90480538
       5669.7482      0.73687658
       5670.5282      0.80724808
       5671.3083      0.67163075
       5672.0884      0.89719893
       5672.8685      0.79434815
       5673.6485      0.89927830
       5674.4286      0.71177783
       5675.2087      0.68674063
       5675.9888      0.83647062
       5676.7688      0.69629533
       5677.5489      0.76117286
       5678.3290      0.91789259
       5679.1090      0.79746579
       5679.8891      0.91885986
       5680.6692      0.75131458
       5681.4493      0.74800969
       5682.2293      0.80428042
       5683.0094      0.78871991
       5683.7895      0.60247868
       5684.5696      0.85348825
       5685.3496      0.71679494
       5686.1297      0.98770194
       5686.9098      0.70723922
       5687.6898      0.69180579
       5688.4699      0.74875629
       5689.2500      0.72802525
       5690.0301      0.90919784
       5690.8101      0.75441730
       5691.5902      0.73823623
       5692.3703      0.88647086
       5693.1504       1.1695852
       5693.9304      0.63140522
       5694.7105      0.74904441
       5695.4906      0.31412296
       5696.2706      0.24456533
       5697.0507       1.0232677
       5697.8308      0.37935676
       5698.6109      0.28878102
       5699.3909       1.0530174
       5700.1710      0.60264898
       5700.9511     0.037374032
       5701.7312      0.71996092
       5702.5112      0.36798603
       5703.2913      0.77273468
       5704.0714      0.55036968
       5704.8514      0.86697267
       5705.6315       1.3162762
       5706.4116       1.2289293
       5707.1917      0.80767931
       5707.9717      0.79832487
       5708.7518      0.60101904
       5709.5319      0.66131655
       5710.3120      0.47554797
       5711.0920      0.72536741
       5711.8721      0.70917081
       5712.6522      0.79778962
       5713.4322      0.68474636
       5714.2123      0.34095170
       5714.9924      0.34968228
       5715.7725      0.75522597
       5716.5525      0.41422570
       5717.3326      0.70117904
       5718.1127      0.94822414
       5718.8928      0.60344965
       5719.6728      0.78298247
       5720.4529      0.90053891
       5721.2330      0.90993816
       5722.0130      0.78513620
       5722.7931      0.79833467
       5723.5732      0.78517179
       5724.3533      0.51870158
       5725.1333      0.60722567
       5725.9134      0.76524287
       5726.6935      0.81745453
       5727.4736      0.83566583
       5728.2536      0.61521455
       5729.0337      0.82645991
       5729.8138      0.99524204
       5730.5938      0.84170779
       5731.3739      0.85672525
       5732.1540      0.66565244
       5732.9341      0.72502783
       5733.7141      0.80354719
       5734.4942      0.91380405
       5735.2743      0.72105541
       5736.0544       1.1632241
       5736.8344       1.5629820
       5737.6145       1.0617805
       5738.3946      0.83388649
       5739.1746      0.18756786
       5739.9547    -0.037733109
       5740.7348      0.58429932
       5741.5149      0.37066295
       5742.2949      0.44365424
       5743.0750      0.73814593
       5743.8551      0.77357447
       5744.6352      0.85440780
       5745.4152      0.78319584
       5746.1953      0.80154833
       5746.9754      0.56134798
       5747.7554      0.78521530
       5748.5355      0.79514300
       5749.3156      0.73005554
       5750.0957      0.81550382
       5750.8757      0.82624222
       5751.6558      0.91766898
       5752.4359      0.86226032
       5753.2160      0.88351048
       5753.9960      0.92633822
       5754.7761      0.64147092
       5755.5562      0.58625242
       5756.3362       1.0084532
       5757.1163       1.0145957
       5757.8964      0.83304679
       5758.6765      0.78570100
       5759.4565      0.87119920
       5760.2366      0.82028527
       5761.0167      0.79439318
       5761.7968      0.75377333
       5762.5768      0.58047643
       5763.3569       1.0592838
       5764.1370      0.86896253
       5764.9170      0.94156090
       5765.6971      0.49625719
       5766.4772      0.73361975
       5767.2573      0.76214219
       5768.0373      0.75628235
       5768.8174      0.79985740
       5769.5975      0.66357211
       5770.3776      0.72850521
       5771.1576      0.79401814
       5771.9377      0.85892629
       5772.7178      0.73931693
       5773.4978      0.82210494
       5774.2779       1.0035308
       5775.0580      0.73605427
       5775.8381       1.0864988
       5776.6181      0.73443369
       5777.3982       1.0356769
       5778.1783      0.92428830
       5778.9584     -0.47510370
       5779.7384      0.27170295
       5780.5185      0.51281869
       5781.2986      0.83669775
       5782.0786      0.82114555
       5782.8587      0.92014433
       5783.6388      0.98574262
       5784.4189      0.84481458
       5785.1989       1.1267984
       5785.9790       1.1659997
       5786.7591       1.3628481
       5787.5392      0.40061610
       5788.3192      0.44604501
       5789.0993      0.26164235
       5789.8794      0.96578396
       5790.6594      0.28740860
       5791.4395      0.64601747
       5792.2196      0.94594118
       5792.9997      0.77411651
       5793.7797       1.0458710
       5794.5598      0.88596471
       5795.3399      0.75419074
       5796.1200       1.0798536
       5796.9000       1.4925659
       5797.6801       1.2296511
       5798.4602      0.81732771
       5799.2402      0.88542826
       5800.0203       1.1953968
       5800.8004      0.78379954
       5801.5805      0.28254327
       5802.3605      0.51525352
       5803.1406      0.79188922
       5803.9207      0.83563998
       5804.7008      0.87983026
       5805.4808       1.0260943
       5806.2609      0.87482635
       5807.0410      0.83957918
       5807.8210      0.79264728
       5808.6011      0.87582831
       5809.3812      0.95474899
       5810.1613      0.76223302
       5810.9413      0.90177788
       5811.7214      0.89086569
       5812.5015      0.83126109
       5813.2816      0.83407049
       5814.0616      0.47396033
       5814.8417      0.63825405
       5815.6218      0.41571678
       5816.4019       1.1008134
       5817.1819      0.53003435
       5817.9620      0.79340251
       5818.7421      0.92894889
       5819.5221      0.81887548
       5820.3022      0.84188313
       5821.0823       1.0073054
       5821.8624       1.5682087
       5822.6424       1.2482692
       5823.4225      0.63917312
       5824.2026       1.1152120
       5824.9827     0.017267693
       5825.7627      0.77455140
       5826.5428      0.60093639
       5827.3229      0.73314108
       5828.1029      0.74239774
       5828.8830      0.87915700
       5829.6631      0.79272951
       5830.4432      0.75173822
       5831.2232      0.56455255
       5832.0033      0.70408649
       5832.7834      0.63925689
       5833.5635      0.83971475
       5834.3435      0.95772754
       5835.1236      0.90736387
       5835.9037      0.96108049
       5836.6837      0.78103124
       5837.4638      0.92330917
       5838.2439      0.78751662
       5839.0240      0.77649379
       5839.8040      0.99618763
       5840.5841      0.59885897
       5841.3642      0.97792203
       5842.1443      0.94084675
       5842.9243      0.56677351
       5843.7044      0.86183610
       5844.4845      0.46267831
       5845.2645      0.66601557
       5846.0446      0.90193138
       5846.8247      0.62935008
       5847.6048      0.85646802
       5848.3848      0.98250462
       5849.1649       1.1272308
       5849.9450       1.0342851
       5850.7251       1.0616938
       5851.5051      0.94920688
       5852.2852      0.89835856
       5853.0653      0.85952934
       5853.8453       1.4261805
       5854.6254      0.90248589
       5855.4055      0.45104382
       5856.1856      0.82467811
       5856.9656      0.82007951
       5857.7457      0.74370442
       5858.5258      0.89087873
       5859.3059      0.76367331
       5860.0859      0.72074051
       5860.8660      0.84561878
       5861.6461      0.85142063
       5862.4261      0.78615177
       5863.2062      0.95418620
       5863.9863      0.84727744
       5864.7664      0.74469904
       5865.5464      0.85341899
       5866.3265      0.84955721
       5867.1066      0.99064765
       5867.8867      0.79587354
       5868.6667      0.91138391
       5869.4468      0.77768108
       5870.2269      0.67344154
       5871.0069      0.81813374
       5871.7870      0.85473164
       5872.5671      0.76430485
       5873.3472      0.91105537
       5874.1272      0.99339871
       5874.9073      0.65863143
       5875.6874      0.78630216
       5876.4675      0.76829389
       5877.2475      0.69042560
       5878.0276      0.48780374
       5878.8077      0.84585827
       5879.5877      0.83651452
       5880.3678      0.94531452
       5881.1479      0.99729664
       5881.9280      0.99511126
       5882.7080      0.85354869
       5883.4881      0.63542475
       5884.2682      0.71986644
       5885.0483      0.73802439
       5885.8283      0.64457505
       5886.6084      0.41934455
       5887.3885      0.77433718
       5888.1685      0.84951355
       5888.9486      0.80756438
       5889.7287      0.84129550
       5890.5088      0.85483099
       5891.2888      0.70863290
       5892.0689      0.92875964
       5892.8490      0.81201377
       5893.6291      0.85257267
       5894.4091      0.88852542
       5895.1892      0.93769833
       5895.9693      0.66231603
       5896.7493      0.80732884
       5897.5294      0.83147838
       5898.3095      0.90038072
       5899.0896      0.81150715
       5899.8696      0.81620849
       5900.6497      0.82665526
       5901.4298      0.84225083
       5902.2099      0.96668063
       5902.9899      0.68638000
       5903.7700      0.64210228
       5904.5501      0.84452759
       5905.3301      0.91948469
       5906.1102      0.76777055
       5906.8903      0.75082046
       5907.6704      0.88156902
       5908.4504      0.83064013
       5909.2305      0.96221783
       5910.0106      0.82316220
       5910.7907      0.87625385
       5911.5707      0.71747145
       5912.3508      0.55009641
       5913.1309      0.95313195
       5913.9109      0.89649722
       5914.6910      0.68865917
       5915.4711      0.79548859
       5916.2512       1.0884619
       5917.0312      0.86514388
       5917.8113      0.79014060
       5918.5914       1.1456482
       5919.3715      0.95381931
       5920.1515       1.1212430
       5920.9316       1.3091534
       5921.7117       1.2437656
       5922.4917       1.2735384
       5923.2718       1.1006535
       5924.0519       1.1181195
       5924.8320      0.95945096
       5925.6120       1.0206051
       5926.3921      0.79890529
       5927.1722      0.71753633
       5927.9523      0.88743853
       5928.7323      0.85851084
       5929.5124      0.78921829
       5930.2925      0.92877382
       5931.0725      0.84709491
       5931.8526      0.73645241
       5932.6327      0.80949466
       5933.4128      0.97898513
       5934.1928      0.83795856
       5934.9729      0.78133809
       5935.7530      0.72435321
       5936.5331      0.72733670
       5937.3131      0.72922285
       5938.0932      0.70567820
       5938.8733      0.92214661
       5939.6533      0.88046649
       5940.4334      0.68496332
       5941.2135      0.75811775
       5941.9936      0.79719387
       5942.7736      0.79896620
       5943.5537      0.86179651
       5944.3338      0.91793287
       5945.1139      0.95672536
       5945.8939      0.78781668
       5946.6740      0.71863705
       5947.4541      0.84453406
       5948.2341      0.63517408
       5949.0142      0.63798700
       5949.7943      0.89049359
       5950.5744      0.74945364
       5951.3544      0.70903108
       5952.1345      0.85186624
       5952.9146      0.73097795
       5953.6947      0.87711593
       5954.4747      0.89842536
       5955.2548      0.76780829
       5956.0349       1.0662177
       5956.8149      0.99354971
       5957.5950      0.73977624
       5958.3751      0.97801446
       5959.1552      0.83888881
       5959.9352      0.85154431
       5960.7153      0.96566963
       5961.4954       1.1068977
       5962.2755      0.90139447
       5963.0555      0.74433608
       5963.8356      0.91309456
       5964.6157      0.75790651
       5965.3957      0.88326695
       5966.1758      0.78545995
       5966.9559      0.90850352
       5967.7360      0.88133873
       5968.5160      0.81435058
       5969.2961       1.0897717
       5970.0762      0.82041496
       5970.8563       1.1089407
       5971.6363      0.89003549
       5972.4164      0.77451568
       5973.1965      0.99556819
       5973.9765      0.95900062
       5974.7566       1.0732810
       5975.5367      0.96342598
       5976.3168      0.86666747
       5977.0968      0.84295892
       5977.8769      0.91108032
       5978.6570      0.74961052
       5979.4371       1.0713244
       5980.2171       1.0522169
       5980.9972      0.97892612
       5981.7773      0.97716882
       5982.5573       1.0271025
       5983.3374      0.91265419
       5984.1175       1.0441335
       5984.8976      0.99838090
       5985.6776      0.79014426
       5986.4577      0.80264749
       5987.2378      0.95944423
       5988.0179       1.0014516
       5988.7979       1.0001907
       5989.5780      0.90213265
       5990.3581      0.96038438
       5991.1381      0.81104216
       5991.9182      0.81865564
       5992.6983      0.86391969
       5993.4784      0.93950845
       5994.2584      0.86450840
       5995.0385       1.0965007
       5995.8186      0.88883402
       5996.5987      0.80610680
       5997.3787       1.1951267
       5998.1588      0.92442021
       5998.9389       1.0386605
       5999.7189      0.97789402
       6000.4990      0.96666706
       6001.2791       1.0111612
       6002.0592       1.0238065
       6002.8392       1.0103543
       6003.6193      0.83087707
       6004.3994       1.0217117
       6005.1795       1.0154561
       6005.9595       1.0179185
       6006.7396       1.0009812
       6007.5197      0.97380497
       6008.2997      0.88585668
       6009.0798       1.0063834
       6009.8599      0.90076429
       6010.6400      0.83930558
       6011.4200      0.95018020
       6012.2001      0.85164930
       6012.9802      0.79274643
       6013.7603      0.90285582
       6014.5403      0.75464072
       6015.3204      0.96622500
       6016.1005      0.84504760
       6016.8805      0.84917693
       6017.6606      0.96878166
       6018.4407      0.95960934
       6019.2208      0.76069482
       6020.0008      0.84126840
       6020.7809      0.79912911
       6021.5610      0.79317246
       6022.3411      0.90211474
       6023.1211      0.91153391
       6023.9012      0.86880437
       6024.6813      0.73476608
       6025.4613      0.91956214
       6026.2414      0.91006211
       6027.0215      0.81302413
       6027.8016      0.90713333
       6028.5816      0.81908984
       6029.3617       1.0708933
       6030.1418      0.79230772
       6030.9219      0.93938778
       6031.7019      0.91934165
       6032.4820      0.99109108
       6033.2621      0.72276807
       6034.0421       1.1031024
       6034.8222       1.0086608
       6035.6023      0.83189124
       6036.3824      0.93532372
       6037.1624      0.72429380
       6037.9425      0.81149975
       6038.7226      0.86053802
       6039.5027       1.0363023
       6040.2827      0.92317723
       6041.0628      0.89466847
       6041.8429      0.99643828
       6042.6229      0.98702792
       6043.4030      0.85047077
       6044.1831      0.99178430
       6044.9632      0.91635168
       6045.7432       1.0056081
       6046.5233      0.96471109
       6047.3034      0.84464452
       6048.0835       1.1556618
       6048.8635      0.97895127
       6049.6436      0.44759628
       6050.4237      0.37895416
       6051.2037      0.70420678
       6051.9838      0.61737443
       6052.7639      0.33169904
       6053.5440     -0.57027774
       6054.3240      -1.3883179
       6055.1041      0.58606114
       6055.8842    -0.039437034
       6056.6643     -0.48674128
       6057.4443     -0.94531166
       6058.2244      0.84205196
       6059.0045       1.4065107
       6059.7845      0.36498209
       6060.5646      0.47330973
       6061.3447      0.40266456
       6062.1248     -0.42623479
       6062.9048      0.54113159
       6063.6849      0.55615090
       6064.4650      0.38914419
       6065.2451      0.68859935
       6066.0251      0.84625546
       6066.8052      0.42434639
       6067.5853      0.46668284
       6068.3654      0.61149802
       6069.1454      0.27197142
       6069.9255      0.44732145
       6070.7056      0.38348077
       6071.4856      0.37264313
       6072.2657      0.69523825
       6073.0458      0.29780854
       6073.8259      0.55752315
       6074.6059      0.65260811
       6075.3860      0.80580521
       6076.1661      0.79378844
       6076.9462      0.53345657
       6077.7262      0.68173622
       6078.5063      0.73143907
       6079.2864      0.92175461
       6080.0664      0.72018752
       6080.8465      0.53464724
       6081.6266      0.57492187
       6082.4067      0.68704701
       6083.1867      0.77024931
       6083.9668      0.81279281
       6084.7469      0.76412850
       6085.5270      0.89389026
       6086.3070      0.59943946
       6087.0871      0.97716101
       6087.8672      0.69537771
       6088.6472      0.82238639
       6089.4273      0.79155358
       6090.2074      0.66892229
       6090.9875      0.49708916
       6091.7675      0.76588330
       6092.5476       1.1642607
       6093.3277       2.0200468
       6094.1078     -0.11892774
       6094.8878     -0.27402514
       6095.6679     -0.17423411
       6096.4480      -1.7828010
       6097.2280     -0.17345624
       6098.0081     -0.58626336
       6098.7882      0.56142250
       6099.5683       1.2299969
       6100.3483      0.90400905
       6101.1284      0.44341527
       6101.9085      0.64741710
       6102.6886      0.56145973
       6103.4686      0.59704524
       6104.2487       1.1648739
       6105.0288      0.85854054
       6105.8088       1.1945603
       6106.5889       1.0021806
       6107.3690      0.92988890
       6108.1491      0.90197578
       6108.9291      0.73123456
       6109.7092       1.1173425
       6110.4893       1.0025762
       6111.2694      0.85478990
       6112.0494     0.051099096
       6112.8295       1.2247814
       6113.6096      0.85127606
       6114.3896      0.87472682
       6115.1697      0.68797989
       6115.9498       1.0350675
       6116.7299       1.0438277
       6117.5099       1.1191834
       6118.2900       1.2311380
       6119.0701       1.1515902
       6119.8502       1.1356589
       6120.6302      0.82586088
       6121.4103      0.54973784
       6122.1904     -0.11532978
       6122.9704     -0.94092592
       6123.7505      0.12043246
       6124.5306      0.58220764
       6125.3107      0.33172322
       6126.0907      0.12849124
       6126.8708      0.69036728
       6127.6509       1.0379414
       6128.4310      0.75532011
       6129.2110      0.65998020
       6129.9911      0.85311975
       6130.7712      0.71657046
       6131.5512      0.83859064
       6132.3313      0.80034446
       6133.1114      0.96630706
       6133.8915       1.1174518
       6134.6715       1.9815927
       6135.4516      0.49492926
       6136.2317      0.12147105
       6137.0118     -0.52171079
       6137.7918     -0.49469254
       6138.5719     -0.76069547
       6139.3520     -0.71685295
       6140.1320     0.031117232
       6140.9121      0.97726704
       6141.6922      0.66473280
       6142.4723      0.93801418
       6143.2523      0.60219503
       6144.0324       1.0055564
       6144.8125       1.1146246
       6145.5926      0.79530154
       6146.3726      0.94775926
       6147.1527       1.1057053
       6147.9328      0.78910713
       6148.7128     -0.98580520
       6149.4929     -0.42017421
       6150.2730     -0.61761679
       6151.0531      0.17464108
       6151.8331     0.017953870
       6152.6132      0.79944128
       6153.3933      0.96535360
       6154.1734      0.43452620
       6154.9534      0.83312483
       6155.7335      0.90250126
       6156.5136       1.0320937
       6157.2936      0.81658958
       6158.0737      0.77422437
       6158.8538       2.1113924
       6159.6339      0.48318949
       6160.4139     -0.88858783
       6161.1940      -1.3280719
       6161.9741     -0.50882136
       6162.7542     -0.45077995
       6163.5342      -1.2679230
       6164.3143  -0.00064197889
       6165.0944      0.97963198
       6165.8744      0.99450588
       6166.6545       1.0163330
       6167.4346       1.0540158
       6168.2147      0.81813997
       6168.9947      0.94242702
       6169.7748      0.77163912
       6170.5549      0.67071976
       6171.3350      0.87405332
       6172.1150      0.71344410
       6172.8951      0.78604955
       6173.6752      0.88163127
       6174.4552      0.71973141
       6175.2353      0.77315246
       6176.0154      0.87567280
       6176.7955    -0.092701465
       6177.5755      0.51466592
       6178.3556    -0.044550602
       6179.1357      0.53592779
       6179.9158     -0.28827155
       6180.6958      0.56542804
       6181.4759      0.67785057
       6182.2560      0.78700575
       6183.0360       1.0476992
       6183.8161       1.0215825
       6184.5962      0.90775049
       6185.3763      0.95410477
       6186.1563       1.2665846
       6186.9364       1.2458349
       6187.7165     0.010557505
       6188.4966     0.038491754
       6189.2766      0.49911026
       6190.0567      0.14503792
       6190.8368      0.23544114
       6191.6168     -0.57471213
       6192.3969      0.85971604
       6193.1770       1.1307015
       6193.9571      0.76581836
       6194.7371      0.87315321
       6195.5172      0.99110801
       6196.2973       1.1928752
       6197.0774      0.84031198
       6197.8574      0.67371527
       6198.6375      0.93508810
       6199.4176       1.0056968
       6200.1976       1.0081892
       6200.9777      0.92265932
       6201.7578      0.73903357
       6202.5379       1.0089581
       6203.3179      0.78633131
       6204.0980      0.77319718
       6204.8781      0.70825778
       6205.6582      0.73412533
       6206.4382      0.84564801
       6207.2183       1.0212863
       6207.9984       2.0979987
       6208.7784       3.0924164
       6209.5585      0.63830271
       6210.3386     -0.79751420
       6211.1187      0.22425585
       6211.8987      0.47902284
       6212.6788      0.46895281
       6213.4589      0.46724054
       6214.2390      0.91859356
       6215.0190      0.76414754
       6215.7991      0.66695505
       6216.5792      0.94535319
       6217.3592       1.2972215
       6218.1393       1.1152037
       6218.9194      0.94551771
       6219.6995     0.036982119
       6220.4795      0.20279020
       6221.2596     -0.71070940
       6222.0397     -0.44728886
       6222.8198     -0.53791544
       6223.5998      0.79942420
       6224.3799      0.75821477
       6225.1600       1.0473170
       6225.9400      0.88724497
       6226.7201      0.84811571
       6227.5002       1.0135218
       6228.2803      0.95651886
       6229.0603       1.0031329
       6229.8404       1.0303282
       6230.6205      0.99925237
       6231.4006       1.0466811
       6232.1806       1.0387013
       6232.9607       1.0117638
       6233.7408      0.82674469
       6234.5208      0.54810469
       6235.3009      0.80781960
       6236.0810      0.83020318
       6236.8611      0.95877004
       6237.6411      0.92840202
       6238.4212      0.69693522
       6239.2013      0.98833313
       6239.9814      0.89458085
       6240.7614      0.90421223
       6241.5415       1.0277280
       6242.3216       1.0642455
       6243.1016      0.81145802
       6243.8817       1.1249474
       6244.6618      0.83497702
       6245.4419      0.48482214
       6246.2219      0.53910742
       6247.0020      0.71740387
       6247.7821      0.26955312
       6248.5622      0.70866481
       6249.3422      0.45350137
       6250.1223       1.0985178
       6250.9024      0.87510595
       6251.6824      0.77724996
       6252.4625       1.0791972
       6253.2426      0.93422152
       6254.0227       1.1320714
       6254.8027      0.51571904
       6255.5828      0.22693037
       6256.3629      0.84466437
       6257.1430      0.57080374
       6257.9230      0.97293371
       6258.7031      0.61388566
       6259.4832       1.0861731
       6260.2632       1.0529688
       6261.0433      0.91547744
       6261.8234       1.0896625
       6262.6035       1.4444211
       6263.3835       1.1616625
       6264.1636      0.95344946
       6264.9437       1.0346494
       6265.7238       1.0611304
       6266.5038      0.88323849
       6267.2839      0.76981115
       6268.0640      0.84481682
       6268.8440      0.92673527
       6269.6241      0.83609248
       6270.4042      0.74968380
       6271.1843      0.78777226
       6271.9643      0.96163521
       6272.7444      0.99780173
       6273.5245       1.0329494
       6274.3046      0.98089873
       6275.0846      0.78791555
       6275.8647      0.88740320
       6276.6448      0.69008082
       6277.4248      0.71016532
       6278.2049      0.55505238
       6278.9850      0.78269534
       6279.7651      0.69969717
       6280.5451      0.67173150
       6281.3252      0.74974123
       6282.1053      0.59048175
       6282.8854       1.0409874
       6283.6654       1.0003574
       6284.4455      0.87033628
       6285.2256      0.88371240
       6286.0056      0.19069373
       6286.7857      0.60651612
       6287.5658      0.89657612
       6288.3459      0.13105224
       6289.1259      0.41986533
       6289.9060      0.82657655
       6290.6861      0.83195726
       6291.4662      0.98606568
       6292.2462       2.0168448
       6293.0263      0.60921938
       6293.8064      0.31772089
       6294.5864      0.87558067
       6295.3665      0.80416233
       6296.1466     0.021441214
       6296.9267      0.39735265
       6297.7067      0.71831854
       6298.4868       1.1480231
       6299.2669      0.99996718
       6300.0470      0.88051061
       6300.8270      0.58345823
       6301.6071      0.88219382
       6302.3872       1.0015302
       6303.1672      0.93392244
       6303.9473      0.73406809
       6304.7274      0.67527369
       6305.5075      0.98749528
       6306.2875      0.60195485
       6307.0676      0.36295801
       6307.8477      0.27995504
       6308.6278      0.30476630
       6309.4078      0.92934649
       6310.1879      0.79403486
       6310.9680      0.89130846
       6311.7480       1.0299540
       6312.5281      0.75359136
       6313.3082      0.64257061
       6314.0883      0.98408150
       6314.8683      0.62791230
       6315.6484      0.35615278
       6316.4285      0.91216026
       6317.2086       1.1850619
       6317.9886      0.77426862
       6318.7687      0.78605921
       6319.5488       1.0437930
       6320.3289       1.0136348
       6321.1089      0.64273582
       6321.8890      0.81168070
       6322.6691      0.70521778
       6323.4491       1.1409901
       6324.2292       1.1597864
       6325.0093      0.60601499
       6325.7894      0.94074671
       6326.5694      0.94975244
       6327.3495      0.90921131
       6328.1296      0.93120881
       6328.9097      0.68458031
       6329.6897      0.27917853
       6330.4698      0.55332293
       6331.2499       1.2037476
       6332.0299      0.29943475
       6332.8100      0.82321708
       6333.5901      0.44171137
       6334.3702      0.57118645
       6335.1502      0.81897937
       6335.9303      0.90296794
       6336.7104      0.69881418
       6337.4905      0.91750561
       6338.2705       1.0501197
       6339.0506       1.1352962
       6339.8307       1.0234538
       6340.6107      0.80962951
       6341.3908      0.74829017
       6342.1709       1.0691027
       6342.9510       1.1977273
       6343.7310      0.98638809
       6344.5111      0.96601010
       6345.2912       1.0553479
       6346.0713       1.0797054
       6346.8513       1.2501998
       6347.6314       1.2976119
       6348.4115       1.6615543
       6349.1915       1.5732625
       6349.9716       1.7074375
       6350.7517       1.5989045
       6351.5318       1.4274185
       6352.3118       1.3881607
       6353.0919       1.2566800
       6353.8720       1.1059294
       6354.6521      0.99017430
       6355.4321      0.97347662
       6356.2122       1.0570961
       6356.9923       1.0991207
       6357.7723       1.1835175
       6358.5524      0.89932470
       6359.3325      0.90508001
       6360.1126      0.98459402
       6360.8926       1.0844780
       6361.6727      0.84001978
       6362.4528      0.98564924
       6363.2329      0.98679465
       6364.0129       1.2851587
       6364.7930      0.25519305
       6365.5731      0.80778780
       6366.3531      0.66446150
       6367.1332     -0.20521818
       6367.9133      0.44709678
       6368.6934      0.46773180
       6369.4734      0.87171486
       6370.2535      0.61328989
       6371.0336       1.1528017
       6371.8137      0.54492562
       6372.5937      0.58544184
       6373.3738      0.45062029
       6374.1539      0.73939190
       6374.9339       1.0743962
       6375.7140       1.0438365
       6376.4941       1.0840619
       6377.2742       1.0087441
       6378.0542      0.51698595
       6378.8343      0.96224292
       6379.6144       1.0899806
       6380.3945      0.93899860
       6381.1745       1.0226330
       6381.9546      0.54787505
       6382.7347      0.98506350
       6383.5147      0.55720700
       6384.2948      0.63015485
       6385.0749      0.75388373
       6385.8550       1.1022999
       6386.6350      0.79799607
       6387.4151      0.93925629
       6388.1952       1.0635870
       6388.9753       1.0551732
       6389.7553      0.83538967
       6390.5354      0.72181626
       6391.3155      0.75189426
       6392.0955       1.0514124
       6392.8756       1.0747753
       6393.6557       1.0660902
       6394.4358       1.0657538
       6395.2158       1.2748462
       6395.9959      0.99234055
       6396.7760      0.90103102
       6397.5561      0.74375400
       6398.3361      0.85427107
       6399.1162      0.72191387
       6399.8963      0.55060221
       6400.6763       1.0289350
       6401.4564      0.95535958
       6402.2365      0.57805708
       6403.0166     -0.31563581
       6403.7966      0.68555202
       6404.5767      0.71773625
       6405.3568      0.36722317
       6406.1369      0.88808345
       6406.9169       1.0219643
       6407.6970      0.75869904
       6408.4771      0.99678281
       6409.2571      0.94428082
       6410.0372      0.97288530
       6410.8173      0.91260801
       6411.5974       1.0900658
       6412.3774      0.95068819
       6413.1575      0.93745462
       6413.9376      0.89541203
       6414.7177       1.0755657
       6415.4977       1.3662453
       6416.2778       1.2054619
       6417.0579      0.66615427
       6417.8379      0.38437652
       6418.6180     -0.56892776
       6419.3981     -0.75070755
       6420.1782      -1.0730518
       6420.9582      0.31517724
       6421.7383      0.39035508
       6422.5184       1.1839704
       6423.2985      0.99489383
       6424.0785      0.83744288
       6424.8586      0.90762721
       6425.6387      0.63545740
       6426.4187      0.89402459
       6427.1988      0.69151670
       6427.9789      0.78873203
       6428.7590      0.55496430
       6429.5390       1.0291836
       6430.3191       1.2371547
       6431.0992       1.0877063
       6431.8793       1.1680446
       6432.6593      0.61112775
       6433.4394      0.57877128
       6434.2195      0.32496492
       6434.9995      0.76268055
       6435.7796      0.94364560
       6436.5597      0.94586894
       6437.3398      0.67302703
       6438.1198      0.88402245
       6438.8999      0.74318060
       6439.6800      0.33730672
       6440.4601       1.0230555
       6441.2401      0.67711239
       6442.0202      0.83235541
       6442.8003      0.88667621
       6443.5803      0.14233591
       6444.3604     -0.56473294
       6445.1405      -1.1485101
       6445.9206      0.56259831
       6446.7006       1.1432608
       6447.4807       1.0436652
       6448.2608      0.11641732
       6449.0409     -0.85822899
       6449.8209      0.33081322
       6450.6010      0.84752893
       6451.3811       1.0868708
       6452.1611      0.73449396
       6452.9412      0.78901067
       6453.7213       1.0377066
       6454.5014       1.0168537
       6455.2814      0.84078808
       6456.0615      0.91149606
       6456.8416      0.93222990
       6457.6217      0.97539426
       6458.4017      0.80137768
       6459.1818      0.82308385
       6459.9619      0.70233366
       6460.7419       1.0820125
       6461.5220       1.0883887
       6462.3021      0.39851188
       6463.0822      -1.6927820
       6463.8622      -2.7651591
       6464.6423     -0.31059109
       6465.4224      0.70062683
       6466.2025    -0.059728552
       6466.9825     -0.15529072
       6467.7626     -0.59411401
       6468.5427     -0.74785147
       6469.3227      -1.3308584
       6470.1028     -0.23653276
       6470.8829      0.96949769
       6471.6630       1.2706969
       6472.4430       1.1737247
       6473.2231       1.0927422
       6474.0032       1.2538564
       6474.7833       1.6152570
       6475.5633       1.0273619
       6476.3434      0.68161452
       6477.1235     -0.38542161
       6477.9035      0.73882159
       6478.6836      0.82124124
       6479.4637      0.28659984
       6480.2438      0.87271524
       6481.0238       1.0805018
       6481.8039      0.76250839
       6482.5840      0.53308773
       6483.3641     -0.19785132
       6484.1441     -0.87249104
       6484.9242     -0.96791146
       6485.7043     -0.74077133
       6486.4843      0.22164636
       6487.2644       1.3807033
       6488.0445       1.6749734
       6488.8246       1.7561188
       6489.6046       1.5570689
       6490.3847       1.2265786
       6491.1648       1.1720299
       6491.9449      0.85639123
       6492.7249      0.49439738
       6493.5050      0.59511482
       6494.2851      0.72007387
       6495.0651      0.75178742
       6495.8452      0.83126126
       6496.6253      0.86263940
       6497.4054      0.74289080
       6498.1854      0.87354403
       6498.9655      0.89334452
       6499.7456       1.0648173
       6500.5257      0.78998651
       6501.3057       1.0999843
       6502.0858       1.1866417
       6502.8659      0.45318945
       6503.6459      0.28587864
       6504.4260      0.74268126
       6505.2061      0.66133220
       6505.9862      0.84151493
       6506.7662      0.74840206
       6507.5463       1.2555383
       6508.3264       1.1238941
       6509.1065    -0.084377340
       6509.8865     -0.30493956
       6510.6666       1.2189095
       6511.4467      0.79662937
       6512.2267    -0.025188341
       6513.0068      -1.1368460
       6513.7869    -0.046465613
       6514.5670      0.55140218
       6515.3470      0.91299793
       6516.1271       1.0578084
       6516.9072       1.4277283
       6517.6873       1.2598056
       6518.4673      0.61533723
       6519.2474       1.0046163
       6520.0275      0.94288379
       6520.8075     -0.17104805
       6521.5876    -0.093828777
       6522.3677      0.44407782
       6523.1478      0.85166598
       6523.9278      0.87221979
       6524.7079      0.93190263
       6525.4880      0.30891930
       6526.2681      0.73563539
       6527.0481      0.78086138
       6527.8282      0.88759001
       6528.6083      0.92227593
       6529.3883      0.94165356
       6530.1684      0.66729169
       6530.9485      0.53845648
       6531.7286      0.70338589
       6532.5086      0.48556862
       6533.2887      0.86370282
       6534.0688      0.96588714
       6534.8489      0.90549882
       6535.6289      0.86172544
       6536.4090      0.88016150
       6537.1891      0.78312508
       6537.9691      0.56905053
       6538.7492      0.87503182
       6539.5293      0.69582877
       6540.3094      0.79018000
       6541.0894      0.56233737
       6541.8695     0.034020724
       6542.6496      0.65724755
       6543.4297      0.58695921
       6544.2097       1.0216439
       6544.9898     0.033136291
       6545.7699      0.36483081
       6546.5499    -0.015054586
       6547.3300      0.43208268
       6548.1101      0.32696411
       6548.8902     0.050617176
       6549.6702      0.30772438
       6550.4503      0.98627546
       6551.2304      0.47244585
       6552.0105      0.37443876
       6552.7905      0.47687857
       6553.5706      0.55102714
       6554.3507     -0.37560285
       6555.1307     -0.84839571
       6555.9108     -0.93215548
       6556.6909      -1.1954818
       6557.4710      -1.5255399
       6558.2510     -0.64777960
       6559.0311     -0.90111714
       6559.8112      0.72320882
       6560.5913      0.92176773
       6561.3713      0.71026435
       6562.1514      0.98674327
       6562.9315      0.62926195
       6563.7115      0.90778339
       6564.4916      0.78295073
       6565.2717      0.89834019
       6566.0518      0.76629646
       6566.8318      0.82234144
       6567.6119      0.93456903
       6568.3920      0.18493736
       6569.1721      0.10971846
       6569.9521      0.34629297
       6570.7322      0.55748426
       6571.5123     0.086036491
       6572.2924      0.37348418
       6573.0724      0.32243910
       6573.8525      0.70119912
       6574.6326      0.60411795
       6575.4126      0.71378787
       6576.1927      0.71104510
       6576.9728      0.60758905
       6577.7529      0.91036236
       6578.5329      0.88119170
       6579.3130      0.42200569
       6580.0931       1.1307263
       6580.8732      0.66457245
       6581.6532      0.97895352
       6582.4333      -1.2611959
       6583.2134      -1.5252696
       6583.9934      0.58512139
       6584.7735     -0.27297083
       6585.5536     -0.46089752
       6586.3337    -0.095398357
       6587.1137      0.76446908
       6587.8938      0.66204263
       6588.6739      0.75667191
       6589.4540      0.68007348
       6590.2340      0.45192535
       6591.0141      0.77872200
       6591.7942      0.59978655
       6592.5742      0.83525906
       6593.3543      0.98593455
       6594.1344      0.47320534
       6594.9145      0.65520257
       6595.6945       1.2794464
       6596.4746      0.90568870
       6597.2547       1.1033311
       6598.0348       1.4086012
       6598.8148       2.3698545
       6599.5949       2.0511767
       6600.3750       2.4366574
       6601.1550       2.2408444
       6601.9351       1.3077481
       6602.7152       1.0081866
       6603.4953       1.7191127
       6604.2753       1.0897211
       6605.0554      0.18826285
       6605.8355      0.46053365
       6606.6156      0.70788984
       6607.3956      0.81627121
       6608.1757      0.64384387
       6608.9558      0.50299806
       6609.7358       1.4049770
       6610.5159       1.7674796
       6611.2960       2.1150875
       6612.0761       3.5963243
       6612.8561       5.5979579
       6613.6362       8.2236605
       6614.4163       11.544888
       6615.1964       12.050291
       6615.9764       8.9900899
       6616.7565       7.5639336
       6617.5366       4.5225590
       6618.3166       4.1681900
       6619.0967       2.8184977
       6619.8768       2.1276898
       6620.6569      0.48842851
       6621.4369      0.80830941
       6622.2170      0.84881047
       6622.9971      0.42939323
       6623.7772      0.17385295
       6624.5572    0.0016208596
       6625.3373    -0.021672910
       6626.1174       1.1474490
       6626.8974      0.62219390
       6627.6775     -0.34446319
       6628.4576       1.5390153
       6629.2377      0.29569777
       6630.0177       1.3092165
       6630.7978       1.1994603
       6631.5779       1.3191849
       6632.3580       1.6421833
       6633.1380       2.3338226
       6633.9181       3.9634581
       6634.6982       3.8616979
       6635.4782       6.3004429
       6636.2583       7.1209792
       6637.0384       4.9149843
       6637.8185       2.9590890
       6638.5985     -0.28239665
       6639.3786      -1.3647286
       6640.1587     -0.62468519
       6640.9388     -0.12982584
       6641.7188      0.35500535
       6642.4989     -0.54141283
       6643.2790      0.58741759
       6644.0590    -0.043812732
       6644.8391      0.78207175
       6645.6192      0.86490724
       6646.3993      0.76149060
       6647.1793       1.1299811
       6647.9594       1.5636147
       6648.7395      0.40009526
       6649.5196     -0.26138452
       6650.2996      0.44945921
       6651.0797      -1.1716216
       6651.8598     -0.39382415
       6652.6398   -0.0013091078
       6653.4199      0.38762688
       6654.2000      0.80109227
       6654.9801     -0.14362734
       6655.7601     0.052815279
       6656.5402      0.34677409
       6657.3203      0.92985333
       6658.1004      0.77327398
       6658.8804      0.83677448
       6659.6605      0.85499867
       6660.4406      0.72515981
       6661.2206      0.55358636
       6662.0007      0.57932979
       6662.7808      0.51245638
       6663.5609      0.72711301
       6664.3409      0.82178297
       6665.1210      0.46668243
       6665.9011      0.80562946
       6666.6812      0.55937377
       6667.4612      0.55178963
       6668.2413      0.59700502
       6669.0214       1.0527941
       6669.8014      0.43988369
       6670.5815      0.32693539
       6671.3616      0.10660864
       6672.1417      0.38946938
       6672.9217    -0.080232284
       6673.7018    0.0054963666
       6674.4819      0.70819620
       6675.2620       1.0220470
       6676.0420    0.0070071501
       6676.8221      0.13843633
       6677.6022     0.067354278
       6678.3822     0.024287617
       6679.1623      0.19733962
       6679.9424      0.34881552
       6680.7225      0.20375281
       6681.5025      0.23685569
       6682.2826     -0.18115060
       6683.0627      0.38868297
       6683.8428      0.69714523
       6684.6228     -0.21079201
       6685.4029      0.59975117
       6686.1830       1.4913391
       6686.9630      0.90856941
       6687.7431       2.7384305
       6688.5232       1.7318324
       6689.3033       2.0420116
       6690.0833       6.3439751
       6690.8634       3.2409470
       6691.6435       1.9390565
       6692.4236       5.1606823
       6693.2036       3.4483678
       6693.9837       2.5562067
       6694.7638       1.3032560
       6695.5438     -0.89957119
       6696.3239      -1.3766225
       6697.1040     -0.47080274
       6697.8841      0.30713857
       6698.6641      0.86148500
       6699.4442      0.86480817
       6700.2243      0.59602065
       6701.0044      0.55567989
       6701.7844       1.0291915
       6702.5645      0.74314437
       6703.3446     -0.47431325
       6704.1246      -1.0397034
       6704.9047      0.15685195
       6705.6848      0.45912818
       6706.4649      0.29078318
       6707.2449      0.23310744
       6708.0250       1.2131866
       6708.8051      0.81643383
       6709.5852       1.0240556
       6710.3652      0.57107766
       6711.1453      0.85994331
       6711.9254     -0.24008329
       6712.7054       1.2776707
       6713.4855      0.94366789
       6714.2656      0.26198763
       6715.0457      0.79127962
       6715.8257       1.6374377
       6716.6058      0.89175686
       6717.3859      0.55157974
       6718.1660      0.54215606
       6718.9460       1.1995903
       6719.7261    -0.080273656
       6720.5062      0.91641436
       6721.2862      0.71738238
       6722.0663       1.0236134
       6722.8464       1.3695869
       6723.6265       1.4978058
       6724.4065      0.84619080
       6725.1866     -0.33344076
