# wavelength flux
       1755.4374     0.098570569
       1756.0345      0.15887583
       1756.6316      0.12404763
       1757.2288     0.095085116
       1757.8259      0.11652743
       1758.4231      0.11623084
       1759.0202     0.081377228
       1759.6173      0.14814236
       1760.2145     0.083098174
       1760.8116     0.096844556
       1761.4088     0.098926169
       1762.0059      0.16385514
       1762.6030      0.16552164
       1763.2002      0.12619600
       1763.7973      0.11738348
       1764.3944      0.10446497
       1764.9916      0.13227970
       1765.5887      0.12801032
       1766.1859      0.16732381
       1766.7830      0.12108083
       1767.3801      0.11118166
       1767.9773      0.17368037
       1768.5744      0.16509134
       1769.1715      0.17621263
       1769.7687      0.12799834
       1770.3658      0.11062957
       1770.9630      0.13043175
       1771.5601      0.14084402
       1772.1572      0.19386772
       1772.7544      0.13163481
       1773.3515      0.12868050
       1773.9487     0.059710174
       1774.5458      0.11968309
       1775.1429      0.13421205
       1775.7401      0.12207916
       1776.3372      0.11232179
       1776.9343     0.069218342
       1777.5315     0.098717130
       1778.1286     0.098433932
       1778.7258     0.070367324
       1779.3229      0.11215170
       1779.9200      0.11112322
       1780.5172      0.16554923
       1781.1143     0.099933344
       1781.7114      0.15147035
       1782.3086      0.19706772
       1782.9057      0.15992618
       1783.5029      0.17520645
       1784.1000      0.16085322
       1784.6971      0.17927284
       1785.2943      0.15647040
       1785.8914      0.15827727
       1786.4886      0.13196908
       1787.0857     0.093572482
       1787.6828      0.13264217
       1788.2800      0.15057205
       1788.8771      0.12523854
       1789.4742      0.10678505
       1790.0714      0.17386562
       1790.6685      0.14625586
       1791.2657      0.12672922
       1791.8628      0.13703319
       1792.4599      0.13815342
       1793.0571      0.15012926
       1793.6542      0.16594293
       1794.2513      0.10557046
       1794.8485      0.16422151
       1795.4456      0.11402724
       1796.0428      0.13612530
       1796.6399      0.15246101
       1797.2370      0.12809267
       1797.8342      0.11905879
       1798.4313      0.16789342
       1799.0285      0.14191451
       1799.6256      0.10749378
       1800.2227      0.17316219
       1800.8199      0.18836404
       1801.4170     0.080854154
       1802.0141      0.15397142
       1802.6113      0.17271196
       1803.2084      0.17311769
       1803.8056      0.17666443
       1804.4027      0.15854293
       1804.9998      0.18816862
       1805.5970      0.19673695
       1806.1941      0.14052075
       1806.7912      0.17917475
       1807.3884      0.19187825
       1807.9855      0.16439646
       1808.5827      0.13671148
       1809.1798      0.17288307
       1809.7769      0.15186180
       1810.3741      0.16702045
       1810.9712      0.19143532
       1811.5684      0.17460659
       1812.1655      0.19865055
       1812.7626      0.21753394
       1813.3598      0.15908259
       1813.9569      0.20009109
       1814.5540      0.15399128
       1815.1512      0.19142943
       1815.7483      0.21647215
       1816.3455      0.18931479
       1816.9426      0.14127998
       1817.5397      0.16563010
       1818.1369      0.15315607
       1818.7340      0.17623749
       1819.3311      0.17166452
       1819.9283      0.18227322
       1820.5254      0.18303288
       1821.1226      0.13847462
       1821.7197      0.14660317
       1822.3168      0.15321962
       1822.9140      0.13824106
       1823.5111      0.12813986
       1824.1083      0.12864664
       1824.7054      0.18445403
       1825.3025      0.11024621
       1825.8997      0.14507489
       1826.4968      0.13498391
       1827.0939      0.13923713
       1827.6911      0.14815301
       1828.2882      0.18721280
       1828.8854      0.10451595
       1829.4825      0.13118646
       1830.0796      0.17467281
       1830.6768      0.13331202
       1831.2739      0.12325791
       1831.8711      0.12642013
       1832.4682      0.14586662
       1833.0653      0.16382490
       1833.6625      0.18933106
       1834.2596      0.15437348
       1834.8567      0.17388459
       1835.4539      0.15780208
       1836.0510      0.17157800
       1836.6482      0.13511786
       1837.2453      0.15628088
       1837.8424      0.12746018
       1838.4396      0.14751902
       1839.0367      0.15707356
       1839.6338      0.13212512
       1840.2310      0.14904594
       1840.8281      0.15736296
       1841.4253      0.13171901
       1842.0224      0.15874884
       1842.6195      0.13344077
       1843.2167      0.17016030
       1843.8138      0.15228925
       1844.4110      0.12369558
       1845.0081      0.14431273
       1845.6052      0.17694538
       1846.2024      0.14510707
       1846.7995      0.16765347
       1847.3966      0.15735891
       1847.9938      0.16207393
       1848.5909      0.14515388
       1849.1881      0.15282076
       1849.7852      0.16454053
       1850.3823      0.13597231
       1850.9795      0.12809902
       1851.5766      0.14528712
       1852.1737      0.14449802
       1852.7709      0.14139055
       1853.3680      0.15501298
       1853.9652      0.13360977
       1854.5623      0.10791957
       1855.1594      0.12005133
       1855.7566      0.12295097
       1856.3537      0.13131252
       1856.9509     0.079323571
       1857.5480      0.12979545
       1858.1451      0.14268279
       1858.7423      0.10762057
       1859.3394      0.14231856
       1859.9365      0.13956855
       1860.5337      0.11224225
       1861.1308      0.14316850
       1861.7280      0.13100698
       1862.3251      0.17306491
       1862.9222      0.13709338
       1863.5194      0.14179330
       1864.1165      0.14400742
       1864.7136      0.15996658
       1865.3108      0.17791620
       1865.9079      0.13337618
       1866.5051      0.16847827
       1867.1022      0.16131098
       1867.6993      0.14780882
       1868.2965      0.15825740
       1868.8936      0.16647138
       1869.4908      0.18611343
       1870.0879      0.15850323
       1870.6850      0.18834778
       1871.2822      0.12177817
       1871.8793     0.095416589
       1872.4764      0.13107341
       1873.0736      0.17369810
       1873.6707      0.17569610
       1874.2679      0.18521286
       1874.8650      0.21268799
       1875.4621      0.18051037
       1876.0593      0.20000576
       1876.6564      0.16478902
       1877.2535      0.18371519
       1877.8507      0.16515635
       1878.4478      0.21364515
       1879.0450      0.16916754
       1879.6421      0.17407809
       1880.2392      0.10419238
       1880.8364      0.17729464
       1881.4335      0.18540170
       1882.0307      0.16436451
       1882.6278      0.10377796
       1883.2249      0.11388078
       1883.8221      0.12411071
       1884.4192      0.13005362
       1885.0163      0.17463238
       1885.6135      0.16220312
       1886.2106      0.13640639
       1886.8078      0.13545426
       1887.4049      0.13409464
       1888.0020      0.14022406
       1888.5992      0.13679928
       1889.1963      0.18856809
       1889.7934      0.10021088
       1890.3906      0.13720267
       1890.9877      0.11553492
       1891.5849      0.10925209
       1892.1820      0.15896874
       1892.7791      0.12424823
       1893.3763      0.14766528
       1893.9734      0.17073804
       1894.5706      0.12750853
       1895.1677     0.094834038
       1895.7648      0.13806893
       1896.3620      0.14187827
       1896.9591      0.12331681
       1897.5562      0.10556519
       1898.1534      0.11032483
       1898.7505      0.10191397
       1899.3477      0.11003442
       1899.9448      0.10831631
       1900.5419      0.12599409
       1901.1391     0.096395097
       1901.7362      0.10303422
       1902.3333      0.13034156
       1902.9305      0.15397928
       1903.5276      0.14729542
       1904.1248      0.13990484
       1904.7219      0.14344268
       1905.3190      0.13983950
       1905.9162      0.14419376
       1906.5133      0.10004342
       1907.1105      0.11140732
       1907.7076      0.15708732
       1908.3047      0.18398820
       1908.9019      0.17222469
       1909.4990      0.12324000
       1910.0961      0.14093267
       1910.6933      0.13396231
       1911.2904      0.17056481
       1911.8876      0.15239073
       1912.4847      0.16701367
       1913.0818      0.16587088
       1913.6790      0.12675618
       1914.2761      0.14159608
       1914.8732      0.14985597
       1915.4704      0.14835798
       1916.0675      0.15633176
       1916.6647      0.13993987
       1917.2618      0.11223964
       1917.8589     0.087979501
       1918.4561      0.13711771
       1919.0532      0.13093551
       1919.6504      0.13920746
       1920.2475      0.11223294
       1920.8446      0.16901194
       1921.4418      0.12119099
       1922.0389     0.091920836
       1922.6360      0.10896886
       1923.2332      0.12372790
       1923.8303      0.13756723
       1924.4275      0.14369767
       1925.0246      0.13181627
       1925.6217      0.14469863
       1926.2189      0.15930411
       1926.8160      0.13965877
       1927.4131      0.11601339
       1928.0103      0.13814371
       1928.6074     0.094882833
       1929.2046      0.13540598
       1929.8017      0.11311864
       1930.3988      0.12840397
       1930.9960      0.11541578
       1931.5931      0.13142175
       1932.1903     0.086804901
       1932.7874     0.080438765
       1933.3845      0.10656741
       1933.9817      0.11308871
       1934.5788     0.097694695
       1935.1759      0.12049919
       1935.7731      0.10367381
       1936.3702      0.12371564
       1936.9674      0.16134953
       1937.5645      0.10686209
       1938.1616      0.12566683
       1938.7588     0.098283530
       1939.3559      0.13169427
       1939.9530      0.12080802
       1940.5502      0.10914974
       1941.1473      0.13627778
       1941.7445     0.084451953
       1942.3416      0.10195243
       1942.9387     0.093927027
       1943.5359      0.12452718
       1944.1330      0.11805584
       1944.7302      0.12908214
       1945.3273      0.13370786
       1945.9244      0.10948540
       1946.5216      0.13615642
       1947.1187      0.12367949
       1947.7158      0.10987764
       1948.3130      0.12765767
       1948.9101      0.15914269
       1949.5073      0.14252979
       1950.1044      0.18012899
       1950.7015      0.12535188
       1951.2987      0.16028696
       1951.8958      0.13404730
       1952.4929      0.15691542
       1953.0901      0.17191583
       1953.6872      0.15509920
       1954.2844     0.096205522
       1954.8815      0.14993978
       1955.4786      0.13067110
       1956.0758      0.11249410
       1956.6729      0.12925710
       1957.2701      0.12327917
       1957.8672      0.13605496
       1958.4643     0.068881189
       1959.0615     0.085616920
       1959.6586      0.10111168
       1960.2557     0.082485668
       1960.8529      0.12866747
       1961.4500     0.089282061
       1962.0472      0.14501726
       1962.6443      0.13403726
       1963.2414      0.10859939
       1963.8386      0.11620073
       1964.4357     0.066187792
       1965.0328      0.11310958
       1965.6300      0.10928511
       1966.2271      0.11624283
       1966.8243      0.11535095
       1967.4214      0.15278928
       1968.0185      0.12746447
       1968.6157      0.12488502
       1969.2128     0.093153685
       1969.8100     0.090597572
       1970.4071      0.10029953
       1971.0042      0.12219150
       1971.6014      0.12907517
       1972.1985      0.13338185
       1972.7956      0.13990837
       1973.3928      0.15031402
       1973.9899      0.14088362
       1974.5871      0.15256071
       1975.1842      0.15641138
       1975.7813      0.14781574
       1976.3785      0.14468772
       1976.9756      0.13986190
       1977.5727      0.14335143
       1978.1699      0.16927251
       1978.7670      0.13663341
       1979.3642      0.12866062
       1979.9613      0.10568427
       1980.5584      0.10862017
       1981.1556      0.13685779
       1981.7527      0.11794045
       1982.3499      0.14501532
       1982.9470      0.11593694
       1983.5441      0.11819029
       1984.1413      0.11821006
       1984.7384      0.11862135
       1985.3355      0.11970372
       1985.9327      0.10469552
       1986.5298      0.13986240
       1987.1270      0.12808669
       1987.7241      0.15182134
       1988.3212      0.14102525
       1988.9184      0.10551490
       1989.5155      0.12974241
       1990.1126      0.15000541
       1990.7098      0.12090074
       1991.3069      0.12983985
       1991.9041      0.13009374
       1992.5012      0.14830528
       1993.0983      0.14169889
       1993.6955      0.11972021
       1994.2926      0.15346873
       1994.8898      0.10803897
       1995.4869      0.10734430
       1996.0840      0.13111103
       1996.6812      0.13088479
       1997.2783     0.094981963
       1997.8754      0.13073062
       1998.4726      0.10285886
       1999.0697      0.14754414
       1999.6669      0.14126464
       2000.2640      0.10554864
       2000.8611      0.13608907
       2001.4583      0.14381196
       2002.0554      0.10903417
       2002.6525      0.11902288
       2003.2497      0.13969458
       2003.8468      0.14575465
       2004.4440      0.14439355
       2005.0411      0.13824027
       2005.6382      0.14178437
       2006.2354      0.16448822
       2006.8325      0.14945191
       2007.4297      0.18750374
       2008.0268      0.12029670
       2008.6239      0.16199269
       2009.2211      0.13056179
       2009.8182      0.10770615
       2010.4153      0.15080551
       2011.0125      0.14715615
       2011.6096      0.16107062
       2012.2068      0.17364544
       2012.8039      0.15637670
       2013.4010      0.12352932
       2013.9982      0.13645036
       2014.5953      0.11530485
       2015.1924      0.16842962
       2015.7896      0.14466145
       2016.3867      0.16121612
       2016.9839      0.12822876
       2017.5810      0.11217938
       2018.1781      0.13708967
       2018.7753      0.12230832
       2019.3724      0.15774236
       2019.9696      0.14303705
       2020.5667      0.19484603
       2021.1638      0.13830001
       2021.7610      0.15479710
       2022.3581      0.11561614
       2022.9552      0.14692719
       2023.5524      0.12438332
       2024.1495      0.12791048
       2024.7467      0.13295161
       2025.3438      0.11442131
       2025.9409     0.091419381
       2026.5381      0.14121511
       2027.1352      0.12445022
       2027.7324      0.14446143
       2028.3295      0.13467129
       2028.9266      0.13814213
       2029.5238      0.15761882
       2030.1209      0.17388360
       2030.7180      0.13523220
       2031.3152      0.10017185
       2031.9123      0.14146615
       2032.5095      0.13134395
       2033.1066      0.12388760
       2033.7037      0.14824484
       2034.3009      0.15975633
       2034.8980      0.10997328
       2035.4951      0.11771439
       2036.0923      0.17248788
       2036.6894      0.15092292
       2037.2866      0.13006674
       2037.8837      0.13561816
       2038.4808      0.13346354
       2039.0780      0.15288035
       2039.6751      0.18937779
       2040.2723      0.17301595
       2040.8694      0.16526294
       2041.4665      0.11586646
       2042.0637      0.15209759
       2042.6608      0.18100364
       2043.2579      0.13496494
       2043.8551      0.14932085
       2044.4522      0.14755336
       2045.0494      0.16531520
       2045.6465      0.16804857
       2046.2436      0.15791425
       2046.8408      0.11410288
       2047.4379      0.10766529
       2048.0350      0.13726931
       2048.6322      0.11066805
       2049.2293      0.16795190
       2049.8265      0.14254206
       2050.4236      0.17032039
       2051.0207      0.12313244
       2051.6179      0.18101550
       2052.2150      0.12320070
       2052.8122      0.15202234
       2053.4093      0.15107057
       2054.0064      0.13122507
       2054.6036      0.13673667
       2055.2007      0.16658783
       2055.7978      0.16570564
       2056.3950      0.17251772
       2056.9921      0.14771957
       2057.5893      0.12254510
       2058.1864      0.15367073
       2058.7835      0.18218546
       2059.3807      0.16198719
       2059.9778      0.15318441
       2060.5749      0.14795351
       2061.1721      0.14443374
       2061.7692      0.16915162
       2062.3664      0.17497623
       2062.9635      0.14326879
       2063.5606      0.14388654
       2064.1578      0.16564629
       2064.7549      0.15595410
       2065.3521      0.14837533
       2065.9492      0.14188489
       2066.5463      0.13181259
       2067.1435      0.11979610
       2067.7406      0.13006669
       2068.3377      0.14346802
       2068.9349      0.14674478
       2069.5320      0.11740561
       2070.1292      0.13360879
       2070.7263      0.11415052
       2071.3234      0.12169348
       2071.9206      0.15484781
       2072.5177      0.13836197
       2073.1148      0.12205432
       2073.7120      0.15155465
       2074.3091      0.11959086
       2074.9063      0.14367414
       2075.5034      0.16098601
       2076.1005      0.12968561
       2076.6977      0.12221817
       2077.2948      0.12786647
       2077.8920      0.11318349
       2078.4891      0.13522987
       2079.0862      0.12443848
       2079.6834      0.15768184
       2080.2805      0.13338503
       2080.8776      0.14715539
       2081.4748      0.13819163
       2082.0719      0.11418912
       2082.6691      0.11514585
       2083.2662      0.16439033
       2083.8633      0.11487191
       2084.4605      0.13059277
       2085.0576      0.14050031
       2085.6547      0.16485247
       2086.2519      0.17259762
       2086.8490      0.13931272
       2087.4462      0.14613042
       2088.0433      0.14249360
       2088.6404      0.13303118
       2089.2376      0.15237148
       2089.8347      0.14565459
       2090.4319      0.15692477
       2091.0290      0.13982598
       2091.6261      0.12755292
       2092.2233      0.13146825
       2092.8204      0.10197218
       2093.4175      0.12404887
       2094.0147      0.13034642
       2094.6118      0.10180353
       2095.2090      0.11773640
       2095.8061      0.11758139
       2096.4032      0.14094583
       2097.0004      0.13722375
       2097.5975      0.11441633
       2098.1946      0.13810028
       2098.7918     0.094987374
       2099.3889      0.13878086
       2099.9861      0.13486897
       2100.5832      0.14812446
       2101.1803      0.12067186
       2101.7775      0.13275544
       2102.3746      0.13408744
       2102.9718      0.12291962
       2103.5689      0.11514558
       2104.1660      0.11629790
       2104.7632      0.14602972
       2105.3603      0.13573341
       2105.9574      0.12335046
       2106.5546      0.13740102
       2107.1517      0.12986513
       2107.7489      0.11987615
       2108.3460      0.12043316
       2108.9431      0.12108964
       2109.5403      0.10294356
       2110.1374      0.12822948
       2110.7345      0.13581156
       2111.3317      0.11209844
       2111.9288      0.12985668
       2112.5260      0.14179826
       2113.1231      0.11481292
       2113.7202      0.13642754
       2114.3174      0.16240463
       2114.9145      0.13066824
       2115.5117      0.12926171
       2116.1088      0.10824089
       2116.7059      0.13022657
       2117.3031      0.14392820
       2117.9002      0.13906408
       2118.4973      0.13079076
       2119.0945      0.13682439
       2119.6916      0.13041209
       2120.2888      0.13668334
       2120.8859      0.14187849
       2121.4830      0.11793917
       2122.0802      0.12130122
       2122.6773      0.11030569
       2123.2744      0.11740947
       2123.8716      0.15771885
       2124.4687      0.16049081
       2125.0659      0.16956031
       2125.6630      0.10078357
       2126.2601      0.13364505
       2126.8573      0.11969938
       2127.4544      0.13387132
       2128.0516      0.14625750
       2128.6487      0.12198885
       2129.2458      0.16222922
       2129.8430      0.12201364
       2130.4401      0.13744880
       2131.0372      0.13110164
       2131.6344      0.14657595
       2132.2315      0.11997233
       2132.8287      0.12853846
       2133.4258      0.13977537
       2134.0229      0.15575620
       2134.6201      0.17626780
       2135.2172      0.13924314
       2135.8143      0.17448148
       2136.4115      0.11896083
       2137.0086      0.14278629
       2137.6058      0.12104076
       2138.2029      0.13764648
       2138.8000      0.15214744
       2139.3972      0.14105875
       2139.9943      0.13608864
       2140.5915      0.13826073
       2141.1886      0.12202614
       2141.7857      0.12542889
       2142.3829      0.14561627
       2142.9800      0.14787460
       2143.5771      0.13238377
       2144.1743      0.12319148
       2144.7714      0.14933077
       2145.3686      0.14710076
       2145.9657      0.13410813
       2146.5628      0.12615682
       2147.1600      0.11587672
       2147.7571      0.13795267
       2148.3542      0.12835158
       2148.9514      0.10219666
       2149.5485      0.12164291
       2150.1457      0.11373574
       2150.7428      0.11361317
       2151.3399      0.10206133
       2151.9371      0.13132873
       2152.5342      0.13857647
       2153.1314      0.16044707
       2153.7285      0.13881001
       2154.3256      0.13640050
       2154.9228      0.13899022
       2155.5199      0.15304232
       2156.1170      0.12368891
       2156.7142      0.14900855
       2157.3113      0.13797010
       2157.9085      0.14452688
       2158.5056      0.12459171
       2159.1027      0.12600188
       2159.6999      0.14158139
       2160.2970      0.13436404
       2160.8941      0.13170537
       2161.4913      0.12768751
       2162.0884      0.12621575
       2162.6856      0.11846993
       2163.2827      0.13744491
       2163.8798      0.13090272
       2164.4770      0.12394690
       2165.0741      0.14909806
       2165.6713      0.15347288
       2166.2684      0.15976799
       2166.8655      0.12541515
       2167.4627      0.13608629
       2168.0598      0.12643796
       2168.6569      0.15737175
       2169.2541      0.14688458
       2169.8512      0.13098588
       2170.4484      0.13243850
       2171.0455      0.12097381
       2171.6426      0.13551456
       2172.2398      0.13334614
       2172.8369      0.12525081
       2173.4340      0.12585491
       2174.0312      0.12972636
       2174.6283      0.13579887
       2175.2255      0.14101186
       2175.8226      0.13490917
       2176.4197      0.14125795
       2177.0169      0.12394338
       2177.6140      0.13913485
       2178.2112      0.12080206
       2178.8083      0.11578282
       2179.4054      0.13042917
       2180.0026      0.13041653
       2180.5997      0.13448665
       2181.1968      0.14313756
       2181.7940      0.12553354
       2182.3911      0.13316436
       2182.9883      0.16107559
       2183.5854      0.13960351
       2184.1825      0.12545117
       2184.7797      0.13710356
       2185.3768     0.093298658
       2185.9739      0.16283149
       2186.5711      0.13955575
       2187.1682      0.14314768
       2187.7654      0.14821323
       2188.3625      0.12368247
       2188.9596      0.13360684
       2189.5568      0.12919093
       2190.1539      0.15348741
       2190.7511      0.14736156
       2191.3482      0.13526719
       2191.9453      0.13570823
       2192.5425      0.13737673
       2193.1396      0.16590846
       2193.7367      0.14698260
       2194.3339      0.13898453
       2194.9310      0.12498248
       2195.5282      0.13814176
       2196.1253      0.14207418
       2196.7224      0.13098075
       2197.3196      0.13125707
       2197.9167      0.12319459
       2198.5138      0.14999713
       2199.1110      0.12265085
       2199.7081      0.13251735
       2200.3053      0.15309763
       2200.9024      0.14238886
       2201.4995      0.13078114
       2202.0967      0.13301680
       2202.6938      0.11785776
       2203.2910      0.15089193
       2203.8881      0.15687914
       2204.4852      0.10912160
       2205.0824      0.13503627
       2205.6795      0.16393914
       2206.2766      0.12867403
       2206.8738      0.14125047
       2207.4709      0.13601647
       2208.0681      0.16792791
       2208.6652      0.13190145
       2209.2623      0.18366062
       2209.8595      0.15825390
       2210.4566      0.15237441
       2211.0537      0.13631140
       2211.6509      0.15145787
       2212.2480      0.16702824
       2212.8452      0.17755670
       2213.4423      0.13749371
       2214.0394      0.12834253
       2214.6366      0.15695472
       2215.2337      0.17052636
       2215.8309      0.14277442
       2216.4280      0.14805742
       2217.0251      0.16140731
       2217.6223      0.15157808
       2218.2194      0.14923559
       2218.8165      0.15494252
       2219.4137      0.13007254
       2220.0108      0.18387690
       2220.6080      0.17848551
       2221.2051      0.12598312
       2221.8022      0.14553032
       2222.3994      0.12880691
       2222.9965      0.14294378
       2223.5937      0.16093372
       2224.1908      0.17546188
       2224.7879      0.14461425
       2225.3851      0.14535721
       2225.9822      0.17717664
       2226.5793      0.16021516
       2227.1765      0.14455154
       2227.7736      0.13107422
       2228.3708      0.12836037
       2228.9679      0.12264482
       2229.5650      0.14720811
       2230.1622      0.14905149
       2230.7593      0.14788766
       2231.3564      0.12993339
       2231.9536      0.10384794
       2232.5507      0.18235360
       2233.1479      0.14605712
       2233.7450      0.16238510
       2234.3421      0.15894625
       2234.9393      0.15223452
       2235.5364      0.12436371
       2236.1336      0.15337048
       2236.7307      0.14232419
       2237.3278      0.14643762
       2237.9250      0.12603178
       2238.5221      0.15885481
       2239.1192      0.17008934
       2239.7164      0.16138606
       2240.3135      0.13249794
       2240.9107      0.16851047
       2241.5078      0.17687642
       2242.1049      0.14218237
       2242.7021      0.12169868
       2243.2992      0.14773315
       2243.8963      0.13269082
       2244.4935      0.14301367
       2245.0906      0.14022001
       2245.6878      0.14087237
       2246.2849      0.13846806
       2246.8820      0.16516267
       2247.4792      0.14101524
       2248.0763      0.14175665
       2248.6735      0.12606676
       2249.2706      0.16207606
       2249.8677      0.13829476
       2250.4649      0.16513616
       2251.0620      0.14258890
       2251.6591      0.14951365
       2252.2563      0.13597493
       2252.8534      0.15220487
       2253.4506      0.14369011
       2254.0477      0.17544409
       2254.6448      0.13711909
       2255.2420      0.13294598
       2255.8391      0.13180520
       2256.4362      0.14527248
       2257.0334      0.15175453
       2257.6305      0.15377565
       2258.2277      0.15605713
       2258.8248      0.13261067
       2259.4219      0.14772454
       2260.0191      0.15736487
       2260.6162      0.17368805
       2261.2134      0.17280142
       2261.8105      0.15576839
       2262.4076      0.14364426
       2263.0048      0.16373812
       2263.6019      0.16187142
       2264.1990      0.17011241
       2264.7962      0.14600474
       2265.3933      0.14887433
       2265.9905      0.12816028
       2266.5876      0.17423869
       2267.1847      0.15496300
       2267.7819      0.13262376
       2268.3790      0.15715323
       2268.9761      0.16428825
       2269.5733      0.14336935
       2270.1704      0.14036889
       2270.7676      0.16630206
       2271.3647      0.11137325
       2271.9618      0.15548755
       2272.5590      0.14629715
       2273.1561      0.17045581
       2273.7533      0.13985416
       2274.3504      0.16381879
       2274.9475      0.14472042
       2275.5447      0.14003217
       2276.1418      0.14957404
       2276.7389      0.16852782
       2277.3361      0.14959002
       2277.9332      0.14217590
       2278.5304      0.14690144
       2279.1275      0.14372337
       2279.7246      0.16041909
       2280.3218      0.16535911
       2280.9189      0.16613818
       2281.5160      0.18852835
       2282.1132      0.13486243
       2282.7103      0.12848125
       2283.3075      0.13732630
       2283.9046      0.12258396
       2284.5017      0.16339702
       2285.0989      0.15642131
       2285.6960      0.15584653
       2286.2932      0.14388419
       2286.8903      0.15981610
       2287.4874      0.14983080
       2288.0846      0.15646098
       2288.6817      0.19040362
       2289.2788      0.15339611
       2289.8760      0.16060072
       2290.4731      0.16372382
       2291.0703      0.19819541
       2291.6674      0.16881255
       2292.2645      0.16052784
       2292.8617      0.16964970
       2293.4588      0.15327425
       2294.0559      0.17511297
       2294.6531      0.16505044
       2295.2502      0.19815827
       2295.8474      0.16098253
       2296.4445      0.17942996
       2297.0416      0.17104398
       2297.6388      0.17255243
       2298.2359      0.15191077
       2298.8331      0.16081051
       2299.4302      0.15315859
       2300.0273      0.16769779
       2300.6245      0.14551009
       2301.2216      0.15330129
       2301.8187      0.16985481
       2302.4159      0.18475980
       2303.0130      0.15147219
       2303.6102      0.16707168
       2304.2073      0.16985465
       2304.8044      0.15135181
       2305.4016      0.14653027
       2305.9987      0.19894393
       2306.5958      0.14445767
       2307.1930      0.13976063
       2307.7901      0.17268576
       2308.3873      0.11504737
       2308.9844      0.16144286
       2309.5815      0.13626758
       2310.1787      0.15024055
       2310.7758      0.16857099
       2311.3730      0.15202809
       2311.9701      0.15674044
       2312.5672      0.18547895
       2313.1644      0.18523195
       2313.7615      0.18545790
       2314.3586      0.18060154
       2314.9558      0.17605892
       2315.5529      0.14449403
       2316.1501      0.18779745
       2316.7472      0.15351793
       2317.3443      0.18196115
       2317.9415      0.16426149
       2318.5386      0.17421996
       2319.1357      0.17755804
       2319.7329      0.17038809
       2320.3300      0.16268150
       2320.9272      0.16320832
       2321.5243      0.16538319
       2322.1214      0.17970627
       2322.7186      0.20466699
       2323.3157      0.15966558
       2323.9129      0.18378729
       2324.5100      0.18688689
       2325.1071      0.17969325
       2325.7043      0.18044332
       2326.3014      0.22234219
       2326.8985      0.15563128
       2327.4957      0.15255986
       2328.0928      0.12938548
       2328.6900      0.13883982
       2329.2871      0.16276862
       2329.8842      0.15305356
       2330.4814      0.17963191
       2331.0785      0.18590987
       2331.6756      0.15514029
       2332.2728      0.20329060
       2332.8699      0.18128427
       2333.4671      0.20307644
       2334.0642      0.18188115
       2334.6613      0.21303341
       2335.2585      0.16144361
       2335.8556      0.22342276
       2336.4528      0.21852113
       2337.0499      0.18154524
       2337.6470      0.23767214
       2338.2442      0.21695107
       2338.8413      0.21828161
       2339.4384      0.19955990
       2340.0356      0.18358969
       2340.6327      0.19326662
       2341.2299      0.16492222
       2341.8270      0.16901189
       2342.4241      0.16596031
       2343.0213      0.17372804
       2343.6184      0.12367047
       2344.2155      0.17001649
       2344.8127      0.15060149
       2345.4098      0.19678271
       2346.0070      0.17826066
       2346.6041      0.15338815
       2347.2012      0.15791574
       2347.7984      0.15573636
       2348.3955      0.19211634
       2348.9927      0.17372589
       2349.5898      0.16071324
       2350.1869      0.18339726
       2350.7841      0.18071254
       2351.3812      0.16226966
       2351.9783      0.17214017
       2352.5755      0.14181246
       2353.1726      0.17610421
       2353.7698      0.17859388
       2354.3669      0.11525332
       2354.9640      0.14244143
       2355.5612      0.11596283
       2356.1583     0.095153889
       2356.7554     0.089025252
       2357.3526      0.10305550
       2357.9497      0.12338466
       2358.5469      0.12173195
       2359.1440      0.13876458
       2359.7411      0.14903295
       2360.3383      0.20835567
       2360.9354      0.15216492
       2361.5326      0.16544164
       2362.1297      0.18147840
       2362.7268      0.16048001
       2363.3240      0.17564859
       2363.9211      0.15592885
       2364.5182      0.15294255
       2365.1154      0.18235854
       2365.7125      0.17350737
       2366.3097      0.15674834
       2366.9068      0.19389734
       2367.5039      0.17544610
       2368.1011      0.19733018
       2368.6982      0.16072931
       2369.2953      0.18249809
       2369.8925      0.17507010
       2370.4896      0.20176984
       2371.0868      0.19234917
       2371.6839      0.17311940
       2372.2810      0.14980046
       2372.8782      0.20661746
       2373.4753      0.16060416
       2374.0725      0.19625019
       2374.6696      0.19396889
       2375.2667      0.17167658
       2375.8639      0.19699982
       2376.4610      0.19903890
       2377.0581      0.14645607
       2377.6553      0.16344728
       2378.2524      0.22766209
       2378.8496      0.17432513
       2379.4467      0.21558176
       2380.0438      0.16646190
       2380.6410      0.18434495
       2381.2381      0.15667747
       2381.8352      0.14546101
       2382.4324      0.15691663
       2383.0295      0.15353940
       2383.6267      0.13366964
       2384.2238      0.14996034
       2384.8209      0.16098850
       2385.4181      0.15043397
       2386.0152      0.10801297
       2386.6124      0.13125824
       2387.2095      0.10904328
       2387.8066      0.13062509
       2388.4038      0.17342114
       2389.0009      0.14556557
       2389.5980      0.17579699
       2390.1952      0.16758215
       2390.7923      0.18090961
       2391.3895      0.19369985
       2391.9866      0.21074223
       2392.5837      0.21673724
       2393.1809      0.18549850
       2393.7780      0.12876779
       2394.3751      0.18695490
       2394.9723      0.11540408
       2395.5694      0.10472207
       2396.1666      0.12887496
       2396.7637      0.13145192
       2397.3608      0.14194548
       2397.9580      0.14924458
       2398.5551      0.19499649
       2399.1523      0.22366636
       2399.7494      0.23710912
       2400.3465      0.21814147
       2400.9437      0.18714391
       2401.5408      0.15850714
       2402.1379      0.14991123
       2402.7351      0.18050874
       2403.3322      0.15790975
       2403.9294      0.20382613
       2404.5265      0.18659062
       2405.1236      0.16467151
       2405.7208      0.18506215
       2406.3179      0.22029084
       2406.9150      0.24579701
       2407.5122      0.21390460
       2408.1093      0.20168446
       2408.7065      0.22246858
       2409.3036      0.25524666
       2409.9007      0.19335414
       2410.4979      0.25353761
       2411.0950      0.21096121
       2411.6922      0.17091722
       2412.2893      0.19002535
       2412.8864      0.19840852
       2413.4836      0.15939965
       2414.0807      0.18476029
       2414.6778      0.17113067
       2415.2750      0.18070121
       2415.8721      0.21118396
       2416.4693      0.20495262
       2417.0664      0.19039115
       2417.6635      0.17669396
       2418.2607      0.19980970
       2418.8578      0.16916006
       2419.4550      0.14050074
       2420.0521      0.19376728
       2420.6492      0.16236897
       2421.2464      0.21742166
       2421.8435      0.14626043
       2422.4406      0.21540944
       2423.0378      0.19124077
       2423.6349      0.17254505
       2424.2321      0.14616850
       2424.8292      0.21744507
       2425.4263      0.20441947
       2426.0235      0.17595787
       2426.6206      0.19990403
       2427.2177      0.19412177
       2427.8149      0.19065581
       2428.4120      0.20250102
       2429.0092      0.17731126
       2429.6063      0.17030418
       2430.2034      0.15273730
       2430.8006      0.17985831
       2431.3977      0.16766588
       2431.9949      0.18862061
       2432.5920      0.20744286
       2433.1891      0.23193630
       2433.7863      0.15475575
       2434.3834      0.22034697
       2434.9805      0.21624611
       2435.5777      0.16803689
       2436.1748      0.15852938
       2436.7720      0.16897051
       2437.3691      0.22390101
       2437.9662      0.17500096
       2438.5634      0.20976484
       2439.1605      0.19224481
       2439.7576      0.14931092
       2440.3548      0.21727371
       2440.9519      0.16293524
       2441.5491      0.18059729
       2442.1462      0.16105500
       2442.7433      0.20172456
       2443.3405      0.17922254
       2443.9376      0.18191329
       2444.5348      0.16829704
       2445.1319      0.19326748
       2445.7290      0.18057818
       2446.3262      0.19844056
       2446.9233      0.21962323
       2447.5204      0.14348434
       2448.1176      0.16312725
       2448.7147      0.15646500
       2449.3119      0.13620596
       2449.9090      0.15681222
       2450.5061      0.18004710
       2451.1033      0.19246193
       2451.7004      0.18496608
       2452.2975      0.13414713
       2452.8947      0.16529480
       2453.4918      0.15216365
       2454.0890      0.15358629
       2454.6861      0.15857784
       2455.2832      0.17948727
       2455.8804      0.16925156
       2456.4775      0.17965404
       2457.0747      0.15866803
       2457.6718      0.22539050
       2458.2689      0.21197386
       2458.8661      0.22007898
       2459.4632      0.16136517
       2460.0603      0.18388177
       2460.6575      0.17857767
       2461.2546      0.13506811
       2461.8518      0.20153652
       2462.4489      0.18343208
       2463.0460      0.21700493
       2463.6432      0.21127563
       2464.2403      0.19894381
       2464.8374      0.20747119
       2465.4346      0.17825108
       2466.0317      0.17547847
       2466.6289      0.17864541
       2467.2260      0.19522708
       2467.8231      0.22520786
       2468.4203      0.20336255
       2469.0174      0.18815641
       2469.6146      0.18479989
       2470.2117      0.21132992
       2470.8088      0.18917918
       2471.4060      0.19106787
       2472.0031      0.22500414
       2472.6002      0.17590561
       2473.1974      0.18802413
       2473.7945      0.16596521
       2474.3917      0.19150929
       2474.9888      0.18283233
       2475.5859      0.16086832
       2476.1831      0.15933557
       2476.7802      0.20286309
       2477.3773      0.18842826
       2477.9745      0.18131644
       2478.5716      0.19427715
       2479.1688      0.25223108
       2479.7659      0.18827148
       2480.3630      0.17750817
       2480.9602      0.18491872
       2481.5573      0.21294007
       2482.1545      0.21465586
       2482.7516      0.19374451
       2483.3487      0.20855259
       2483.9459      0.16364039
       2484.5430      0.16842452
       2485.1401      0.16478285
       2485.7373      0.17346336
       2486.3344      0.20198619
       2486.9316      0.17028267
       2487.5287      0.19230654
       2488.1258      0.15398333
       2488.7230      0.18448144
       2489.3201      0.17405482
       2489.9172      0.17223903
       2490.5144      0.19363445
       2491.1115      0.17539738
       2491.7087      0.23058935
       2492.3058      0.17487761
       2492.9029      0.17968719
       2493.5001      0.24899808
       2494.0972      0.16444662
       2494.6944      0.19327696
       2495.2915      0.18266122
       2495.8886      0.19010725
       2496.4858      0.20025856
       2497.0829      0.16794007
       2497.6800      0.17174192
       2498.2772      0.17938259
       2498.8743      0.19441470
       2499.4715      0.13953307
       2500.0686      0.18601798
       2500.6657      0.17479781
       2501.2629      0.19759193
       2501.8600      0.17547952
       2502.4571      0.23019437
       2503.0543      0.13678582
       2503.6514      0.19025403
       2504.2486      0.13749533
       2504.8457      0.19604343
       2505.4428      0.19645056
       2506.0400      0.18885284
       2506.6371      0.18757396
       2507.2343      0.15471469
       2507.8314      0.21403021
       2508.4285      0.19046894
       2509.0257      0.17847974
       2509.6228      0.15813358
       2510.2199      0.13745758
       2510.8171      0.18849368
       2511.4142      0.19376587
       2512.0114      0.18590071
       2512.6085      0.20635311
       2513.2056      0.19798792
       2513.8028      0.16925993
       2514.3999      0.20871299
       2514.9970      0.19682737
       2515.5942      0.20190328
       2516.1913      0.21837963
       2516.7885      0.18242968
       2517.3856      0.19369735
       2517.9827      0.18153852
       2518.5799      0.16754895
       2519.1770      0.15486881
       2519.7742      0.16792347
       2520.3713      0.15313417
       2520.9684      0.12299835
       2521.5656      0.19058727
       2522.1627      0.18372275
       2522.7598      0.20564041
       2523.3570      0.22589969
       2523.9541      0.20001721
       2524.5513      0.20695459
       2525.1484      0.17593523
       2525.7455      0.19287711
       2526.3427      0.16119617
       2526.9398      0.17892542
       2527.5369      0.21917919
       2528.1341      0.16138221
       2528.7312      0.20978115
       2529.3284      0.15081464
       2529.9255      0.16919014
       2530.5226      0.18910252
       2531.1198      0.22675398
       2531.7169      0.17977842
       2532.3141      0.19263615
       2532.9112      0.19388840
       2533.5083      0.17769476
       2534.1055      0.19876650
       2534.7026      0.14534529
       2535.2997      0.14187204
       2535.8969      0.17608413
       2536.4940      0.18116183
       2537.0912      0.18775172
       2537.6883      0.12992928
       2538.2854      0.16124257
       2538.8826      0.19353582
       2539.4797      0.17600376
       2540.0768      0.24025612
       2540.6740      0.18307595
       2541.2711      0.21107086
       2541.8683      0.20482540
       2542.4654      0.16808126
       2543.0625      0.16969760
       2543.6597      0.20794194
       2544.2568      0.21652988
       2544.8540      0.17116203
       2545.4511      0.22633541
       2546.0482      0.18889256
       2546.6454      0.22133682
       2547.2425      0.18344281
       2547.8396      0.18859763
       2548.4368      0.14875249
       2549.0339      0.19955956
       2549.6311      0.16848129
       2550.2282      0.18909624
       2550.8253      0.18564122
       2551.4225      0.18542122
       2552.0196      0.17401590
       2552.6167      0.16410952
       2553.2139      0.16547705
       2553.8110      0.17858390
       2554.4082      0.17650963
       2555.0053      0.17453640
       2555.6024      0.18248797
       2556.1996      0.20776173
       2556.7967      0.20314973
       2557.3939      0.19040186
       2557.9910      0.19490038
       2558.5881      0.16543503
       2559.1853      0.18353736
       2559.7824      0.18781265
       2560.3795      0.23867999
       2560.9767      0.19368936
       2561.5738      0.16401808
       2562.1710      0.14733361
       2562.7681      0.19516331
       2563.3652      0.19056736
       2563.9624      0.15780272
       2564.5595      0.17699491
       2565.1566      0.16079457
       2565.7538      0.22246175
       2566.3509      0.18384041
       2566.9481      0.15492404
       2567.5452      0.19647879
       2568.1423      0.18132035
       2568.7395      0.20878706
       2569.3366      0.20241396
       2569.9338      0.15898993
       2570.5309      0.18311071
       2571.1280      0.18357319
       2571.7252      0.18759326
       2572.3223      0.21585694
       2572.9194      0.20687723
       2573.5166      0.14627019
       2574.1137      0.15049263
       2574.7109      0.19911930
       2575.3080      0.18673204
       2575.9051      0.17656130
       2576.5023      0.21639533
       2577.0994      0.21605397
       2577.6965      0.19596476
       2578.2937      0.16690827
       2578.8908      0.16338062
       2579.4880      0.17611902
       2580.0851      0.18751747
       2580.6822      0.20997863
       2581.2794      0.20145981
       2581.8765      0.17920160
       2582.4737      0.16789798
       2583.0708      0.18170524
       2583.6679      0.22450516
       2584.2651      0.14845890
       2584.8622      0.19537675
       2585.4593      0.18302673
       2586.0565      0.18144096
       2586.6536      0.18093109
       2587.2508      0.15405190
       2587.8479      0.18816366
       2588.4450      0.18047076
       2589.0422      0.14739695
       2589.6393      0.15934148
       2590.2364      0.17666292
       2590.8336      0.21319415
       2591.4307      0.19597342
       2592.0279      0.15125825
       2592.6250      0.17975732
       2593.2221      0.18316374
       2593.8193      0.12849910
       2594.4164     0.096369487
       2595.0136      0.11845744
       2595.6107     0.090929810
       2596.2078     0.099524938
       2596.8050     0.099544824
       2597.4021      0.13900087
       2597.9992      0.14705057
       2598.5964      0.15927775
       2599.1935      0.18571302
       2599.7907      0.18578816
       2600.3878      0.17578989
       2600.9849      0.18718442
       2601.5821      0.15325806
       2602.1792      0.19400422
       2602.7763      0.17834100
       2603.3735      0.19143329
       2603.9706      0.16603348
       2604.5678      0.18586166
       2605.1649      0.15741709
       2605.7620      0.12042903
       2606.3592      0.17999014
       2606.9563      0.16526154
       2607.5535      0.10066639
       2608.1506      0.12600263
       2608.7477      0.10553242
       2609.3449      0.10235354
       2609.9420      0.16816728
       2610.5391      0.12311023
       2611.1363      0.13256986
       2611.7334      0.12526700
       2612.3306      0.15852609
       2612.9277      0.21973274
       2613.5248      0.19316361
       2614.1220      0.20386404
       2614.7191      0.20553588
       2615.3163      0.15661731
       2615.9134      0.16923724
       2616.5105      0.17826180
       2617.1077      0.18967802
       2617.7048      0.19524857
       2618.3019      0.18842604
       2618.8991      0.20737304
       2619.4962      0.20304708
       2620.0934      0.18336796
       2620.6905      0.24897527
       2621.2876      0.20139625
       2621.8848      0.22956229
       2622.4819      0.19520471
       2623.0790      0.25297179
       2623.6762      0.20186884
       2624.2733      0.21002709
       2624.8705      0.24300751
       2625.4676      0.19000394
       2626.0647      0.13199019
       2626.6619      0.19914741
       2627.2590      0.15248959
       2627.8562      0.22150823
       2628.4533      0.16574880
       2629.0504      0.20762150
       2629.6476      0.20766855
       2630.2447      0.19352580
       2630.8418      0.17571457
       2631.4390      0.21884344
       2632.0361      0.20202437
       2632.6333      0.18449978
       2633.2304      0.22078180
       2633.8275      0.19398952
       2634.4247      0.23484343
       2635.0218      0.22328029
       2635.6189      0.21617183
       2636.2161      0.22250726
       2636.8132      0.19204743
       2637.4104      0.21435128
       2638.0075      0.19227673
       2638.6046      0.18849873
       2639.2018      0.19837014
       2639.7989      0.18002736
       2640.3961      0.17767095
       2640.9932      0.22773103
       2641.5903      0.17943931
       2642.1875      0.21849822
       2642.7846      0.22540421
       2643.3817      0.16845691
       2643.9789      0.17992443
       2644.5760      0.19426212
       2645.1732      0.16420601
       2645.7703      0.15341913
       2646.3674      0.21712202
       2646.9646      0.20411701
       2647.5617      0.18416531
       2648.1588      0.16840382
       2648.7560      0.18119058
       2649.3531      0.17941297
       2649.9503      0.21043676
       2650.5474      0.21897354
       2651.1445      0.21528069
       2651.7417      0.18098092
       2652.3388      0.21808862
       2652.9360      0.16240432
       2653.5331      0.17938889
       2654.1302      0.22649363
       2654.7274      0.20702367
       2655.3245      0.16915387
       2655.9216      0.19722144
       2656.5188      0.18302346
       2657.1159      0.18001852
       2657.7131      0.20868640
       2658.3102      0.20253568
       2658.9073      0.15534698
       2659.5045      0.18165929
       2660.1016      0.17301667
       2660.6987      0.14033698
       2661.2959      0.18465522
       2661.8930      0.18173786
       2662.4902      0.16580427
       2663.0873      0.13919379
       2663.6844      0.15943317
       2664.2816      0.15736604
       2664.8787      0.20013733
       2665.4759      0.19239646
       2666.0730      0.23399506
       2666.6701      0.17593063
       2667.2673      0.16323497
       2667.8644      0.21112865
       2668.4615      0.19936833
       2669.0587      0.21981943
       2669.6558      0.20053996
       2670.2530      0.17299891
       2670.8501      0.16145620
       2671.4472      0.20986183
       2672.0444      0.19619525
       2672.6415      0.19226371
       2673.2386      0.18572366
       2673.8358      0.20642157
       2674.4329      0.22155646
       2675.0301      0.18310373
       2675.6272      0.15488637
       2676.2243      0.17585826
       2676.8215      0.23060002
       2677.4186      0.21004702
       2678.0158      0.20619513
       2678.6129      0.17444538
       2679.2100      0.17850364
       2679.8072      0.19542565
       2680.4043      0.20317372
       2681.0014      0.17754734
       2681.5986      0.18070512
       2682.1957      0.22474687
       2682.7929      0.17742867
       2683.3900      0.20385299
       2683.9871      0.19852734
       2684.5843      0.18440473
       2685.1814      0.20894134
       2685.7785      0.19843837
       2686.3757      0.24579828
       2686.9728      0.15692273
       2687.5700      0.16661926
       2688.1671      0.18476434
       2688.7642      0.17101923
       2689.3614      0.21390544
       2689.9585      0.16033776
       2690.5557      0.21285494
       2691.1528      0.18824793
       2691.7499      0.19159075
       2692.3471      0.16442611
       2692.9442      0.18419259
       2693.5413      0.19502041
       2694.1385      0.18174910
       2694.7356      0.18311657
       2695.3328      0.20047389
       2695.9299      0.20294438
       2696.5270      0.18036952
       2697.1242      0.17538604
       2697.7213      0.16431895
       2698.3184      0.20975364
       2698.9156      0.16803890
       2699.5127      0.20520575
       2700.1099      0.18626107
       2700.7070      0.18654732
       2701.3041      0.16388212
       2701.9013      0.18739325
       2702.4984      0.18384567
       2703.0956      0.18287902
       2703.6927      0.18365406
       2704.2898      0.15028960
       2704.8870      0.21824087
       2705.4841      0.16220962
       2706.0812      0.17819698
       2706.6784      0.16684012
       2707.2755      0.17912830
       2707.8727      0.19142546
       2708.4698      0.15723928
       2709.0669      0.19575487
       2709.6641      0.19737572
       2710.2612      0.18995498
       2710.8583      0.18097097
       2711.4555      0.24725626
       2712.0526      0.17479112
       2712.6498      0.22196429
       2713.2469      0.18853306
       2713.8440      0.20487329
       2714.4412      0.19094587
       2715.0383      0.18208998
       2715.6355      0.18397864
       2716.2326      0.17307816
       2716.8297      0.16988184
       2717.4269      0.14948856
       2718.0240      0.16421385
       2718.6211      0.16749323
       2719.2183      0.19554871
       2719.8154      0.19859321
       2720.4126      0.17098864
       2721.0097      0.15067825
       2721.6068      0.20098191
       2722.2040      0.24134031
       2722.8011      0.23296818
       2723.3982      0.18977716
       2723.9954      0.18354961
       2724.5925      0.14852179
       2725.1897      0.16456362
       2725.7868      0.15924387
       2726.3839      0.15364238
       2726.9811      0.23937170
       2727.5782      0.17411357
       2728.1754      0.18987138
       2728.7725      0.17992386
       2729.3696      0.22897818
       2729.9668      0.14228887
       2730.5639      0.15900496
       2731.1610      0.14485048
       2731.7582      0.21241822
       2732.3553      0.21107271
       2732.9525      0.18525254
       2733.5496      0.17664165
       2734.1467      0.17037801
       2734.7439      0.20813674
       2735.3410      0.21560160
       2735.9381      0.16833804
       2736.5353      0.20742163
       2737.1324      0.15867635
       2737.7296      0.17792677
       2738.3267      0.18171399
       2738.9238      0.20153114
       2739.5210      0.18114031
       2740.1181      0.20137008
       2740.7153      0.19372492
       2741.3124      0.16304297
       2741.9095      0.21272834
       2742.5067      0.19768750
       2743.1038      0.25151044
       2743.7009      0.15081447
       2744.2981      0.17387117
       2744.8952      0.16476568
       2745.4924      0.16906000
       2746.0895      0.17276293
       2746.6866      0.20331811
       2747.2838      0.23673458
       2747.8809      0.17313346
       2748.4780      0.14669072
       2749.0752      0.17949425
       2749.6723      0.18889786
       2750.2695      0.14872476
       2750.8666      0.14893338
       2751.4637      0.19192857
       2752.0609      0.16798732
       2752.6580      0.21803170
       2753.2552      0.19471647
       2753.8523      0.14443620
       2754.4494      0.17135596
       2755.0466      0.14639066
       2755.6437      0.11546779
       2756.2408      0.19464331
       2756.8380      0.20625577
       2757.4351      0.17632192
       2758.0323      0.18619058
       2758.6294      0.16798851
       2759.2265      0.19557791
       2759.8237      0.20592762
       2760.4208      0.19709437
       2761.0179      0.19248180
       2761.6151      0.19740035
       2762.2122      0.21393212
       2762.8094      0.13809544
       2763.4065      0.21795196
       2764.0036      0.16153868
       2764.6008      0.20712081
       2765.1979      0.18436438
       2765.7951      0.16490342
       2766.3922      0.16320730
       2766.9893      0.23574440
       2767.5865      0.26092212
       2768.1836      0.18849591
       2768.7807      0.15297584
       2769.3779      0.18981948
       2769.9750      0.20062731
       2770.5722      0.20000806
       2771.1693      0.17739129
       2771.7664      0.17128224
       2772.3636      0.19969683
       2772.9607      0.18073271
       2773.5578      0.19131881
       2774.1550      0.19097879
       2774.7521      0.19595665
       2775.3493      0.16951929
       2775.9464      0.13784501
       2776.5435      0.19511457
       2777.1407      0.22331452
       2777.7378      0.17539769
       2778.3350      0.19063988
       2778.9321      0.17113858
       2779.5292      0.18673720
       2780.1264      0.18468704
       2780.7235      0.23370748
       2781.3206      0.16923959
       2781.9178      0.16287910
       2782.5149      0.21890674
       2783.1121      0.22170847
       2783.7092      0.18355194
       2784.3063      0.19902482
       2784.9035      0.16033499
       2785.5006      0.13464974
       2786.0977      0.22120037
       2786.6949      0.15741632
       2787.2920      0.16559531
       2787.8892      0.21418885
       2788.4863      0.16210137
       2789.0834      0.18337835
       2789.6806      0.14396829
       2790.2777      0.20720687
       2790.8749      0.17656261
       2791.4720      0.17594457
       2792.0691      0.23627630
       2792.6663      0.18489584
       2793.2634      0.18589650
       2793.8605      0.17890718
       2794.4577      0.20336771
       2795.0548      0.24614652
       2795.6520      0.30065760
       2796.2491      0.35981241
       2796.8462      0.29364253
       2797.4434      0.32628098
       2798.0405      0.23133767
       2798.6376      0.19468888
       2799.2348      0.16985735
       2799.8319      0.10617129
       2800.4291     0.093444945
       2801.0262      0.12081850
       2801.6233      0.15356045
       2802.2205      0.17678824
       2802.8176      0.22156242
       2803.4148      0.21931940
       2804.0119      0.22873543
       2804.6090      0.21796444
       2805.2062      0.15541468
       2805.8033      0.10690007
       2806.4004     0.076129302
       2806.9976      0.11343317
       2807.5947      0.13216900
       2808.1919      0.10552588
       2808.7890      0.14949630
       2809.3861      0.15783206
       2809.9833      0.16238103
       2810.5804      0.15216127
       2811.1776      0.14444465
       2811.7747      0.20596123
       2812.3718      0.15984573
       2812.9690      0.20360837
       2813.5661      0.19229665
       2814.1632      0.17102131
       2814.7604      0.18030216
       2815.3575      0.18748460
       2815.9547      0.20481365
       2816.5518      0.18285690
       2817.1489      0.16432428
       2817.7461      0.20560209
       2818.3432      0.21745589
       2818.9403      0.18449283
       2819.5375      0.18619083
       2820.1346      0.18411325
       2820.7318      0.18879389
       2821.3289      0.14378412
       2821.9260      0.20804522
       2822.5232      0.20358068
       2823.1203      0.17405788
       2823.7175      0.15398753
       2824.3146      0.17902863
       2824.9117      0.21397337
       2825.5089      0.21152811
       2826.1060      0.17317329
       2826.7031      0.21480940
       2827.3003      0.22206486
       2827.8974      0.21050963
       2828.4946      0.20928804
       2829.0917      0.23160475
       2829.6888      0.21469073
       2830.2860      0.21695640
       2830.8831      0.19261020
       2831.4802      0.19425590
       2832.0774      0.18198111
       2832.6745      0.20048541
       2833.2717      0.20311823
       2833.8688      0.22101591
       2834.4659      0.18855628
       2835.0631      0.17002389
       2835.6602      0.15391382
       2836.2574      0.19889044
       2836.8545      0.16337068
       2837.4516      0.16142895
       2838.0488      0.19031340
       2838.6459      0.20926492
       2839.2430      0.19735847
       2839.8402      0.18258824
       2840.4373      0.17407213
       2841.0345      0.20427859
       2841.6316      0.19141669
       2842.2287      0.20173677
       2842.8259      0.17656160
       2843.4230      0.18052634
       2844.0201      0.22051476
       2844.6173      0.16393086
       2845.2144      0.18033759
       2845.8116      0.20845030
       2846.4087      0.19952910
       2847.0058      0.20811963
       2847.6030      0.19885659
       2848.2001      0.18767804
       2848.7973      0.15048268
       2849.3944      0.17018748
       2849.9915      0.17142347
       2850.5887      0.20147241
       2851.1858      0.15550547
       2851.7829      0.16412188
       2852.3801      0.17772538
       2852.9772      0.17374330
       2853.5744      0.17046153
       2854.1715      0.24516570
       2854.7686      0.20272017
       2855.3658      0.13481506
       2855.9629      0.19160666
       2856.5600      0.11541711
       2857.1572      0.16534654
       2857.7543      0.21517298
       2858.3515      0.18907470
       2858.9486      0.19599687
       2859.5457      0.19782541
       2860.1429      0.20136422
       2860.7400      0.15836544
       2861.3372      0.14514007
       2861.9343      0.15280597
       2862.5314      0.18519044
       2863.1286      0.16804905
       2863.7257      0.18420066
       2864.3228      0.18058444
       2864.9200      0.19282126
       2865.5171      0.19725998
       2866.1143      0.17621825
       2866.7114      0.17130788
       2867.3085      0.14980392
       2867.9057      0.18067554
       2868.5028      0.17867157
       2869.0999      0.18264663
       2869.6971      0.17866143
       2870.2942      0.18918565
       2870.8914      0.19066402
       2871.4885      0.14056109
       2872.0856      0.13207397
       2872.6828      0.12425184
       2873.2799      0.19936058
       2873.8771      0.18809931
       2874.4742      0.22878501
       2875.0713      0.20742896
       2875.6685      0.14201694
       2876.2656      0.16317931
       2876.8627      0.16797123
       2877.4599      0.21636531
       2878.0570      0.15853172
       2878.6542      0.16985631
       2879.2513      0.17116376
       2879.8484      0.16730687
       2880.4456      0.17572927
       2881.0427      0.14864367
       2881.6398      0.13498893
       2882.2370      0.13764026
       2882.8341      0.19572607
       2883.4313      0.23557079
       2884.0284      0.21160786
       2884.6255      0.20752585
       2885.2227      0.16014177
       2885.8198      0.16679132
       2886.4170      0.17344500
       2887.0141      0.10585163
       2887.6112      0.16992896
       2888.2084      0.13334943
       2888.8055      0.17566192
       2889.4026      0.20042730
       2889.9998      0.18544954
       2890.5969      0.13845469
       2891.1941      0.19214296
       2891.7912      0.19840940
       2892.3883      0.22784554
       2892.9855      0.16765385
       2893.5826      0.16994161
       2894.1797      0.13690658
       2894.7769      0.18073736
       2895.3740      0.17326584
       2895.9712      0.22650144
       2896.5683      0.22694209
       2897.1654      0.18909223
       2897.7626      0.18204932
       2898.3597      0.14317872
       2898.9569      0.17064781
       2899.5540      0.16909757
       2900.1511      0.18534280
       2900.7483      0.20479873
       2901.3454      0.18674937
       2901.9425      0.18425820
       2902.5397      0.15034068
       2903.1368      0.14967812
       2903.7340      0.16602446
       2904.3311      0.18759810
       2904.9282      0.20045878
       2905.5254      0.19385752
       2906.1225      0.18924829
       2906.7196      0.16703797
       2907.3168      0.19769628
       2907.9139      0.21610712
       2908.5111      0.14990691
       2909.1082      0.15802131
       2909.7053      0.16565616
       2910.3025      0.17116926
       2910.8996      0.20419685
       2911.4968      0.18159138
       2912.0939      0.17685677
       2912.6910      0.13859597
       2913.2882      0.14274252
       2913.8853      0.20066849
       2914.4824      0.14400092
       2915.0796      0.16231686
       2915.6767      0.16920936
       2916.2739      0.14285473
       2916.8710      0.14996644
       2917.4681      0.18751628
       2918.0653      0.16706968
       2918.6624      0.17727538
       2919.2595      0.19818443
       2919.8567      0.23064462
       2920.4538      0.17044648
       2921.0510      0.20223224
       2921.6481      0.16889064
       2922.2452      0.18210656
       2922.8424      0.18819453
       2923.4395      0.15789512
       2924.0367      0.17644882
       2924.6338      0.15984528
       2925.2309      0.20763882
       2925.8281      0.23892195
       2926.4252      0.18658780
       2927.0223      0.13620764
       2927.6195      0.19169602
       2928.2166      0.16885259
       2928.8138      0.17482488
       2929.4109      0.20364138
       2930.0080      0.17867093
       2930.6052      0.18263965
       2931.2023      0.15454177
       2931.7994      0.17750478
       2932.3966      0.13430173
       2932.9937      0.20622329
       2933.5909      0.17694504
       2934.1880      0.15521521
       2934.7851      0.21358751
       2935.3823      0.15701085
       2935.9794      0.18557209
       2936.5766      0.20221022
       2937.1737      0.20736928
       2937.7708      0.20173399
       2938.3680      0.20559366
       2938.9651      0.18729776
       2939.5622      0.16240990
       2940.1594      0.19732032
       2940.7565      0.15347860
       2941.3537      0.17701880
       2941.9508      0.19256496
       2942.5479      0.19391502
       2943.1451      0.18730923
       2943.7422      0.18238721
       2944.3393      0.15458505
       2944.9365      0.18254728
       2945.5336      0.20472612
       2946.1308      0.18261101
       2946.7279      0.17752428
       2947.3250      0.19176749
       2947.9222      0.14658197
       2948.5193      0.14356044
       2949.1165      0.15431597
       2949.7136      0.15789108
       2950.3107      0.13913891
       2950.9079      0.18920808
       2951.5050      0.22061752
       2952.1021      0.17960199
       2952.6993      0.16342740
       2953.2964      0.17970851
       2953.8936      0.22020167
       2954.4907      0.21475245
       2955.0878      0.19076041
       2955.6850      0.17373627
       2956.2821      0.12666672
       2956.8792      0.17112933
       2957.4764      0.15643957
       2958.0735      0.14545222
       2958.6707      0.18329129
       2959.2678      0.19401469
       2959.8649      0.20779840
       2960.4621      0.20064205
       2961.0592      0.14097590
       2961.6564      0.13916612
       2962.2535      0.17424191
       2962.8506      0.14778663
       2963.4478      0.16983251
       2964.0449      0.17827883
       2964.6420      0.15045258
       2965.2392      0.19210950
       2965.8363      0.18644275
       2966.4335      0.15632340
       2967.0306      0.20784161
       2967.6277      0.15720809
       2968.2249      0.17135629
       2968.8220      0.19570620
       2969.4191      0.12445953
       2970.0163      0.12475385
       2970.6134      0.17504695
       2971.2106      0.19320886
       2971.8077      0.17176722
       2972.4048      0.14170725
       2973.0020      0.15478842
       2973.5991      0.13340026
       2974.1963      0.20269683
       2974.7934      0.19727392
       2975.3905      0.20931164
       2975.9877      0.16459576
       2976.5848      0.18004915
       2977.1819      0.21133755
       2977.7791      0.17176814
       2978.3762      0.20388532
       2978.9734      0.21515832
       2979.5705      0.15781818
       2980.1676      0.17539798
       2980.7648      0.19903236
       2981.3619      0.17745179
       2981.9590      0.18136046
       2982.5562      0.18603947
       2983.1533      0.17618257
       2983.7505      0.16599874
       2984.3476      0.19741328
       2984.9447      0.17726377
       2985.5419      0.19352590
       2986.1390      0.17030196
       2986.7362      0.20667203
       2987.3333      0.19606809
       2987.9304      0.14870738
       2988.5276      0.15259445
       2989.1247      0.17440056
       2989.7218      0.14946061
       2990.3190      0.19754033
       2990.9161      0.19497070
       2991.5133      0.16307982
       2992.1104      0.17624350
       2992.7075      0.16761783
       2993.3047     0.099736873
       2993.9018      0.15702901
       2994.4989      0.14196971
       2995.0961      0.18478312
       2995.6932      0.21541503
       2996.2904      0.21020182
       2996.8875      0.20305689
       2997.4846      0.19398786
       2998.0818      0.12968259
       2998.6789      0.12448196
       2999.2761      0.15431307
       2999.8732      0.18515403
       3000.4703      0.16080942
       3001.0675      0.19312844
       3001.6646      0.15059386
       3002.2617      0.17694620
       3002.8589      0.21293881
       3003.4560      0.17489559
       3004.0532      0.16249872
       3004.6503      0.17267475
       3005.2474      0.20311482
       3005.8446      0.15295439
       3006.4417      0.17205961
       3007.0389      0.15175242
       3007.6360      0.21155900
       3008.2331      0.18324913
       3008.8303      0.19995676
       3009.4274      0.19331327
       3010.0245      0.17787899
       3010.6217      0.15216404
       3011.2188      0.19577072
       3011.8160      0.16570887
       3012.4131      0.17841587
       3013.0102      0.17625009
       3013.6074      0.18272423
       3014.2045      0.12776381
       3014.8016      0.14204058
       3015.3988      0.19971491
       3015.9959      0.19999679
       3016.5931      0.15420437
       3017.1902      0.17197964
       3017.7873      0.19366261
       3018.3845      0.18053264
       3018.9816      0.18318271
       3019.5788      0.19190734
       3020.1759      0.17580927
       3020.7730      0.14794042
       3021.3702      0.16696090
       3021.9673      0.13961421
       3022.5644      0.15550626
       3023.1616      0.17589345
       3023.7587      0.15862589
       3024.3559      0.18946602
       3024.9530      0.11311080
       3025.5501      0.13890224
       3026.1473      0.20969500
       3026.7444      0.14604068
       3027.3415      0.16777029
       3027.9387      0.11912550
       3028.5358      0.10860041
       3029.1330      0.13091437
       3029.7301      0.14331149
       3030.3272      0.17358336
       3030.9244      0.16447817
       3031.5215      0.17581334
       3032.1187      0.16727438
       3032.7158      0.14788937
       3033.3129      0.15696861
       3033.9101      0.17515953
       3034.5072      0.16916912
       3035.1043      0.12404759
       3035.7015      0.18742107
       3036.2986      0.10207879
       3036.8958      0.13888371
       3037.4929      0.16690082
       3038.0900      0.18456956
       3038.6872      0.15543080
       3039.2843      0.19772161
       3039.8814      0.20221703
       3040.4786      0.18315586
       3041.0757      0.13323194
       3041.6729      0.18436533
       3042.2700      0.16741138
       3042.8671      0.16510536
       3043.4643      0.15727763
       3044.0614      0.14721863
       3044.6586      0.16794008
       3045.2557      0.13514021
       3045.8528      0.14488580
       3046.4500      0.21633872
       3047.0471      0.17627166
       3047.6442      0.12211507
       3048.2414      0.16351713
       3048.8385      0.16176175
       3049.4357      0.18240447
       3050.0328      0.14961615
       3050.6299      0.19391444
       3051.2271      0.16870306
       3051.8242      0.16491285
       3052.4213      0.16905932
       3053.0185      0.14754083
       3053.6156      0.21294596
       3054.2128      0.17665450
       3054.8099      0.13628711
       3055.4070      0.13187635
       3056.0042      0.23530353
       3056.6013      0.16480485
       3057.1985     0.082483206
       3057.7956    -0.027753851
       3058.3927    -0.037645334
       3058.9899     0.060131376
       3059.5870      0.11386589
       3060.1841      0.11280922
       3060.7813     0.073898818
       3061.3784     0.079509850
       3061.9756      0.10890267
       3062.5727      0.16807575
       3063.1698      0.10722682
       3063.7670      0.11640157
       3064.3641      0.14461205
       3064.9612      0.11941875
       3065.5584      0.13008037
       3066.1555     0.097545917
       3066.7527      0.12311899
       3067.3498      0.14045283
       3067.9469      0.12393477
       3068.5441      0.14233805
       3069.1412     0.078512380
       3069.7384      0.13576245
       3070.3355      0.13419265
       3070.9326     0.084608921
       3071.5298      0.11889623
       3072.1269      0.12238239
       3072.7240      0.11410942
       3073.3212     0.075556577
       3669.8367      0.39948040
       3670.4880      0.70921651
       3671.1394      0.60850938
       3671.7907      0.45099198
       3672.4421      0.31603134
       3673.0934      0.39683607
       3673.7448      0.37193670
       3674.3961      0.28254342
       3675.0475      0.28743994
       3675.6988      0.31929446
       3676.3502     0.059601299
       3677.0015      0.17356917
       3677.6529      0.31001590
       3678.3042      0.30900908
       3678.9556      0.23944741
       3679.6069      0.23522602
       3680.2583      0.43774472
       3680.9096      0.40708098
       3681.5610      0.31976144
       3682.2123      0.36096195
       3682.8637      0.42097403
       3683.5151      0.31581680
       3684.1664      0.38276704
       3684.8178      0.42606280
       3685.4691      0.42899780
       3686.1205      0.35847743
       3686.7718      0.44781723
       3687.4232      0.27195135
       3688.0745      0.31947664
       3688.7259      0.34934318
       3689.3772      0.28074606
       3690.0286      0.36664500
       3690.6799      0.25492579
       3691.3313      0.25104411
       3691.9826      0.22525388
       3692.6340      0.25816281
       3693.2853      0.32802041
       3693.9367      0.27851667
       3694.5880      0.29466343
       3695.2394      0.34581566
       3695.8907      0.50636988
       3696.5421      0.42020462
       3697.1934      0.33311108
       3697.8448      0.43123236
       3698.4961      0.49116311
       3699.1475      0.36112814
       3699.7988      0.40605300
       3700.4502      0.39387978
       3701.1015      0.30449562
       3701.7529      0.37841878
       3702.4042      0.39249338
       3703.0556      0.43004684
       3703.7069      0.44922457
       3704.3583      0.35120266
       3705.0096      0.35533360
       3705.6610      0.30095663
       3706.3123      0.36444695
       3706.9637      0.37002246
       3707.6150      0.46347317
       3708.2664      0.33912151
       3708.9177      0.39848602
       3709.5691      0.37566691
       3710.2204      0.49656049
       3710.8718      0.50648298
       3711.5231      0.40632186
       3712.1745      0.35842869
       3712.8258      0.37350390
       3713.4772      0.32340312
       3714.1285      0.28881385
       3714.7799      0.38495262
       3715.4312      0.41473098
       3716.0826      0.39880033
       3716.7339      0.33059511
       3717.3853      0.32607146
       3718.0366      0.43177030
       3718.6880      0.43937223
       3719.3393      0.46731759
       3719.9907      0.47743672
       3720.6420      0.80948501
       3721.2934       1.2384290
       3721.9447       1.7754392
       3722.5961       2.1817568
       3723.2474       2.5880963
       3723.8988       2.8721630
       3724.5501       3.3108557
       3725.2015       3.7904200
       3725.8529       4.0294915
       3726.5042       3.9890721
       3727.1556       3.7583463
       3727.8069       3.6587585
       3728.4583       3.3949236
       3729.1096       3.5176580
       3729.7610       3.5582339
       3730.4123       3.3988001
       3731.0637       3.1732118
       3731.7150       2.9946512
       3732.3664       2.5525682
       3733.0177       2.1329235
       3733.6691       1.7197848
       3734.3204       1.1607632
       3734.9718      0.70095772
       3735.6231      0.54616083
       3736.2745      0.42499243
       3736.9258      0.33128217
       3737.5772      0.24737154
       3738.2285      0.28828012
       3738.8799      0.35611226
       3739.5312      0.32224040
       3740.1826      0.29766487
       3740.8339      0.29652410
       3741.4853      0.24320812
       3742.1366      0.27425715
       3742.7880      0.33039979
       3743.4393      0.41376394
       3744.0907      0.26145259
       3744.7420      0.31177679
       3745.3934      0.37805770
       3746.0447      0.50192436
       3746.6961      0.65035597
       3747.3474      0.84879463
       3747.9988      0.75110130
       3748.6501      0.63507803
       3749.3015      0.31370693
       3749.9528      0.46943096
       3750.6042      0.42493548
       3751.2555      0.17440589
       3751.9069      0.23798439
       3752.5582      0.22367810
       3753.2096      0.10729907
       3753.8609     0.045665545
       3754.5123      0.18427480
       3755.1636      0.21909999
       3755.8150      0.26067805
       3756.4663      0.29987094
       3757.1177      0.41861227
       3757.7690      0.39196210
       3758.4204      0.35744670
       3759.0717      0.38316454
       3759.7231      0.45537730
       3760.3744      0.42960611
       3761.0258      0.46494129
       3761.6771      0.43119702
       3762.3285      0.43112923
       3762.9798      0.44488043
       3763.6312      0.41131357
       3764.2825      0.41641402
       3764.9339      0.38244410
       3765.5852      0.47577584
       3766.2366      0.61922260
       3766.8879      0.90851233
       3767.5393       1.1120285
       3768.1906       1.0488622
       3768.8420      0.71349925
       3769.4934      0.39184180
       3770.1447      0.33288048
       3770.7961  -0.00057280905
       3771.4474    -0.046531669
       3772.0988    0.0019920083
       3772.7501      0.11295722
       3773.4015      0.28463740
       3774.0528      0.20513116
       3774.7042      0.20415908
       3775.3555      0.20218674
       3776.0069      0.33267442
       3776.6582      0.35532500
       3777.3096      0.32379383
       3777.9609      0.36997382
       3778.6123      0.50754038
       3779.2636      0.36664338
       3779.9150      0.36460789
       3780.5663      0.40703014
       3781.2177      0.42668909
       3781.8690      0.42055882
       3782.5204      0.43046990
       3783.1717      0.52586229
       3783.8231      0.47941878
       3784.4744      0.44753091
       3785.1258      0.35736622
       3785.7771      0.29301094
       3786.4285      0.35701348
       3787.0798      0.47085434
       3787.7312      0.52553268
       3788.3825      0.50643787
       3789.0339      0.40162114
       3789.6852      0.45171633
       3790.3366      0.29535725
       3790.9879      0.20145510
       3791.6393      0.22095507
       3792.2906      0.23026626
       3792.9420      0.23485674
       3793.5933      0.25936063
       3794.2447      0.36702426
       3794.8960      0.51225681
       3795.5474      0.53448012
       3796.1987      0.52906770
       3796.8501      0.44945788
       3797.5014      0.38760897
       3798.1528      0.26980293
       3798.8041      0.13285865
       3799.4555      0.13592520
       3800.1068      0.33385187
       3800.7582      0.57708761
       3801.4095      0.67640154
       3802.0609      0.59491010
       3802.7122      0.53972925
       3803.3636      0.47484436
       3804.0149      0.17901821
       3804.6663      0.15107131
       3805.3176    -0.018188426
       3805.9690      0.18474115
       3806.6203      0.28001228
       3807.2717      0.35510581
       3807.9230      0.40234044
       3808.5744      0.39941444
       3809.2257      0.56456893
       3809.8771      0.61310351
       3810.5284      0.60899539
       3811.1798      0.52740214
       3811.8312      0.50993434
       3812.4825      0.45117588
       3813.1339      0.38607852
       3813.7852      0.33874963
       3814.4366      0.35472042
       3815.0879      0.65890188
       3815.7393      0.77800241
       3816.3906      0.74330618
       3817.0420      0.80164419
       3817.6933      0.58180168
       3818.3447      0.42422400
       3818.9960      0.32440991
       3819.6474     0.060527122
       3820.2987      0.14483501
       3820.9501      0.25207293
       3821.6014      0.47262998
       3822.2528      0.44648381
       3822.9041      0.46275792
       3823.5555      0.38027722
       3824.2068      0.47231863
       3824.8582      0.53027294
       3825.5095      0.42370952
       3826.1609      0.41725212
       3826.8122      0.48065418
       3827.4636      0.52010736
       3828.1149      0.56199485
       3828.7663      0.68315614
       3829.4176      0.63511452
       3830.0690      0.52020941
       3830.7203      0.47831138
       3831.3717      0.46015924
       3832.0230      0.50203909
       3832.6744      0.63996230
       3833.3257      0.52641123
       3833.9771      0.50449922
       3834.6284      0.46674158
       3835.2798      0.37742979
       3835.9311      0.36416526
       3836.5825      0.33666329
       3837.2338      0.35959470
       3837.8852      0.36608489
       3838.5365      0.36351613
       3839.1879      0.40674628
       3839.8392      0.35416034
       3840.4906      0.35631861
       3841.1419      0.41080606
       3841.7933      0.39999916
       3842.4446      0.46313293
       3843.0960      0.37650078
       3843.7473      0.43847458
       3844.3987      0.49232694
       3845.0500      0.41798733
       3845.7014      0.39307975
       3846.3527      0.41788349
       3847.0041      0.42917124
       3847.6554      0.51320619
       3848.3068      0.51862316
       3848.9581      0.50070342
       3849.6095      0.46691190
       3850.2608      0.50801590
       3850.9122      0.61490930
       3851.5635      0.53681685
       3852.2149      0.52200017
       3852.8662      0.44986914
       3853.5176      0.42881203
       3854.1690      0.47254131
       3854.8203      0.39849182
       3855.4717      0.35327997
       3856.1230      0.43698895
       3856.7744      0.45687889
       3857.4257      0.38248872
       3858.0771      0.46350993
       3858.7284      0.44500568
       3859.3798      0.41590849
       3860.0311      0.41533352
       3860.6825      0.38682437
       3861.3338      0.48219229
       3861.9852      0.47686903
       3862.6365      0.39157082
       3863.2879      0.38841474
       3863.9392      0.39591831
       3864.5906      0.42952073
       3865.2419      0.42581948
       3865.8933      0.54351336
       3866.5446      0.50134455
       3867.1960      0.53466213
       3867.8473      0.47488117
       3868.4987      0.68322214
       3869.1500      0.81728478
       3869.8014      0.87819586
       3870.4527      0.90906697
       3871.1041       1.0217201
       3871.7554       1.1149494
       3872.4068       1.0607593
       3873.0581      0.93786571
       3873.7095      0.91049920
       3874.3608      0.80459405
       3875.0122      0.57037178
       3875.6635      0.62221480
       3876.3149      0.60994590
       3876.9662      0.54077817
       3877.6176      0.57378547
       3878.2689      0.55870661
       3878.9203      0.41970578
       3879.5716      0.51111040
       3880.2230      0.56298087
       3880.8743      0.48704114
       3881.5257      0.45144101
       3882.1770      0.43380187
       3882.8284      0.46078796
       3883.4797      0.48768302
       3884.1311      0.38367020
       3884.7824      0.36532364
       3885.4338      0.48165890
       3886.0851      0.41593597
       3886.7365      0.38259943
       3887.3878      0.36167479
       3888.0392      0.50384782
       3888.6905      0.51846958
       3889.3419      0.51615977
       3889.9932      0.54996820
       3890.6446      0.61811183
       3891.2959      0.71472772
       3891.9473      0.76409994
       3892.5986      0.71945844
       3893.2500      0.69609071
       3893.9013      0.63192758
       3894.5527      0.61057650
       3895.2040      0.60276205
       3895.8554      0.65846046
       3896.5067      0.62004151
       3897.1581      0.56605880
       3897.8095      0.60877108
       3898.4608      0.54385452
       3899.1122      0.54135588
       3899.7635      0.51247858
       3900.4149      0.49121698
       3901.0662      0.44674523
       3901.7176      0.48932769
       3902.3689      0.42066351
       3903.0203      0.47903413
       3903.6716      0.46208974
       3904.3230      0.46523128
       3904.9743      0.52821617
       3905.6257      0.47448177
       3906.2770      0.31646910
       3906.9284      0.44312918
       3907.5797      0.48602429
       3908.2311      0.47797273
       3908.8824      0.47650224
       3909.5338      0.41024427
       3910.1851      0.53117361
       3910.8365      0.45186782
       3911.4878      0.44345461
       3912.1392      0.44344026
       3912.7905      0.44291691
       3913.4419      0.42253741
       3914.0932      0.44102282
       3914.7446      0.34731393
       3915.3959      0.37120619
       3916.0473      0.47662917
       3916.6986      0.56068524
       3917.3500      0.49758841
       3918.0013      0.39326601
       3918.6527      0.45206624
       3919.3040      0.45190918
       3919.9554      0.50283795
       3920.6067      0.46488382
       3921.2581      0.48304797
       3921.9094      0.36728673
       3922.5608      0.33377493
       3923.2121      0.40572681
       3923.8635      0.42631128
       3924.5148      0.50572097
       3925.1662      0.53329260
       3925.8175      0.52268484
       3926.4689      0.50347681
       3927.1202      0.52154088
       3927.7716      0.47474053
       3928.4229      0.52272581
       3929.0743      0.48004728
       3929.7256      0.42161898
       3930.3770      0.40069718
       3931.0283      0.58122650
       3931.6797      0.61201928
       3932.3310      0.54968625
       3932.9824      0.42052834
       3933.6337      0.32970508
       3934.2851      0.33739200
       3934.9364      0.29483306
       3935.5878      0.28839672
       3936.2391      0.31618922
       3936.8905      0.42087323
       3937.5418      0.40817007
       3938.1932      0.49695274
       3938.8445      0.49141546
       3939.4959      0.36643305
       3940.1473      0.35028586
       3940.7986      0.43633123
       3941.4500      0.40029731
       3942.1013      0.40959162
       3942.7527      0.37189372
       3943.4040      0.39388577
       3944.0554      0.38081433
       3944.7067      0.29920955
       3945.3581      0.27643294
       3946.0094      0.27276261
       3946.6608      0.40909520
       3947.3121      0.49202235
       3947.9635      0.49636333
       3948.6148      0.56940111
       3949.2662      0.45430457
       3949.9175      0.51025576
       3950.5689      0.43539937
       3951.2202      0.50832661
       3951.8716      0.54505869
       3952.5229      0.51047642
       3953.1743      0.48625498
       3953.8256      0.54104669
       3954.4770      0.52702793
       3955.1283      0.50745332
       3955.7797      0.56471911
       3956.4310      0.52467645
       3957.0824      0.61101333
       3957.7337      0.53858670
       3958.3851      0.60014917
       3959.0364      0.52837218
       3959.6878      0.49183830
       3960.3391      0.46798588
       3960.9905      0.48659638
       3961.6418      0.48705788
       3962.2932      0.50486388
       3962.9445      0.45878222
       3963.5959      0.44407692
       3964.2472      0.56263731
       3964.8986      0.59497235
       3965.5499      0.56107786
       3966.2013      0.39595968
       3966.8526      0.46248264
       3967.5040      0.50201151
       3968.1553      0.52990677
       3968.8067      0.46452222
       3969.4580      0.53117688
       3970.1094      0.59573104
       3970.7607      0.57078154
       3971.4121      0.58308532
       3972.0634      0.60483958
       3972.7148      0.63345764
       3973.3661      0.72410410
       3974.0175      0.58146619
       3974.6688      0.67278150
       3975.3202      0.76701765
       3975.9715      0.63140653
       3976.6229      0.56289435
       3977.2742      0.51257152
       3977.9256      0.48891710
       3978.5769      0.45205902
       3979.2283      0.64409443
       3979.8796      0.87171069
       3980.5310       1.3877731
       3981.1823       1.5347542
       3981.8337       1.0651698
       3982.4850       1.1141900
       3983.1364      0.98122776
       3983.7878      0.67086858
       3984.4391      0.15156577
       3985.0905    -0.024169969
       3985.7418      0.37199095
       3986.3932      0.12819326
       3987.0445     -0.33362482
       3987.6959     -0.38367501
       3988.3472      0.14327904
       3988.9986      0.39040208
       3989.6499      0.54620742
       3990.3013      0.51152160
       3990.9526      0.38566569
       3991.6040      0.33053748
       3992.2553      0.19822352
       3992.9067      0.23850379
       3993.5580      0.31431982
       3994.2094      0.45730051
       3994.8607      0.43968638
       3995.5121      0.46634819
       3996.1634      0.45986874
       3996.8148      0.43841072
       3997.4661      0.44572280
       3998.1175      0.51327390
       3998.7688      0.46010823
       3999.4202      0.59489312
       4000.0715       1.0235387
       4000.7229       1.3682260
       4001.3742       1.6649938
       4002.0256       1.3415729
       4002.6769      0.70867052
       4003.3283      0.54233817
       4003.9796      0.17348345
       4004.6310     -0.40872499
       4005.2823     -0.33381919
       4005.9337      0.19083193
       4006.5850      0.46544563
       4007.2364      0.17242034
       4007.8877      0.32238652
       4008.5391      0.29307678
       4009.1904   -0.0011348290
       4009.8418     0.066733378
       4010.4931      0.20360093
       4011.1445      0.42246073
       4011.7958      0.54537588
       4012.4472      0.63824822
       4013.0985      0.56913321
       4013.7499      0.46594790
       4014.4012      0.31825798
       4015.0526      0.50334297
       4015.7039      0.49372334
       4016.3553      0.74206888
       4017.0066      0.63249015
       4017.6580      0.61497164
       4018.3093      0.55272747
       4018.9607      0.30843948
       4019.6120      0.41138547
       4020.2634      0.34801156
       4020.9147      0.31074693
       4021.5661      0.41137061
       4022.2174      0.70957475
       4022.8688       1.1384622
       4023.5201       1.1551969
       4024.1715       1.0955976
       4024.8228      0.92537205
       4025.4742      0.48415365
       4026.1256      0.22704887
       4026.7769     -0.17187886
       4027.4283     -0.33432340
       4028.0796     -0.16222671
       4028.7310      0.14303228
       4029.3823      0.37606657
       4030.0337      0.65449473
       4030.6850      0.57122445
       4031.3364      0.45162514
       4031.9877      0.53336265
       4032.6391      0.67586788
       4033.2904      0.75776069
       4033.9418      0.37982386
       4034.5931    0.0085315787
       4035.2445     0.043800212
       4035.8958      0.42496977
       4036.5472       1.0407678
       4037.1985       1.5830533
       4037.8499       1.4955074
       4038.5012       1.1039780
       4039.1526      0.97783480
       4039.8039      0.67867867
       4040.4553     0.032039056
       4041.1066     -0.60735308
       4041.7580     -0.49055768
       4042.4093    -0.079720775
       4043.0607      0.27175045
       4043.7120      0.35902034
       4044.3634      0.35418114
       4045.0147      0.41430855
       4045.6661      0.47960251
       4046.3174      0.57755445
       4046.9688      0.80079048
       4047.6201      0.95169292
       4048.2715      0.73183899
       4048.9228      0.57815861
       4049.5742      0.53065498
       4050.2255      0.29607948
       4050.8769     0.053759042
       4051.5282      0.10251738
       4052.1796      0.51925021
       4052.8309       1.0620413
       4053.4823       1.4263313
       4054.1336       1.2546334
       4054.7850      0.86993481
       4055.4363      0.65495074
       4056.0877     0.095141191
       4056.7390     -0.26625284
       4057.3904     -0.49739968
       4058.0417     -0.24805357
       4058.6931      0.10987123
       4059.3444      0.34225479
       4059.9958      0.45779603
       4060.6471      0.43590607
       4061.2985      0.43043775
       4061.9498      0.46404283
       4062.6012      0.55743896
       4063.2525      0.53462934
       4063.9039      0.51979707
       4064.5552      0.53415269
       4065.2066      0.62066358
       4065.8579      0.90100356
       4066.5093      0.83324520
       4067.1606      0.73429411
       4067.8120      0.56069602
       4068.4634      0.45033128
       4069.1147      0.39374164
       4069.7661      0.21580131
       4070.4174      0.27774128
       4071.0688      0.71619853
       4071.7201      0.94703026
       4072.3715      0.97981505
       4073.0228      0.74453159
       4073.6742      0.53390646
       4074.3255      0.27866968
       4074.9769     -0.20690649
       4075.6282     -0.29137018
       4076.2796    -0.097029384
       4076.9309      0.25457108
       4077.5823      0.31313355
       4078.2336      0.36972706
       4078.8850      0.46957166
       4079.5363      0.55295450
       4080.1877      0.54878966
       4080.8390      0.44196378
       4081.4904      0.40067129
       4082.1417      0.40160249
       4082.7931      0.55396025
       4083.4444      0.58130940
       4084.0958      0.39787243
       4084.7471      0.45632301
       4085.3985      0.49923044
       4086.0498      0.55905502
       4086.7012      0.67757155
       4087.3525      0.72770816
       4088.0039      0.57949127
       4088.6552      0.39603848
       4089.3066      0.44504069
       4089.9579      0.45829141
       4090.6093      0.36734470
       4091.2606      0.40181971
       4091.9120      0.50736273
       4092.5633      0.72542418
       4093.2147      0.58581188
       4093.8660      0.58105980
       4094.5174      0.46141702
       4095.1687      0.30336200
       4095.8201      0.29252331
       4096.4714      0.30985692
       4097.1228      0.28142868
       4097.7741      0.38271775
       4098.4255      0.40832961
       4099.0768      0.44878004
       4099.7282      0.54718868
       4100.3795      0.54592445
       4101.0309      0.50188353
       4101.6822      0.54317372
       4102.3336      0.45259049
       4102.9849      0.49174060
       4103.6363      0.58060328
       4104.2876      0.58856208
       4104.9390      0.52897204
       4105.5903      0.50541999
       4106.2417      0.54655288
       4106.8930      0.52503379
       4107.5444      0.51110111
       4108.1957      0.81078923
       4108.8471      0.69286329
       4109.4984      0.93033361
       4110.1498       1.0446711
       4110.8011       1.0134830
       4111.4525      0.99015055
       4112.1039      0.78345725
       4112.7552      0.61170594
       4113.4066      0.66513071
       4114.0579      0.58003934
       4114.7093      0.59462098
       4115.3606      0.68798784
       4116.0120      0.69220731
       4116.6633      0.76512843
       4117.3147      0.79620312
       4117.9660      0.70415547
       4118.6174      0.54575826
       4119.2687      0.37639944
       4119.9201      0.27773262
       4120.5714     0.026766367
       4121.2228     0.010924656
       4121.8741      0.22098550
       4122.5255      0.41090415
       4123.1768      0.40556866
       4123.8282      0.47761471
       4124.4795      0.49378838
       4125.1309      0.43534851
       4125.7822      0.39220537
       4126.4336      0.40252650
       4127.0849      0.45919190
       4127.7363      0.39751668
       4128.3876      0.41380431
       4129.0390      0.47671034
       4129.6903      0.50427668
       4130.3417      0.49832086
       4130.9930      0.43017952
       4131.6444      0.50318713
       4132.2957      0.42895045
       4132.9471      0.47792274
       4133.5984      0.54002801
       4134.2498      0.50093687
       4134.9011      0.53647356
       4135.5525      0.56330951
       4136.2038      0.55544644
       4136.8552      0.55225366
       4137.5065      0.49787110
       4138.1579      0.60771206
       4138.8092      0.79983294
       4139.4606      0.83407293
       4140.1119      0.93799261
       4140.7633      0.98422518
       4141.4146      0.69255244
       4142.0660      0.48739284
       4142.7173      0.24082355
       4143.3687     0.059830854
       4144.0200    -0.021670264
       4144.6714      0.22465897
       4145.3227      0.30824918
       4145.9741      0.32009863
       4146.6254      0.40662593
       4147.2768      0.38484624
       4147.9281      0.35948779
       4148.5795      0.55501174
       4149.2308      0.48497110
       4149.8822      0.51238146
       4150.5335      0.48199237
       4151.1849      0.47670011
       4151.8362      0.52313271
       4152.4876      0.53371820
       4153.1389      0.45024041
       4153.7903      0.53320884
       4154.4417      0.49697581
       4155.0930      0.50632506
       4155.7444      0.47892975
       4156.3957      0.46748287
       4157.0471      0.49671115
       4157.6984      0.52999976
       4158.3498      0.59155546
       4159.0011      0.60931344
       4159.6525      0.44558954
       4160.3038      0.53205930
       4160.9552      0.46309096
       4161.6065      0.48873453
       4162.2579      0.40735773
       4162.9092      0.30658527
       4163.5606      0.38128532
       4164.2119      0.47875662
       4164.8633      0.54760770
       4165.5146      0.56526750
       4166.1660      0.84197309
       4166.8173      0.98438829
       4167.4687      0.86662923
       4168.1200      0.69689127
       4168.7714      0.66159143
       4169.4227      0.33531911
       4170.0741      0.12188483
       4170.7254      0.18249105
       4171.3768      0.18009710
       4172.0281      0.33869037
       4172.6795      0.52008194
       4173.3308      0.48580242
       4173.9822      0.62064586
       4174.6335      0.66433617
       4175.2849      0.62372109
       4175.9362      0.58163491
       4176.5876      0.55031775
       4177.2389      0.38577251
       4177.8903      0.38039455
       4178.5416      0.39604895
       4179.1930      0.46335249
       4179.8443      0.53719876
       4180.4957      0.41019829
       4181.1470      0.58376103
       4181.7984      0.42286008
       4182.4497      0.35689664
       4183.1011      0.29709657
       4183.7524      0.36409438
       4184.4038             NaN
       4185.0551             NaN
       4185.7065             NaN
       4186.3578             NaN
       4187.0092             NaN
       4187.6605             NaN
       4188.3119             NaN
       4188.9632             NaN
       4189.6146             NaN
       4190.2659             NaN
       4190.9173             NaN
       4191.5686             NaN
       4192.2200             NaN
       4192.8713             NaN
       4193.5227             NaN
       4194.1740             NaN
       4194.8254             NaN
       4195.4767             NaN
       4196.1281             NaN
       4196.7795             NaN
       4197.4308             NaN
       4198.0822             NaN
       4198.7335             NaN
       4199.3849             NaN
       4200.0362             NaN
       4200.6876             NaN
       4201.3389             NaN
       4201.9903             NaN
       4202.6416             NaN
       4203.2930             NaN
       4203.9443             NaN
       4204.5957             NaN
       4205.2470             NaN
       4205.8984             NaN
       4206.5497             NaN
       4207.2011             NaN
       4207.8524             NaN
       4208.5038             NaN
       4209.1551             NaN
       4209.8065             NaN
       4210.4578             NaN
       4211.1092             NaN
       4211.7605             NaN
       4212.4119             NaN
       4213.0632             NaN
       4213.7146             NaN
       4214.3659             NaN
       4215.0173             NaN
       4215.6686             NaN
       4216.3200             NaN
       4216.9713             NaN
       4217.6227             NaN
       4218.2740             NaN
       4218.9254             NaN
       4219.5767             NaN
       4220.2281             NaN
       4220.8794             NaN
       4221.5308             NaN
       4222.1821             NaN
       4222.8335             NaN
       4223.4848             NaN
       4224.1362             NaN
       4224.7875             NaN
       4225.4389             NaN
       4226.0902             NaN
       4226.7416             NaN
       4227.3929             NaN
       4228.0443             NaN
       4228.6956             NaN
       4229.3470             NaN
       4229.9983             NaN
       4230.6497             NaN
       4231.3010             NaN
       4231.9524             NaN
       4232.6037             NaN
       4233.2551             NaN
       4233.9064             NaN
       4234.5578             NaN
       4235.2091             NaN
       4235.8605             NaN
       4236.5118             NaN
       4237.1632             NaN
       4237.8145             NaN
       4238.4659             NaN
       4239.1172             NaN
       4239.7686             NaN
       4240.4200             NaN
       4241.0713             NaN
       4241.7227             NaN
       4242.3740             NaN
       4243.0254      0.54083534
       4243.6767      0.62555534
       4244.3281       1.0111024
       4244.9794       1.8277815
       4245.6308       1.9100774
       4246.2821       1.7163837
       4246.9335       2.2360636
       4247.5848       1.8656271
       4248.2362       1.2789461
       4248.8875      0.34343758
       4249.5389     -0.20707864
       4250.1902     -0.41081455
       4250.8416     -0.60413064
       4251.4929     -0.53940034
       4252.1443     -0.25282735
       4252.7956      0.17989135
       4253.4470     0.034282548
       4254.0983      0.29285676
       4254.7497      0.26685441
       4255.4010      0.19869213
       4256.0524     0.078290925
       4256.7037     0.072176434
       4257.3551      0.33840889
       4258.0064      0.50630564
       4258.6578      0.70340840
       4259.3091      0.64222751
       4259.9605      0.63088061
       4260.6118      0.68296012
       4261.2632      0.52848025
       4261.9145      0.44112938
       4262.5659      0.49546698
       4263.2172      0.48169264
       4263.8686      0.46674140
       4264.5199      0.63965759
       4265.1713       1.4014303
       4265.8226       2.7484245
       4266.4740       2.7052355
       4267.1253       2.3746749
       4267.7767       1.8497155
       4268.4280       1.1785743
       4269.0794      0.70546798
       4269.7307     -0.19378421
       4270.3821     -0.76624822
       4271.0334    -0.056507060
       4271.6848      0.74589836
       4272.3361      0.76465345
       4272.9875      0.40970813
       4273.6388      0.31792500
       4274.2902      0.26826887
       4274.9415     -0.15355946
       4275.5929     -0.12109754
       4276.2442     0.024207742
       4276.8956      0.18005391
       4277.5469      0.32779013
       4278.1983      0.49040475
       4278.8496      0.59452415
       4279.5010      0.46371349
       4280.1523      0.53738744
       4280.8037      0.56798591
       4281.4550      0.45249834
       4282.1064      0.53550129
       4282.7578      0.79886085
       4283.4091      0.56195724
       4284.0605      0.52332542
       4284.7118      0.47702418
       4285.3632      0.49235382
       4286.0145      0.38623190
       4286.6659      0.19742295
       4287.3172      0.15403640
       4287.9686      0.24495499
       4288.6199      0.43511723
       4289.2713      0.68257213
       4289.9226       1.2736079
       4290.5740       1.3966505
       4291.2253       1.3092613
       4291.8767       1.1582982
       4292.5280      0.55851174
       4293.1794      0.25451077
       4293.8307     -0.48061872
       4294.4821     -0.71858602
       4295.1334     -0.31568935
       4295.7848    -0.076206229
       4296.4361      0.18058897
       4297.0875      0.33092580
       4297.7388      0.65702797
       4298.3902       1.0325095
       4299.0415      0.96811869
       4299.6929      0.87260686
       4300.3442      0.83983588
       4300.9956      0.59712937
       4301.6469     0.079431333
       4302.2983     0.035427704
       4302.9496      0.28240169
       4303.6010      0.42172728
       4304.2523      0.66128509
       4304.9037       1.2923559
       4305.5550       2.0034204
       4306.2064       2.6427029
       4306.8577       2.7490207
       4307.5091       2.8019154
       4308.1604       2.1344908
       4308.8118      0.38976478
       4309.4631     -0.58539431
       4310.1145     -0.51726249
       4310.7658     -0.11540097
       4311.4172      0.12464471
       4312.0685      0.30845671
       4312.7199      0.46351325
       4313.3712      0.42862293
       4314.0226      0.45915546
       4314.6739      0.47500728
       4315.3253      0.83208704
       4315.9766       1.2032133
       4316.6280       1.6006370
       4317.2793       1.4683529
       4317.9307       1.2513567
       4318.5820       1.1186633
       4319.2334      0.93222630
       4319.8847      0.65642288
       4320.5361      0.44971234
       4321.1874      0.68327573
       4321.8388      0.88501340
       4322.4901       1.4573655
       4323.1415       2.0262111
       4323.7928       2.0866258
       4324.4442       1.7352984
       4325.0956       1.1242693
       4325.7469       1.2266645
       4326.3983      0.46367159
       4327.0496     -0.11474019
       4327.7010    -0.061015940
       4328.3523      0.48983769
       4329.0037      0.40515266
       4329.6550      0.47079049
       4330.3064      0.28812485
       4330.9577      0.34173345
       4331.6091      0.52871148
       4332.2604       1.0103117
       4332.9118       1.3431305
       4333.5631       1.1878330
       4334.2145      0.94527065
       4334.8658      0.62938044
       4335.5172      0.57125184
       4336.1685      0.33555045
       4336.8199      0.22281074
       4337.4712      0.50504996
       4338.1226      0.65565958
       4338.7739      0.91657070
       4339.4253      0.75288351
       4340.0766      0.89081044
       4340.7280      0.53325325
       4341.3793      0.39244811
       4342.0307      0.57342451
       4342.6820      0.66099561
       4343.3334      0.91331646
       4343.9847      0.91447298
       4344.6361       1.1063964
       4345.2874      0.63676253
       4345.9388      0.77458282
       4346.5901      0.30991151
       4347.2415    -0.031675428
       4347.8928     0.038441308
       4348.5442      0.33648437
       4349.1955      0.39232478
       4349.8469      0.56263347
       4350.4982      0.81796279
       4351.1496       1.0145718
       4351.8009       1.2035032
       4352.4523       1.2126297
       4353.1036       1.2792496
       4353.7550       1.1063402
       4354.4063       1.0797566
       4355.0577      0.96212997
       4355.7090       1.3082014
       4356.3604       2.2397662
       4357.0117       2.6915289
       4357.6631       2.0532782
       4358.3144       1.7406776
       4358.9658       1.2447870
       4359.6171      0.54671511
       4360.2685      0.14225171
       4360.9198     0.016722675
       4361.5712      0.34037954
       4362.2225      0.51169894
       4362.8739      0.51388563
       4363.5252      0.23850289
       4364.1766     -0.10772179
       4364.8279    -0.042595378
       4365.4793      0.13143157
       4366.1306      0.52440500
       4366.7820      0.61649050
       4367.4333      0.75389217
       4368.0847      0.75739663
       4368.7361      0.58326989
       4369.3874      0.28605060
       4370.0388      0.15030906
       4370.6901    0.0059031338
       4371.3415   -0.0076305356
       4371.9928      0.17078631
       4372.6442      0.35111264
       4373.2955      0.46177027
       4373.9469      0.40536808
       4374.5982      0.48446823
       4375.2496      0.62867311
       4375.9009      0.83953352
       4376.5523      0.86698376
       4377.2036      0.86994075
       4377.8550      0.66202717
       4378.5063      0.57683697
       4379.1577      0.62368568
       4379.8090      0.21783308
       4380.4604      0.26010178
       4381.1117      0.21429511
       4381.7631      0.41776216
       4382.4144      0.59055159
       4383.0658      0.61896621
       4383.7171      0.82764334
       4384.3685       1.6363551
       4385.0198       2.6267495
       4385.6712       2.7879766
       4386.3225       2.4534461
       4386.9739       1.9582574
       4387.6252       1.4901891
       4388.2766      0.25149489
       4388.9279     -0.41377053
       4389.5793     -0.23127876
       4390.2306    -0.018599381
       4390.8820     0.084037398
       4391.5333      0.39070890
       4392.1847      0.56498235
       4392.8360      0.98385643
       4393.4874       1.2157693
       4394.1387       1.1340564
       4394.7901      0.82843458
       4395.4414      0.55920582
       4396.0928      0.43619252
       4396.7441      0.19082551
       4397.3955     0.039744198
       4398.0468      0.12616535
       4398.6982      0.18972706
       4399.3495      0.30602638
       4400.0009      0.73708036
       4400.6522       1.5269249
       4401.3036       1.5002458
       4401.9549       1.5124299
       4402.6063       1.0764424
       4403.2576      0.56591362
       4403.9090      -1.6775332
       4404.5603      -3.1284536
       4405.2117      -2.3744411
       4405.8630      -1.4350537
       4406.5144     -0.90975684
       4407.1657      -1.1014248
       4407.8171      -1.3431932
       4408.4684      -1.3364367
       4409.1198     -0.54368859
       4409.7711     -0.26506852
       4410.4225      0.22591421
       4411.0739      0.36743112
       4411.7252      0.48598335
       4412.3766      0.54591434
       4413.0279      0.60743262
       4413.6793      0.51784918
       4414.3306      0.50971011
       4414.9820      0.58684333
       4415.6333      0.25628149
       4416.2847      0.19894487
       4416.9360     0.072904293
       4417.5874      0.50518857
       4418.2387      0.93767461
       4418.8901       1.1198363
       4419.5414      0.51674612
       4420.1928     -0.20371892
       4420.8441     -0.23627297
       4421.4955      0.34235684
       4422.1468     -0.18035587
       4422.7982     -0.47294182
       4423.4495     -0.42283160
       4424.1009     -0.19093181
       4424.7522    -0.023590270
       4425.4036      0.13539624
       4426.0549      0.19566839
       4426.7063      0.45355550
       4427.3576      0.55146780
       4428.0090      0.55226263
       4428.6603      0.52578119
       4429.3117      0.50300145
       4429.9630      0.54779622
       4430.6144      0.50093589
       4431.2657      0.48239013
       4431.9171      0.63451728
       4432.5684      0.53244849
       4433.2198      0.71710104
       4433.8711      0.65139943
       4434.5225      0.74711172
       4435.1738      0.57807848
       4435.8252      0.58040111
       4436.4765      0.33083988
       4437.1279      0.28342822
       4437.7792      0.39831026
       4438.4306      0.57244236
       4439.0819      0.83298288
       4439.7333      0.80648472
       4440.3846      0.81895687
       4441.0360      0.66836361
       4441.6873      0.46963083
       4442.3387      0.19772355
       4442.9900     -0.13478972
       4443.6414      0.10610673
       4444.2927      0.29012259
       4444.9441      0.42066845
       4445.5954      0.40663545
       4446.2468      0.42484350
       4446.8981      0.47965435
       4447.5495      0.47783398
       4448.2008      0.56161133
       4448.8522      0.55420678
       4449.5035      0.54455303
       4450.1549      0.48304765
       4450.8062      0.53163232
       4451.4576      0.50792501
       4452.1089      0.57740037
       4452.7603      0.49016223
       4453.4117      0.37691599
       4454.0630      0.46022422
       4454.7144      0.40284521
       4455.3657      0.41431510
       4456.0171      0.58753218
       4456.6684      0.67513348
       4457.3198      0.56736217
       4457.9711      0.66311613
       4458.6225      0.48670191
       4459.2738      0.24190296
       4459.9252      0.22255102
       4460.5765      0.41915624
       4461.2279      0.69097807
       4461.8792      0.64693227
       4462.5306      0.60114322
       4463.1819      0.51563992
       4463.8333      0.43377065
       4464.4846      0.31017952
       4465.1360      0.16288638
       4465.7873      0.33332953
       4466.4387      0.38765299
       4467.0900      0.32442074
       4467.7414      0.38029132
       4468.3927      0.45723488
       4469.0441      0.46384637
       4469.6954      0.38607580
       4470.3468      0.45600035
       4470.9981      0.48990027
       4471.6495      0.52393563
       4472.3008      0.43720632
       4472.9522      0.46486115
       4473.6035      0.42610527
       4474.2549      0.44896472
       4474.9062      0.46727170
       4475.5576      0.45648509
       4476.2089      0.44003478
       4476.8603      0.41836993
       4477.5116      0.60261034
       4478.1630      0.46991734
       4478.8143      0.49387366
       4479.4657      0.46147423
       4480.1170      0.36298633
       4480.7684      0.46424284
       4481.4197      0.61162310
       4482.0711      0.55840904
       4482.7224      0.55934405
       4483.3738      0.44403044
       4484.0251      0.50807891
       4484.6765      0.48427562
       4485.3278      0.39151834
       4485.9792      0.50906432
       4486.6305      0.56389711
       4487.2819      0.49852046
       4487.9332      0.44654251
       4488.5846      0.52311336
       4489.2359      0.34644207
       4489.8873      0.35619190
       4490.5386      0.29489337
       4491.1900      0.39205980
       4491.8413      0.46988831
       4492.4927      0.43342723
       4493.1440      0.43523771
       4493.7954      0.53875004
       4494.4467      0.39999018
       4495.0981      0.48892623
       4495.7494      0.44989893
       4496.4008      0.45405273
       4497.0522      0.52351305
       4497.7035      0.51839219
       4498.3549      0.50697097
       4499.0062      0.56355536
       4499.6576      0.41947303
       4500.3089      0.39053762
       4500.9603      0.40525197
       4501.6116      0.41438553
       4502.2630      0.48630319
       4502.9143      0.44173027
       4503.5657      0.53264880
       4504.2170      0.47300873
       4504.8684      0.44600859
       4505.5197      0.42586806
       4506.1711      0.53646654
       4506.8224      0.48363565
       4507.4738      0.47358885
       4508.1251      0.56324604
       4508.7765      0.53014810
       4509.4278      0.46990207
       4510.0792      0.41858394
       4510.7305      0.54980058
       4511.3819      0.51427186
       4512.0332      0.42505937
       4512.6846      0.50776098
       4513.3359      0.53904793
       4513.9873      0.39125075
       4514.6386      0.41709004
       4515.2900      0.45755929
       4515.9413      0.39598250
       4516.5927      0.58091841
       4517.2440      0.46506713
       4517.8954      0.45800148
       4518.5467      0.40677920
       4519.1981      0.46574105
       4519.8494      0.51852117
       4520.5008      0.54222871
       4521.1521      0.42987370
       4521.8035      0.38633142
       4522.4548      0.44240698
       4523.1062      0.39334478
       4523.7575      0.48379568
       4524.4089      0.44676507
       4525.0602      0.48733277
       4525.7116      0.58222460
       4526.3629      0.44869860
       4527.0143      0.41416937
       4527.6656      0.46295633
       4528.3170      0.42582930
       4528.9683      0.47756192
       4529.6197      0.37062319
       4530.2710      0.46079585
       4530.9224      0.46968480
       4531.5737      0.46503494
       4532.2251      0.32816885
       4532.8764      0.37959677
       4533.5278      0.46814906
       4534.1791      0.44089476
       4534.8305      0.47391957
       4535.4818      0.57354528
       4536.1332      0.43988253
       4536.7845      0.48193412
       4537.4359      0.45732841
       4538.0872      0.51300629
       4538.7386      0.50418272
       4539.3900      0.43459284
       4540.0413      0.49880224
       4540.6927      0.45525273
       4541.3440      0.43640602
       4541.9954      0.40744908
       4542.6467      0.53502071
       4543.2981      0.46741601
       4543.9494      0.48963873
       4544.6008      0.53854882
       4545.2521      0.35105027
       4545.9035      0.38241199
       4546.5548      0.50290080
       4547.2062      0.44497733
       4547.8575      0.44488054
       4548.5089      0.49123197
       4549.1602      0.53217864
       4549.8116      0.45889866
       4550.4629      0.47637663
       4551.1143      0.44053050
       4551.7656      0.31890633
       4552.4170      0.50976487
       4553.0683      0.49117064
       4553.7197      0.39536778
       4554.3710      0.43997630
       4555.0224      0.46039309
       4555.6737      0.35700309
       4556.3251      0.51704345
       4556.9764      0.57800905
       4557.6278      0.66301656
       4558.2791      0.94144710
       4558.9305       1.1049796
       4559.5818       1.2922883
       4560.2332       1.4748719
       4560.8845       1.0942757
       4561.5359      0.87894772
       4562.1872      0.76706141
       4562.8386      0.61217931
       4563.4899      0.62286587
       4564.1413      0.73073279
       4564.7926      0.77648833
       4565.4440      0.91491941
       4566.0953      0.42266492
       4566.7467     -0.25916237
       4567.3980     -0.28897061
       4568.0494     0.027067690
       4568.7007      0.63118197
       4569.3521      0.99285459
       4570.0034       1.3659351
       4570.6548       1.0237175
       4571.3061      0.84076761
       4571.9575      0.17744996
       4572.6088     -0.63783710
       4573.2602      -1.0145916
       4573.9115     -0.83753452
       4574.5629     -0.10628440
       4575.2142    -0.016936332
       4575.8656      0.45234699
       4576.5169      0.51192353
       4577.1683      0.69875585
       4577.8196      0.61715946
       4578.4710      0.51610118
       4579.1223      0.20328436
       4579.7737    -0.098172723
       4580.4250      0.21445960
       4581.0764      0.18946844
       4581.7277      0.45210086
       4582.3791      0.35555469
       4583.0305      0.41575933
       4583.6818      0.36779571
       4584.3332      0.32829936
       4584.9845      0.40530606
       4585.6359      0.38133455
       4586.2872      0.42001639
       4586.9386      0.40031689
       4587.5899      0.45711437
       4588.2413      0.47103669
       4588.8926      0.42536139
       4589.5440      0.43286653
       4590.1953      0.49969714
       4590.8467      0.53123004
       4591.4980      0.55362396
       4592.1494      0.53202511
       4592.8007      0.58911613
       4593.4521       1.1577975
       4594.1034       2.4719330
       4594.7548       3.1995194
       4595.4061       2.8357509
       4596.0575       1.5573161
       4596.7088      0.35406530
       4597.3602     -0.40027938
       4598.0115      -1.7147146
       4598.6629      -1.5246215
       4599.3142     -0.60933696
       4599.9656     -0.14118351
       4600.6169      0.30284737
       4601.2683      0.29060253
       4601.9196     -0.42114034
       4602.5710     -0.40897479
       4603.2223     -0.48398776
       4603.8737     -0.35250047
       4604.5250     0.080312420
       4605.1764      0.65228727
       4605.8277      0.68053475
       4606.4791      0.67699655
       4607.1304      0.63813316
       4607.7818      0.47454903
       4608.4331      0.37521151
       4609.0845     0.074298322
       4609.7358      0.11110031
       4610.3872     0.074358248
       4611.0385      0.24958085
       4611.6899      0.37584485
       4612.3412      0.41972655
       4612.9926      0.49096979
       4613.6439      0.51644567
       4614.2953      0.70360864
       4614.9466       1.0829339
       4615.5980       1.2738344
       4616.2493       1.2745891
       4616.9007      0.95846841
       4617.5520       1.0924031
       4618.2034      0.20120022
       4618.8547     -0.49003689
       4619.5061     -0.43982610
       4620.1574     0.044500185
       4620.8088      0.12967005
       4621.4601      0.16922868
       4622.1115      0.40287201
       4622.7628      0.45578738
       4623.4142      0.90335567
       4624.0655       1.6595698
       4624.7169       2.4391846
       4625.3683       2.1610249
       4626.0196       1.0628011
       4626.6710       1.0427742
       4627.3223      0.56313604
       4627.9737     -0.86497171
       4628.6250      -1.9233758
       4629.2764      -1.3496620
       4629.9277     -0.63413614
       4630.5791    -0.083166854
       4631.2304      0.10802802
       4631.8818      0.37636415
       4632.5331      0.81683613
       4633.1845       1.1902723
       4633.8358       1.2850055
       4634.4872      0.78925049
       4635.1385      0.66079179
       4635.7899      0.55550414
       4636.4412     0.089972573
       4637.0926     -0.26644205
       4637.7439     -0.32080870
       4638.3953    -0.020160619
       4639.0466      0.13065474
       4639.6980      0.31755117
       4640.3493      0.79941691
       4641.0007       1.8339125
       4641.6520       2.6218228
       4642.3034       2.6526475
       4642.9547       2.1015843
       4643.6061       1.3719256
       4644.2574      0.51506273
       4644.9088      -1.1102842
       4645.5601      -1.9439610
       4646.2115      -1.5190734
       4646.8628     -0.72568105
       4647.5142     -0.29373352
       4648.1655     0.076731818
       4648.8169      0.36764436
       4649.4682      0.56797872
       4650.1196      0.65798781
       4650.7709      0.49338505
       4651.4223      0.63820140
       4652.0736      0.57114350
       4652.7250      0.68503070
       4653.3763       1.2919974
       4654.0277       1.4121957
       4654.6790       1.2929105
       4655.3304       1.0083069
       4655.9817      0.40681399
       4656.6331      0.24749461
       4657.2844     -0.33293640
       4657.9358     -0.37560006
       4658.5871     -0.20497111
       4659.2385      0.16215798
       4659.8898      0.76079572
       4660.5412       1.8342696
       4661.1925       2.2092410
       4661.8439       2.1229086
       4662.4952       1.2786669
       4663.1466      0.81369212
       4663.7979     0.095548811
       4664.4493     -0.82809045
       4665.1006      -1.3170811
       4665.7520     -0.74690032
       4666.4033     -0.40733082
       4667.0547      0.11941273
       4667.7061      0.46424502
       4668.3574      0.41925137
       4669.0088      0.47331841
       4669.6601      0.45600988
       4670.3115      0.45967595
       4670.9628      0.50227319
       4671.6142      0.53832063
       4672.2655      0.57297839
       4672.9169      0.52355775
       4673.5682      0.60287034
       4674.2196      0.62879754
       4674.8709      0.64350813
       4675.5223      0.69870538
       4676.1736      0.94962967
       4676.8250       1.0007948
       4677.4763      0.83863502
       4678.1277      0.73088040
       4678.7790      0.74334381
       4679.4304      0.21279377
       4680.0817     -0.11464496
       4680.7331     0.091473644
       4681.3844      0.35995101
       4682.0358      0.96854821
       4682.6871       1.2298123
       4683.3385       1.3845482
       4683.9898       1.0361198
       4684.6412      0.53793386
       4685.2925      0.38511555
       4685.9439     -0.37077071
       4686.5952     -0.86055172
       4687.2466     -0.20472304
       4687.8979    0.0063017113
       4688.5493      0.19413087
       4689.2006      0.28888697
       4689.8520      0.45489290
       4690.5033      0.51813924
       4691.1547      0.51417439
       4691.8060      0.60153990
       4692.4574      0.55250934
       4693.1087      0.56248926
       4693.7601      0.46526287
       4694.4114      0.56808352
       4695.0628      0.51389787
       4695.7141      0.55931414
       4696.3655      0.55318218
       4697.0168      0.47211365
       4697.6682      0.43793318
       4698.3195      0.44060934
       4698.9709      0.51705327
       4699.6222      0.50521992
       4700.2736      0.66987713
       4700.9249      0.73655412
       4701.5763      0.60734725
       4702.2276      0.61003994
       4702.8790      0.54714434
       4703.5303      0.57384550
       4704.1817      0.36166738
       4704.8330      0.28717337
       4705.4844      0.37657363
       4706.1357      0.63195742
       4706.7871      0.91124777
       4707.4384      0.63594809
       4708.0898      0.77754861
       4708.7411      0.66173179
       4709.3925      0.37905532
       4710.0438     -0.15839872
       4710.6952     -0.20978373
       4711.3466     0.014212334
       4711.9979      0.25623288
       4712.6493      0.23286009
       4713.3006      0.30008817
       4713.9520      0.46619024
       4714.6033      0.50945952
       4715.2547      0.43620923
       4715.9060      0.47449176
       4716.5574      0.48302858
       4717.2087      0.45375706
       4717.8601      0.42574109
       4718.5114      0.49414691
       4719.1628      0.43902955
       4719.8141      0.48589264
       4720.4655      0.45897595
       4721.1168      0.47687651
       4721.7682      0.51382427
       4722.4195      0.40399913
       4723.0709      0.48453079
       4723.7222      0.32937182
       4724.3736      0.36732210
       4725.0249      0.32009976
       4725.6763      0.29526078
       4726.3276      0.39088769
       4726.9790      0.48484558
       4727.6303      0.48912902
       4728.2817      0.52117269
       4728.9330      0.63795604
       4729.5844      0.43802593
       4730.2357      0.40076848
       4730.8871      0.32974518
       4731.5384      0.36088757
       4732.1898      0.38384822
       4732.8411      0.53735189
       4733.4925      0.52266550
       4734.1438      0.54301607
       4734.7952      0.42855219
       4735.4465      0.46544548
       4736.0979      0.32339902
       4736.7492      0.19410283
       4737.4006      0.17081951
       4738.0519      0.33256175
       4738.7033      0.45416761
       4739.3546      0.47304316
       4740.0060      0.38240040
       4740.6573      0.46617774
       4741.3087      0.53879810
       4741.9600      0.56065636
       4742.6114      0.54453223
       4743.2627      0.65641003
       4743.9141      0.54866372
       4744.5654      0.76836215
       4745.2168      0.67431961
       4745.8681      0.71692435
       4746.5195      0.73296187
       4747.1708      0.84846256
       4747.8222      0.45937522
       4748.4735      0.84170977
       4749.1249      0.61997129
       4749.7762      0.43401057
       4750.4276      0.47382167
       4751.0789      0.26682538
       4751.7303      0.41335242
       4752.3816      0.34369263
       4753.0330      0.30286311
       4753.6844      0.31915049
       4754.3357      0.45924976
       4754.9871      0.17221215
       4755.6384      0.16643986
       4756.2898      0.16298119
       4756.9411      0.13435760
       4757.5925     -0.20949095
       4758.2438     -0.25525550
       4758.8952     0.085359702
       4759.5465      0.23957140
       4760.1979      0.13555297
       4760.8492      0.30782786
       4761.5006      0.64080621
       4762.1519      0.84507732
       4762.8033      0.88929573
       4763.4546      0.84699267
       4764.1060      0.77778991
       4764.7573      0.42117531
       4765.4087      0.79022917
       4766.0600      0.37824230
       4766.7114      0.25508540
       4767.3627      0.42870124
       4768.0141      0.35523210
       4768.6654     0.067657558
       4769.3168      0.16217876
       4769.9681      0.28784933
       4770.6195      0.28835777
       4771.2708      0.15685442
       4771.9222      0.14749684
       4772.5735      0.43834973
       4773.2249      0.54149221
       4773.8762      0.19923333
       4774.5276     0.064971364
       4775.1789      0.54885242
       4775.8303      0.38055538
       4776.4816      0.42336166
       4777.1330      0.29933602
       4777.7843      0.33721468
       4778.4357      0.34731788
       4779.0870      0.18928986
       4779.7384      0.32129004
       4780.3897      0.37987268
       4781.0411      0.28985222
       4781.6924      0.48568708
       4782.3438      0.37485945
       4782.9951      0.16361513
       4783.6465      0.26331155
       4784.2978      0.45305129
       4784.9492      0.47997598
       4785.6005      0.38522813
       4786.2519      0.45815897
       4786.9032      0.48996439
       4787.5546      0.50410781
       4788.2059      0.36917879
       4788.8573      0.39992246
       4789.5086      0.61745423
       4790.1600      0.35127078
       4790.8113      0.44050759
       4791.4627      0.46374369
       4792.1140      0.41144319
       4792.7654      0.51372197
       4793.4167      0.39858084
       4794.0681      0.38347146
       4794.7194      0.57468941
       4795.3708      0.53459807
       4796.0222      0.49893921
       4796.6735      0.30335677
       4797.3249      0.34672690
       4797.9762      0.50695734
       4798.6276      0.52285723
       4799.2789      0.45252368
       4799.9303      0.48629350
       4800.5816      0.50685853
       4801.2330      0.57565404
       4801.8843      0.50446277
       4802.5357      0.54598096
       4803.1870      0.69028259
       4803.8384      0.65856565
       4804.4897      0.65843559
       4805.1411      0.45350714
       4805.7924      0.49687678
       4806.4438      0.48207333
       4807.0951      0.49636671
       4807.7465      0.56238479
       4808.3978      0.42533358
       4809.0492      0.44407018
       4809.7005      0.48885193
       4810.3519      0.57295457
       4811.0032      0.50083633
       4811.6546      0.57200012
       4812.3059      0.46831314
       4812.9573      0.53098921
       4813.6086      0.48535120
       4814.2600      0.42263839
       4814.9113      0.57454287
       4815.5627      0.44742063
       4816.2140      0.54145515
       4816.8654      0.36696779
       4817.5167      0.41083805
       4818.1681      0.35438050
       4818.8194      0.43323611
       4819.4708      0.51649149
       4820.1221      0.57447936
       4820.7735      0.75955691
       4821.4248       1.2695312
       4822.0762       1.5442389
       4822.7275       2.5713412
       4823.3789       2.3122495
       4824.0302       1.9246243
       4824.6816       1.0395947
       4825.3329      0.85339851
       4825.9843       1.4024720
       4826.6356       1.1361756
       4827.2870      0.48579470
       4827.9383      0.28505772
       4828.5897      0.44008509
       4829.2410     -0.34055847
       4829.8924      -1.7955584
       4830.5437      -1.0598703
       4831.1951       1.1129317
       4831.8464       3.7449809
       4832.4978       6.0350217
       4833.1491       3.5273024
       4833.8005      0.95126324
       4834.4518      -1.4045815
       4835.1032      -2.9522268
       4835.7545      -2.9067513
       4836.4059      -1.9378737
       4837.0572     -0.91371856
       4837.7086     -0.17082558
       4838.3599      0.49774346
       4839.0113       1.0980150
       4839.6627       1.3805340
       4840.3140       1.0903541
       4840.9654      0.57878438
       4841.6167      0.64341398
       4842.2681     -0.10032627
       4842.9194     -0.30573304
       4843.5708    0.0071047669
       4844.2221      0.12339534
       4844.8735      0.28853306
       4845.5248      0.42280160
       4846.1762      0.51923292
       4846.8275      0.49979741
       4847.4789      0.62504404
       4848.1302      0.55899321
       4848.7816      0.66390734
       4849.4329      0.69670286
       4850.0843      0.66086012
       4850.7356      0.58752567
       4851.3870      0.48084365
       4852.0383      0.61572612
       4852.6897      0.56293545
       4853.3410      0.29506102
       4853.9924      0.34283208
       4854.6437      0.48003520
       4855.2951      0.51255154
       4855.9464      0.53369534
       4856.5978      0.48607086
       4857.2491      0.94250973
       4857.9005       2.2365678
       4858.5518       4.4781386
       4859.2032       6.1831771
       4859.8545       3.9251515
       4860.5059       1.5140547
       4861.1572      0.70101203
       4861.8086      -1.3667317
       4862.4599      -4.0768658
       4863.1113      -3.4028338
       4863.7626     -0.25060468
       4864.4140      0.67361870
       4865.0653      0.71280981
       4865.7167      0.27551468
       4866.3680    -0.040913009
       4867.0194     -0.28707503
       4867.6707      -1.2913265
       4868.3221     -0.75254392
       4868.9734     -0.36828293
       4869.6248    0.0074438812
       4870.2761      0.81237543
       4870.9275       1.4812191
       4871.5788       1.9373078
       4872.2302       2.2277146
       4872.8815       2.3046546
       4873.5329       2.4271437
       4874.1842       2.0292698
       4874.8356       1.2573902
       4875.4869       1.2113596
       4876.1383       1.0958952
       4876.7896       1.2236131
       4877.4410       1.2583678
       4878.0923       1.7261509
       4878.7437       1.7626311
       4879.3950       2.0388596
       4880.0464       2.5047364
       4880.6977       3.2999978
       4881.3491       3.4376705
       4882.0005       2.4681485
       4882.6518       1.7851618
       4883.3032       1.0711710
       4883.9545      0.38236600
       4884.6059     -0.92525059
       4885.2572     -0.70880945
       4885.9086     -0.26583690
       4886.5599     0.037521536
       4887.2113      0.17847636
       4887.8626      0.35581769
       4888.5140      0.40098042
       4889.1653      0.54557435
       4889.8167       1.0385899
       4890.4680       2.6060713
       4891.1194       4.4075797
       4891.7707       3.2945671
       4892.4221       1.6947130
       4893.0734       1.4918305
       4893.7248     -0.83154174
       4894.3761      -3.3317286
       4895.0275      -3.7168141
       4895.6788      -1.8330874
       4896.3302     -0.96086578
       4896.9815     -0.15524323
       4897.6329      0.26941969
       4898.2842      0.43856120
       4898.9356      0.55150775
       4899.5869       1.0460750
       4900.2383       2.1330194
       4900.8896       2.4362506
       4901.5410       1.3387765
       4902.1923      0.88454963
       4902.8437      0.23530715
       4903.4950     -0.56931061
       4904.1464      -1.3483034
       4904.7977     -0.94769572
       4905.4491     -0.32665034
       4906.1004     0.036899616
       4906.7518      0.33690886
       4907.4031      0.40713165
       4908.0545      0.74123537
       4908.7058       2.7927734
       4909.3572       5.3588628
       4910.0085       4.4947179
       4910.6599       2.7933599
       4911.3112       2.0120768
       4911.9626      0.21272461
       4912.6139      -2.8229745
       4913.2653      -4.6300600
       4913.9166      -2.9615282
       4914.5680      -1.3376642
       4915.2193     -0.58621590
       4915.8707      0.17668389
       4916.5220      0.45605822
       4917.1734      0.31659068
       4917.8247      0.46282150
       4918.4761      0.40261045
       4919.1274      0.59579229
       4919.7788      0.42824542
       4920.4301      0.39776382
       4921.0815      0.53811227
       4921.7328       1.2954575
       4922.3842       1.8541210
       4923.0355       1.5332478
       4923.6869      0.76689976
       4924.3383       1.0218548
       4924.9896      0.36818146
       4925.6410     -0.67014015
       4926.2923      -1.1709640
       4926.9437     -0.62563384
       4927.5950     -0.10609961
       4928.2464     0.080981481
       4928.8977      0.57958522
       4929.5491       2.0038473
       4930.2004       3.7772021
       4930.8518       4.2042211
       4931.5031       2.5615980
       4932.1545       1.5199017
       4932.8058      0.49312330
       4933.4572      -1.7850681
       4934.1085      -3.3659885
       4934.7599      -2.4718021
       4935.4112      -1.4252564
       4936.0626     -0.50228933
       4936.7139      0.21547974
       4937.3653      0.58798847
       4938.0166      0.43794520
       4938.6680      0.55806638
       4939.3193      0.61260171
       4939.9707      0.44272330
       4940.6220      0.53845781
       4941.2734      0.35190812
       4941.9247      0.34283287
       4942.5761      0.36311378
       4943.2274      0.53661770
       4943.8788      0.58259813
       4944.5301      0.75262880
       4945.1815      0.68298940
       4945.8328      0.85288351
       4946.4842       1.3060314
       4947.1355       1.7373848
       4947.7869       1.1427151
       4948.4382      0.47722636
       4949.0896     -0.61056592
       4949.7409     -0.97011722
       4950.3923      -1.2355377
       4951.0436     -0.77174543
       4951.6950   -0.0046044311
       4952.3463      0.16916294
       4952.9977      0.70892743
       4953.6490       2.0530479
       4954.3004       2.4088274
       4954.9517       1.3603784
       4955.6031       1.4230178
       4956.2544      0.31291937
       4956.9058     -0.47723443
       4957.5571      -1.6762682
       4958.2085      -1.2854010
       4958.8598     -0.66830135
       4959.5112    -0.017353308
       4960.1625      0.35980213
       4960.8139      0.37757872
       4961.4652      0.56346495
       4962.1166      0.54953196
       4962.7679      0.44856590
       4963.4193      0.53279561
       4964.0706      0.59664162
       4964.7220      0.54988129
       4965.3733      0.57595715
       4966.0247      0.64177500
       4966.6760      0.66529608
       4967.3274       1.1091401
       4967.9788       1.4253304
       4968.6301       2.3134809
       4969.2815       3.1098106
       4969.9328       3.5478464
       4970.5842       3.4861348
       4971.2355       3.1898488
       4971.8869       2.3765358
       4972.5382       1.9928441
       4973.1896       1.6722411
       4973.8409       1.5316412
       4974.4923       1.7312110
       4975.1436       1.4317080
       4975.7950       1.2100491
       4976.4463       1.3140936
       4977.0977       1.0624917
       4977.7490      0.88499810
       4978.4004      0.84630608
       4979.0517       1.0965076
       4979.7031       1.6532818
       4980.3544       2.0867275
       4981.0058       1.6836234
       4981.6571      0.87115726
       4982.3085      0.76868967
       4982.9598      0.23268768
       4983.6112     -0.65317074
       4984.2625     -0.48077015
       4984.9139     -0.10531055
       4985.5652      0.17709089
       4986.2166      0.40514214
       4986.8679      0.55797414
       4987.5193      0.46167128
       4988.1706      0.56766732
       4988.8220      0.58070351
       4989.4733      0.56706287
       4990.1247      0.65695878
       4990.7760      0.52563741
       4991.4274      0.63805602
       4992.0787      0.43813807
       4992.7301      0.46084690
       4993.3814      0.41878418
       4994.0328      0.46416221
       4994.6841      0.38299096
       4995.3355      0.35330289
       4995.9868      0.56360912
       4996.6382      0.55976824
       4997.2895      0.60858732
       4997.9409      0.51654765
       4998.5922      0.57191904
       4999.2436      0.40101951
       4999.8949      0.53468450
       5000.5463      0.55586983
       5001.1976      0.56758915
       5001.8490      0.45698960
       5002.5003      0.52600355
       5003.1517      0.74352684
       5003.8030      0.91054119
       5004.4544      0.67264407
       5005.1057      0.64133409
       5005.7571      0.47281517
       5006.4084      0.31617307
       5007.0598      0.42457822
       5007.7111      0.19743586
       5008.3625      0.44557555
       5009.0138      0.99223233
       5009.6652      0.79511158
       5010.3166      0.75904741
       5010.9679      0.35641218
       5011.6193      0.49031334
       5012.2706   0.00063914572
       5012.9220     -0.15294410
       5013.5733      0.29031640
       5014.2247      0.85629433
       5014.8760       2.0206997
       5015.5274       4.0710383
       5016.1787       6.3437330
       5016.8301       8.3105373
       5017.4814       9.4528371
       5018.1328       9.0946120
       5018.7841       7.8083809
       5019.4355       5.8965766
       5020.0868       4.3648283
       5020.7382       3.2832768
       5021.3895       2.6492444
       5022.0409       2.4347899
       5022.6922       2.6327881
       5023.3436       2.8657759
       5023.9949       3.1413049
       5024.6463       3.1009242
       5025.2976       3.1075949
       5025.9490       2.8074260
       5026.6003       2.5524011
       5027.2517       2.0949999
       5027.9030       1.6953137
       5028.5544       1.3548230
       5029.2057      0.97459677
       5029.8571      0.77633897
       5030.5084      0.66929370
       5031.1598      0.63189265
       5031.8111      0.59118175
       5032.4625      0.49837901
       5033.1138      0.54730091
       5033.7652      0.50774195
       5034.4165      0.48485352
       5035.0679      0.55257446
       5035.7192      0.76306325
       5036.3706      0.76454712
       5037.0219      0.58372269
       5037.6733      0.65514412
       5038.3246      0.30146694
       5038.9760      0.46093022
       5039.6273      0.25453008
       5040.2787      0.54559956
       5040.9300      0.72907387
       5041.5814      0.43745311
       5042.2327      0.61797319
       5042.8841      0.60727376
       5043.5354      0.42920269
       5044.1868      0.19002065
       5044.8381      0.26885929
       5045.4895      0.26228989
       5046.1408      0.41069874
       5046.7922      0.44658017
       5047.4435      0.40929441
       5048.0949      0.47097751
       5048.7462      0.55545366
       5049.3976      0.52773316
       5050.0489      0.59091738
       5050.7003      0.48677031
       5051.3516      0.44373770
       5052.0030      0.51596722
       5052.6544      0.58562360
       5053.3057      0.44737071
       5053.9571      0.49050562
       5054.6084      0.54330182
       5055.2598      0.63575269
       5055.9111      0.47408154
       5056.5625      0.51327480
       5057.2138      0.40426595
       5057.8652      0.51412774
       5058.5165      0.62853434
       5059.1679      0.48048846
       5059.8192      0.63153273
       5060.4706      0.49254944
       5061.1219      0.57600608
       5061.7733      0.56874484
       5062.4246      0.49831489
       5063.0760      0.50452610
       5063.7273      0.58020208
       5064.3787      0.61052579
       5065.0300      0.50375061
       5065.6814      0.43607966
       5066.3327      0.59279006
       5066.9841      0.42450422
       5067.6354      0.53523359
       5068.2868      0.63079141
       5068.9381      0.61916978
       5069.5895      0.46434374
       5070.2408      0.58213838
       5070.8922      0.76288969
       5071.5435      0.66069438
       5072.1949      0.73189181
       5072.8462      0.78038410
       5073.4976      0.51295023
       5074.1489      0.51195270
       5074.8003      0.43458408
       5075.4516      0.77251857
       5076.1030      0.53513170
       5076.7543      0.46388872
       5077.4057      0.72857094
       5078.0570      0.43348534
       5078.7084      0.42190201
       5079.3597      0.37484185
       5080.0111      0.31448562
       5080.6624      0.44048065
       5081.3138      0.50223967
       5081.9651      0.65463584
       5082.6165      0.46636860
       5083.2678      0.62843408
       5083.9192      0.74776866
       5084.5705      0.52539781
       5085.2219      0.74756305
       5085.8732      0.52599674
       5086.5246      0.58462529
       5087.1759      0.44137510
       5087.8273      0.56222841
       5088.4786      0.65081056
       5089.1300      0.54065373
       5089.7813      0.63766534
       5090.4327      0.66020653
       5091.0840      0.51869466
       5091.7354      0.72500916
       5092.3867      0.41686808
       5093.0381      0.35911831
       5093.6894      0.41784849
       5094.3408      0.35849402
       5094.9921      0.58025231
       5095.6435      0.48247340
       5096.2949      0.48886986
       5096.9462      0.50919100
       5097.5976      0.70625928
       5098.2489      0.62486261
       5098.9003      0.46482327
       5099.5516      0.48747588
       5100.2030      0.51705463
       5100.8543      0.55273933
       5101.5057      0.57868397
       5102.1570      0.53637807
       5102.8084      0.60715640
       5103.4597      0.58440908
       5104.1111      0.53947011
       5104.7624      0.66346844
       5105.4138      0.39577658
       5106.0651      0.56623120
       5106.7165      0.45520391
       5107.3678      0.63217109
       5108.0192      0.57095671
       5108.6705      0.66919120
       5109.3219      0.72903223
       5109.9732      0.72271722
       5110.6246      0.76583642
       5111.2759      0.61939856
       5111.9273      0.50915823
       5112.5786      0.43982169
       5113.2300      0.77032236
       5113.8813      0.47261751
       5114.5327      0.51613869
       5115.1840      0.51674343
       5115.8354      0.29015514
       5116.4867      0.40485964
       5117.1381      0.30213721
       5117.7894      0.46552491
       5118.4408      0.51579036
       5119.0921       1.4375879
       5119.7435       3.4581351
       5120.3948       4.7036535
       5121.0462       3.9158190
       5121.6975       2.4834455
       5122.3489       2.0632791
       5123.0002       1.8323405
       5123.6516       3.4488628
       5124.3029       1.0592697
       5124.9543      0.33395960
       5125.6056     -0.91627024
       5126.2570     -0.86764435
       5126.9083      -4.4140305
       5127.5597      -5.8414947
       5128.2110      -2.0310444
       5128.8624       3.1094261
       5129.5137       4.9068651
       5130.1651       2.5242443
       5130.8164       1.6146501
       5131.4678      0.85340431
       5132.1191      -1.4858545
       5132.7705      -4.5283647
       5133.4218      -3.6843201
       5134.0732      -1.3809789
       5134.7245     -0.27898350
       5135.3759      0.45781434
       5136.0272      0.70009727
       5136.6786       1.4650867
       5137.3299       1.5107888
       5137.9813      0.94546704
       5138.6327      0.73383183
       5139.2840      0.22000611
       5139.9354     -0.18782042
       5140.5867      -1.2766740
       5141.2381     -0.93321174
       5141.8894     -0.12692218
       5142.5408      0.43074356
       5143.1921      0.56372660
       5143.8435      0.71171539
       5144.4948      0.87986700
       5145.1462      0.85451262
       5145.7975      0.35540551
       5146.4489      0.42032583
       5147.1002     0.085436112
       5147.7516     0.096686735
       5148.4029      0.36455640
       5149.0543      0.48767530
       5149.7056      0.45002799
       5150.3570      0.61012087
       5151.0083      0.68845553
       5151.6597      0.61492118
       5152.3110      0.63705259
       5152.9624      0.62330371
       5153.6137      0.66270732
       5154.2651      0.41702312
       5154.9164      0.32956761
       5155.5678      0.70153290
       5156.2191       1.2233087
       5156.8705       4.3800897
       5157.5218       12.285636
       5158.1732       9.9589082
       5158.8245       6.2036405
       5159.4759       2.6101125
       5160.1272     -0.74783237
       5160.7786      -7.5160222
       5161.4299      -12.383696
       5162.0813      -7.0954006
       5162.7326      -2.7195211
       5163.3840      0.18463371
       5164.0353      0.93184572
       5164.6867      0.51879894
       5165.3380     0.037087731
       5165.9894    -0.048417315
       5166.6407    -0.015814312
       5167.2921    -0.084226554
       5167.9434    -0.025934690
       5168.5948      0.39694467
       5169.2461      0.75164070
       5169.8975      0.76560687
       5170.5488      0.53159489
       5171.2002       1.1508042
       5171.8515       2.4313823
       5172.5029       1.3094661
       5173.1542      0.65070668
       5173.8056      0.42588194
       5174.4569      0.33864652
       5175.1083     -0.68470270
       5175.7596      -1.2737218
       5176.4110     -0.65373710
       5177.0623      0.21341158
       5177.7137      0.40818890
       5178.3650      0.49854577
       5179.0164      0.54985897
       5179.6677      0.68983506
       5180.3191      0.67148479
       5180.9704       1.9241078
       5181.6218       2.6509280
       5182.2732       1.4939731
       5182.9245      0.24677123
       5183.5759      -1.6690432
       5184.2272      -2.5537277
       5184.8786      -5.1258112
       5185.5299      -2.9704920
       5186.1813      -1.3039883
       5186.8326     -0.41728800
       5187.4840     0.066444901
       5188.1353      0.16916895
       5188.7867      0.47938033
       5189.4380      0.64755068
       5190.0894      0.72587350
       5190.7407      0.58662073
       5191.3921       1.7149272
       5192.0434       7.3733066
       5192.6948       7.4530148
       5193.3461       3.5895857
       5193.9975       1.5664432
       5194.6488     -0.16125853
       5195.3002      -2.0599503
       5195.9515      -8.0273143
       5196.6029      -5.6342286
       5197.2542      -1.9385669
       5197.9056     -0.45616496
       5198.5569      0.40695050
       5199.2083      0.38609627
       5199.8596      0.48453176
       5200.5110      0.36727359
       5201.1623      0.29938345
       5201.8137       1.2017738
       5202.4650       4.2743155
       5203.1164       3.0339349
       5203.7677       1.5118968
       5204.4191       1.0874750
       5205.0704    -0.055792321
       5205.7218      -1.6240260
       5206.3731      -4.1649072
       5207.0245      -2.0057452
       5207.6758     -0.52085848
       5208.3272      0.22592591
       5208.9785      0.32119453
       5209.6299      0.39899888
       5210.2812      0.41896278
       5210.9326      0.35030980
       5211.5839       1.6143275
       5212.2353       7.0969263
       5212.8866       8.1788243
       5213.5380       4.3115775
       5214.1893       1.3568594
       5214.8407      0.18518777
       5215.4920      -3.0161659
       5216.1434      -9.5142462
       5216.7947      -6.4125187
       5217.4461      -2.2040778
       5218.0974     -0.33660508
       5218.7488      0.34175726
       5219.4001      0.40265552
       5220.0515      0.51578355
       5220.7028      0.32844613
       5221.3542      0.48238084
       5222.0055      0.50095897
       5222.6569      0.37321715
       5223.3082      0.40269804
       5223.9596      0.31441595
       5224.6110      0.49871589
       5225.2623      0.28078900
       5225.9137       1.3647891
       5226.5650       3.7949441
       5227.2164       2.6239670
       5227.8677       1.3755904
       5228.5191      0.40131540
       5229.1704      0.10874795
       5229.8218      -1.8227091
       5230.4731      -3.7120802
       5231.1245      -1.4931016
       5231.7758     -0.16560839
       5232.4272      0.29618856
       5233.0785      0.52208712
       5233.7299      0.41245970
       5234.3812      0.89555911
       5235.0326       3.5657164
       5235.6839       7.0422854
       5236.3353       4.0198293
       5236.9866       2.6507219
       5237.6380     -0.23538892
       5238.2893      -1.1317323
       5238.9407      -5.7982700
       5239.5920      -6.0683096
       5240.2434      -2.4911803
       5240.8947     -0.42323840
       5241.5461      0.55766149
       5242.1974      0.55445880
       5242.8488      0.39085746
       5243.5001      0.62665669
       5244.1515      0.85787522
       5244.8028      0.97667077
       5245.4542      0.94892336
       5246.1055      0.74688170
       5246.7569      0.70651287
       5247.4082      0.60663328
       5248.0596      0.51989571
       5248.7109      0.25630897
       5249.3623      0.38564623
       5250.0136      0.34071150
       5250.6650      0.55588844
       5251.3163      0.54998037
       5251.9677      0.50958307
       5252.6190      0.74860109
       5253.2704       3.3272029
       5253.9217       3.8046779
       5254.5731       2.5008191
       5255.2244       1.1930045
       5255.8758      0.37045605
       5256.5271     -0.48766329
       5257.1785      -2.5395707
       5257.8298      -1.3062994
       5258.4812     -0.18148327
       5259.1325      0.25730049
       5259.7839      0.60269626
       5260.4352      0.62200146
       5261.0866       3.2190419
       5261.7379       6.5350826
       5262.3893       4.3056539
       5263.0406       1.8466659
       5263.6920     -0.56500077
       5264.3433     -0.78697465
       5264.9947      -4.6003470
       5265.6460      -4.9696876
       5266.2974      -1.9914001
       5266.9488     -0.29399735
       5267.6001      0.37137032
       5268.2515      0.39231228
       5268.9028      0.36078909
       5269.5542      0.54250084
       5270.2055      0.59773779
       5270.8569      0.40350015
       5271.5082      0.50258631
       5272.1596      0.36926199
       5272.8109      0.34997840
       5273.4623      0.35972787
       5274.1136      0.49796596
       5274.7650      0.51635287
       5275.4163      0.60443228
       5276.0677      0.43205517
       5276.7190      0.50265534
       5277.3704      0.48807013
       5278.0217      0.27391914
       5278.6731      0.30834819
       5279.3244      0.35148728
       5279.9758      0.48524844
       5280.6271      0.42500683
       5281.2785      0.37726228
       5281.9298      0.54369318
       5282.5812      0.63674700
       5283.2325       1.5487407
       5283.8839       2.0206507
       5284.5352      0.83767085
       5285.1866      0.72958428
       5285.8379      0.56013116
       5286.4893      0.12464580
       5287.1406      -1.1497669
       5287.7920     -0.72447930
       5288.4433    -0.016925922
       5289.0947      0.40951729
       5289.7460      0.77109291
       5290.3974       2.2892756
       5291.0487       2.2765291
       5291.7001       1.0353135
       5292.3514      0.86104902
       5293.0028     -0.60066968
       5293.6541      -2.7489597
       5294.3055      -2.4083642
       5294.9568      -1.0643787
       5295.6082     0.013169891
       5296.2595      0.46410410
       5296.9109      0.47247547
       5297.5622      0.44603535
       5298.2136      0.34133731
       5298.8649      0.25390763
       5299.5163      0.47024201
       5300.1676      0.40454232
       5300.8190      0.42661407
       5301.4703      0.27814992
       5302.1217      0.45771254
       5302.7730      0.54882158
       5303.4244      0.35282570
       5304.0757      0.31646229
       5304.7271      0.39806142
       5305.3784      0.45422486
       5306.0298      0.45619760
       5306.6811      0.34091028
       5307.3325      0.59723134
       5307.9838      0.63933908
       5308.6352      0.85396888
       5309.2865      0.52989463
       5309.9379      0.91001795
       5310.5893      0.44435534
       5311.2406      0.43895359
       5311.8920      0.52724261
