# wavelength flux
       2266.1474     0.032388065
       2266.9024    0.0082257072
       2267.6575     0.026719441
       2268.4125     0.029819652
       2269.1676     0.092393999
       2269.9226    0.0045967875
       2270.6777     0.010004328
       2271.4328    -0.024449597
       2272.1878  -0.00086964358
       2272.9429  -0.00089764940
       2273.6979     0.059690528
       2274.4530    -0.021968743
       2275.2080    -0.069071882
       2275.9631    -0.043166704
       2276.7182     0.023486292
       2277.4732    -0.011744112
       2278.2283     0.044548540
       2278.9833     0.069009785
       2279.7384     0.028411708
       2280.4934    -0.025786680
       2281.2485     0.026056570
       2282.0035     0.049013211
       2282.7586    -0.043294644
       2283.5137     0.032698055
       2284.2687     0.041717138
       2285.0238     0.034818964
       2285.7788     0.020010362
       2286.5339     0.029755817
       2287.2889     0.043380247
       2288.0440     0.040191502
       2288.7991      0.13928975
       2289.5541     0.067277230
       2290.3092     0.031762822
       2291.0642    0.0096490254
       2291.8193     0.020905516
       2292.5743    -0.071686905
       2293.3294     0.053750834
       2294.0845    -0.014058563
       2294.8395    -0.086594582
       2295.5946     0.060534163
       2296.3496     0.019782787
       2297.1047    -0.021665109
       2297.8597   0.00076393902
       2298.6148      0.15039282
       2299.3698     0.048020678
       2300.1249     0.022219921
       2300.8800    -0.046933308
       2301.6350    0.0056195326
       2302.3901    -0.011454794
       2303.1451     -0.15270715
       2303.9002     0.071187608
       2304.6552    0.0013051900
       2305.4103     0.052928664
       2306.1654     0.010217215
       2306.9204     0.061765608
       2307.6755   -0.0033631814
       2308.4305     0.070488591
       2309.1856     0.026499624
       2309.9406      0.10021014
       2310.6957   -0.0051555597
       2311.4507    0.0032855255
       2312.2058    -0.085212704
       2312.9609     0.069135513
       2313.7159    -0.014552876
       2314.4710    -0.031661143
       2315.2260     0.064846678
       2315.9811     0.057076853
       2316.7361     0.074692179
       2317.4912     0.045128428
       2318.2463    -0.016782146
       2319.0013     0.039572202
       2319.7564  -0.00081604477
       2320.5114     0.077297534
       2321.2665     0.012557282
       2322.0215    -0.012212296
       2322.7766     0.019950151
       2323.5317    -0.012578641
       2324.2867    -0.026942973
       2325.0418     0.041587320
       2325.7968      0.18031313
       2326.5519     0.063955830
       2327.3069     0.067346331
       2328.0620    -0.054901788
       2328.8170     0.048321157
       2329.5721     0.089697303
       2330.3272      0.13394256
       2331.0822     0.055781997
       2331.8373     0.058192959
       2332.5923    -0.018952965
       2333.3474    -0.064803359
       2334.1024     0.059014789
       2334.8575     0.037465661
       2335.6126   -0.0032495763
       2336.3676     0.026740251
       2337.1227     0.087089914
       2337.8777     0.038626413
       2338.6328   -0.0098519791
       2339.3878     0.042705366
       2340.1429     0.029047711
       2340.8979    -0.015813409
       2341.6530   -0.0032232740
       2342.4081    -0.026506660
       2343.1631    -0.017874570
       2343.9182     0.044279711
       2344.6732     0.042153004
       2345.4283    -0.032162582
       2346.1833     0.063821254
       2346.9384    -0.013719204
       2347.6935     0.057759181
       2348.4485   -0.0068421228
       2349.2036     0.070136911
       2349.9586     0.096829093
       2350.7137     0.048365389
       2351.4687     0.041584572
       2352.2238      0.13884125
       2352.9789     0.035324776
       2353.7339    0.0092379340
       2354.4890     0.025106724
       2355.2440    0.0018435375
       2355.9991     0.079335674
       2356.7541     0.042829654
       2357.5092     0.025230513
       2358.2642     0.043233765
       2359.0193     0.030120920
       2359.7744    0.0014609468
       2360.5294     0.087667031
       2361.2845     0.061494615
       2362.0395  -0.00091928510
       2362.7946    -0.012646492
       2363.5496     0.045366094
       2364.3047     0.018028593
       2365.0598     0.033036472
       2365.8148   -0.0048814831
       2366.5699     0.050187615
       2367.3249     0.027356226
       2368.0800     0.023374198
       2368.8350     0.045283878
       2369.5901     0.031449344
       2370.3451     0.023132560
       2371.1002    -0.018710311
       2371.8553     0.058024359
       2372.6103     0.045089875
       2373.3654     0.036006786
       2374.1204     0.080095740
       2374.8755     0.026534605
       2375.6305    -0.011723618
       2376.3856     0.023099174
       2377.1407     0.025198013
       2377.8957     0.073723295
       2378.6508     0.080595941
       2379.4058     0.068118362
       2380.1609     0.018195479
       2380.9159     0.054695371
       2381.6710     0.084564933
       2382.4261     0.022438530
       2383.1811     0.043409550
       2383.9362    -0.016626064
       2384.6912   -0.0021613115
       2385.4463     0.098509789
       2386.2013     0.057577814
       2386.9564    -0.027602181
       2387.7114     0.041719662
       2388.4665     0.027836459
       2389.2216     0.031350891
       2389.9766     0.043775522
       2390.7317    0.0050302949
       2391.4867    0.0072231522
       2392.2418    -0.036120396
       2392.9968    -0.041003962
       2393.7519    -0.042698339
       2394.5070    -0.073707149
       2395.2620    0.0012155055
       2396.0171     0.017798183
       2396.7721   -0.0097699251
       2397.5272     0.080484047
       2398.2822     0.029670335
       2399.0373    -0.014945147
       2399.7924    0.0012701154
       2400.5474     0.015941228
       2401.3025     0.041114675
       2402.0575     0.049327148
       2402.8126     0.060450515
       2403.5676      0.11533786
       2404.3227     0.012720374
       2405.0777     0.099111324
       2405.8328     0.062088675
       2406.5879    -0.014950422
       2407.3429    0.0094885709
       2408.0980    -0.012557308
       2408.8530    -0.035954669
       2409.6081     0.024965255
       2410.3631   -0.0069014190
       2411.1182     0.034439351
       2411.8733     0.056142200
       2412.6283    -0.028588339
       2413.3834    -0.015904250
       2414.1384     0.060287322
       2414.8935    0.0093792904
       2415.6485     0.063875757
       2416.4036    -0.014767907
       2417.1586     0.017141391
       2417.9137     0.079608705
       2418.6688     0.044844233
       2419.4238     0.025463058
       2420.1789     0.015664227
       2420.9339   -0.0090941247
       2421.6890     0.067885799
       2422.4440     0.039742573
       2423.1991     0.043450722
       2423.9542     0.065487033
       2424.7092    0.0080262058
       2425.4643     0.036103482
       2426.2193    -0.012189349
       2426.9744     0.035982881
       2427.7294   0.00080323677
       2428.4845    -0.026208632
       2429.2396     0.040686805
       2429.9946     0.079266706
       2430.7497     0.051964170
       2431.5047  -0.00049646319
       2432.2598  -0.00034812833
       2433.0148     0.020947154
       2433.7699     0.016502206
       2434.5249     0.011633548
       2435.2800     0.077242366
       2436.0351     0.038481015
       2436.7901     0.076938904
       2437.5452    0.0048272631
       2438.3002    0.0087006247
       2439.0553     0.029167567
       2439.8103   -0.0083582894
       2440.5654     0.087154352
       2441.3205     0.045520725
       2442.0755    -0.013063931
       2442.8306     0.033222457
       2443.5856     0.067041477
       2444.3407     0.044213835
       2445.0957     0.060728582
       2445.8508     0.086545571
       2446.6058     0.033410791
       2447.3609    -0.014859234
       2448.1160    -0.027209525
       2448.8710   0.00050964456
       2449.6261     0.036820064
       2450.3811     0.050618208
       2451.1362     0.073683923
       2451.8912     0.034022400
       2452.6463     0.033292484
       2453.4014     0.017242949
       2454.1564   -0.0035168454
       2454.9115     0.050451901
       2455.6665      0.10441886
       2456.4216     0.042978482
       2457.1766     0.032145021
       2457.9317     0.031869611
       2458.6868     0.048719171
       2459.4418     0.038455008
       2460.1969     0.070640450
       2460.9519     0.068348980
       2461.7070     0.022472583
       2462.4620     0.083284179
       2463.2171     0.044527963
       2463.9721     0.069293252
       2464.7272     0.066019946
       2465.4823     0.027219648
       2466.2373     0.078887328
       2466.9924     0.046420727
       2467.7474   -0.0072034912
       2468.5025     0.057782294
       2469.2575     0.032741036
       2470.0126     0.027569768
       2470.7677     0.038201941
       2471.5227    0.0042864944
       2472.2778     0.037960518
       2473.0328     0.028459848
       2473.7879     0.011660120
       2474.5429    0.0042318900
       2475.2980     0.060522236
       2476.0530     0.068231292
       2476.8081     0.032465909
       2477.5632     0.048035276
       2478.3182     0.033833251
       2479.0733    -0.033795610
       2479.8283   -0.0082194543
       2480.5834     0.061213241
       2481.3384     0.022975942
       2482.0935     0.066057807
       2482.8486     0.057913568
       2483.6036     0.043058692
       2484.3587     0.047019524
       2485.1137     0.070221190
       2485.8688     0.053366909
       2486.6238     0.022448595
       2487.3789     0.041905919
       2488.1340     0.072137444
       2488.8890    -0.035674491
       2489.6441    -0.011272860
       2490.3991     0.055340623
       2491.1542     0.016334312
       2491.9092    0.0078598949
       2492.6643     0.032213480
       2493.4193    -0.023907970
       2494.1744     0.016536607
       2494.9295     0.054951870
       2495.6845     0.066505212
       2496.4396     0.030883322
       2497.1946     0.090717989
       2497.9497     0.059166545
       2498.7047     0.040437732
       2499.4598   -0.0050569260
       2500.2149     0.032817146
       2500.9699    0.0093153528
       2501.7250     0.041293161
       2502.4800     0.032857064
       2503.2351     0.011360648
       2503.9901     0.044318314
       2504.7452    -0.014389911
       2505.5003    -0.015362726
       2506.2553   -0.0049025948
       2507.0104     0.025542659
       2507.7654     0.038570223
       2508.5205     0.076815656
       2509.2755     0.024012992
       2510.0306    0.0098221971
       2510.7856    -0.026555728
       2511.5407   -0.0030964587
       2512.2958     0.053318542
       2513.0508     0.043416681
       2513.8059  -0.00061594026
       2514.5609     0.064538932
       2515.3160     0.051750054
       2516.0710     0.088925281
       2516.8261     0.026574854
       2517.5812     0.050594018
       2518.3362     0.013951132
       2519.0913     0.063368788
       2519.8463     0.048216651
       2520.6014     0.048731381
       2521.3564     0.055245146
       2522.1115     0.039470665
       2522.8665     0.021848036
       2523.6216    -0.022938720
       2524.3767    -0.013897554
       2525.1317     0.052793620
       2525.8868     0.039405170
       2526.6418     0.030305588
       2527.3969     0.053575482
       2528.1519     0.069483420
       2528.9070    0.0035654061
       2529.6621   -0.0063547394
       2530.4171      0.12297853
       2531.1722     0.085054070
       2531.9272     0.010348094
       2532.6823   -0.0024154302
       2533.4373     0.069486162
       2534.1924     0.021056763
       2534.9475     0.015454893
       2535.7025     0.026209248
       2536.4576     0.049859059
       2537.2126    0.0052008946
       2537.9677     0.048946135
       2538.7227     0.020162943
       2539.4778     0.033715387
       2540.2328  -0.00023372525
       2540.9879   -0.0040280348
       2541.7430     0.028926735
       2542.4980     0.059806505
       2543.2531     0.052499038
       2544.0081     0.029420241
       2544.7632     0.013228559
       2545.5182     0.059409408
       2546.2733     0.023654238
       2547.0284     0.058172126
       2547.7834     0.091969985
       2548.5385    0.0097204425
       2549.2935     0.037515343
       2550.0486     0.055232317
       2550.8036     0.053056253
       2551.5587     0.066048931
       2552.3137     0.052566269
       2553.0688     0.057124223
       2553.8239     0.086028668
       2554.5789     0.057204468
       2555.3340     0.024842165
       2556.0890     0.085448692
       2556.8441    -0.023588407
       2557.5991     0.019125959
       2558.3542     0.071385923
       2559.1093     0.063239570
       2559.8643     0.031235682
       2560.6194     0.045973751
       2561.3744     0.042006454
       2562.1295     0.052075719
       2562.8845     0.066426305
       2563.6396     0.072370732
       2564.3947      0.10704580
       2565.1497     0.022998052
       2565.9048     0.040187686
       2566.6598     0.066415642
       2567.4149     0.035937844
       2568.1699     0.029812553
       2568.9250     0.065435962
       2569.6800     0.039898735
       2570.4351     0.085809459
       2571.1902     0.034184824
       2571.9452     0.094160370
       2572.7003     0.031029200
       2573.4553      0.11059126
       2574.2104     0.077205643
       2574.9654     0.071372755
       2575.7205     0.056253594
       2576.4756     0.067255314
       2577.2306     0.033533336
       2577.9857     0.096262658
       2578.7407     0.074928882
       2579.4958    0.0047097272
       2580.2508     0.022639597
       2581.0059     0.065122001
       2581.7609     0.095313935
       2582.5160     0.080694610
       2583.2711     0.047225484
       2584.0261     0.082965313
       2584.7812     0.028468806
       2585.5362     0.036816016
       2586.2913     0.045030688
       2587.0463     0.048404029
       2587.8014     0.019018054
       2588.5565     0.018090336
       2589.3115     0.028652340
       2590.0666     0.038887153
       2590.8216     0.079845957
       2591.5767     0.034807251
       2592.3317      0.10078113
       2593.0868      0.14164939
       2593.8419      0.21443889
       2594.5969      0.11974428
       2595.3520     0.099618387
       2596.1070     0.045195775
       2596.8621     0.055377066
       2597.6171     0.047363643
       2598.3722     0.040172987
       2599.1272    -0.010189243
       2599.8823     0.011795164
       2600.6374     0.031582566
       2601.3924     0.059376670
       2602.1475     0.025957911
       2602.9025     0.023434372
       2603.6576     0.046304319
       2604.4126     0.045857145
       2605.1677     0.072472730
       2605.9228     0.073462683
       2606.6778     0.022529762
       2607.4329     0.065910354
       2608.1879     0.075560320
       2608.9430     0.064053457
       2609.6980      0.10171135
       2610.4531     0.070494265
       2611.2081     0.068322745
       2611.9632     0.080221423
       2612.7183     0.060056940
       2613.4733     0.049491364
       2614.2284     0.079179145
       2614.9834     0.060625876
       2615.7385     0.023198542
       2616.4935     0.099000435
       2617.2486     0.091872829
       2618.0037     0.077775840
       2618.7587     0.090031777
       2619.5138     0.079931746
       2620.2688     0.094732271
       2621.0239     0.085986249
       2621.7789     0.033653961
       2622.5340     0.019038250
       2623.2891     0.062580902
       2624.0441     0.063235729
       2624.7992     0.079633256
       2625.5542     0.050368238
       2626.3093     0.023108761
       2627.0643     0.063653045
       2627.8194     0.080696819
       2628.5744     0.060477546
       2629.3295     0.083468243
       2630.0846     0.077349217
       2630.8396     0.071188098
       2631.5947     0.055672716
       2632.3497     0.036490602
       2633.1048     0.031865073
       2633.8598     0.064453526
       2634.6149     0.047381462
       2635.3700    -0.011382856
       2636.1250     0.046378131
       2636.8801      0.10151852
       2637.6351     0.080069681
       2638.3902     0.070908001
       2639.1452     0.041741683
       2639.9003     0.083568222
       2640.6554     0.075489210
       2641.4104     0.065149385
       2642.1655     0.057991397
       2642.9205     0.052520288
       2643.6756     0.063043453
       2644.4306      0.12016136
       2645.1857     0.029036854
       2645.9407   0.00077902850
       2646.6958     0.062821124
       2647.4509     0.040035631
       2648.2059     0.062013320
       2648.9610    0.0040461641
       2649.7160     0.088391549
       2650.4711     0.083089289
       2651.2261    0.0069855188
       2651.9812     0.048123251
       2652.7363     0.062002227
       2653.4913     0.065773679
       2654.2464     0.087666262
       2655.0014     0.050566731
       2655.7565     0.067727949
       2656.5115     0.051296227
       2657.2666     0.088665161
       2658.0216     0.060538766
       2658.7767     0.068687270
       2659.5318      0.10516076
       2660.2868     0.075716128
       2661.0419     0.035961130
       2661.7969      0.10023762
       2662.5520      0.10548716
       2663.3070     0.094451378
       2664.0621     0.082372664
       2664.8172     0.041567947
       2665.5722     0.039657264
       2666.3273     0.052197420
       2667.0823     0.075314678
       2667.8374     0.080840207
       2668.5924     0.069022903
       2669.3475     0.093667181
       2670.1026     0.043596650
       2670.8576     0.031876436
       2671.6127     0.042091407
       2672.3677   -0.0082336841
       2673.1228     0.062438952
       2673.8778     0.087571768
       2674.6329     0.014151733
       2675.3879     0.039179672
       2676.1430     0.061793948
       2676.8981     0.062465883
       2677.6531     0.097950468
       2678.4082     0.061974141
       2679.1632     0.054765272
       2679.9183     0.057610404
       2680.6733     0.063221218
       2681.4284     0.014098934
       2682.1835    0.0083187556
       2682.9385    0.0088520161
       2683.6936     0.049547078
       2684.4486     0.079734625
       2685.2037     0.011072423
       2685.9587    0.0076723754
       2686.7138     0.021945673
       2687.4688     0.072985094
       2688.2239     0.049118108
       2688.9790     0.063009611
       2689.7340     0.029997561
       2690.4891     0.093315107
       2691.2441     0.099431239
       2691.9992     0.051080323
       2692.7542     0.075556370
       2693.5093     0.071427799
       2694.2644     0.047609517
       2695.0194     0.050926533
       2695.7745     0.013284080
       2696.5295     0.014199900
       2697.2846     0.032969919
       2698.0396     0.058304258
       2698.7947     0.040134318
       2699.5498    0.0059610888
       2700.3048     0.077629219
       2701.0599     0.039748595
       2701.8149     0.029920746
       2702.5700     0.058921003
       2703.3250     0.078048366
       2704.0801     0.058852953
       2704.8351     0.027841236
       2705.5902     0.032506310
       2706.3453     0.097025836
       2707.1003    0.0029661818
       2707.8554     0.068053032
       2708.6104     0.070973101
       2709.3655     0.026460652
       2710.1205     0.051307834
       2710.8756     0.055267724
       2711.6307     0.035038318
       2712.3857     0.055712790
       2713.1408     0.070075595
       2713.8958     0.052901550
       2714.6509     0.073278309
       2715.4059     0.017929495
       2716.1610    0.0015846398
       2716.9160     0.052961488
       2717.6711     0.050096777
       2718.4262    0.0039257743
       2719.1812     0.079874084
       2719.9363     0.065722638
       2720.6913     0.056411965
       2721.4464     0.057087056
       2722.2014     0.067495143
       2722.9565     0.023866002
       2723.7116     0.077527568
       2724.4666     0.077471842
       2725.2217     0.091142914
       2725.9767     0.053554171
       2726.7318     0.021982570
       2727.4868     0.067762144
       2728.2419     0.079546508
       2728.9970     0.049480234
       2729.7520     0.078332075
       2730.5071     0.086281032
       2731.2621     0.066193071
       2732.0172     0.064008066
       2732.7722     0.049942219
       2733.5273     0.027069347
       2734.2823     0.072637396
       2735.0374     0.084239422
       2735.7925     0.064432884
       2736.5475     0.054428960
       2737.3026     0.037868363
       2738.0576     0.077339504
       2738.8127     0.045318071
       2739.5677     0.033507938
       2740.3228     0.068902587
       2741.0779     0.053094183
       2741.8329     0.055277645
       2742.5880     0.064676995
       2743.3430     0.042959175
       2744.0981     0.054488190
       2744.8531     0.054648710
       2745.6082     0.075497733
       2746.3633      0.10751389
       2747.1183     0.084601648
       2747.8734     0.058768090
       2748.6284     0.036490332
       2749.3835     0.073138573
       2750.1385     0.061879408
       2750.8936     0.045941385
       2751.6486      0.10026353
       2752.4037     0.055841823
       2753.1588     0.079028073
       2753.9138     0.054618433
       2754.6689     0.024444700
       2755.4239     0.028390434
       2756.1790    0.0090980177
       2756.9340     0.073975009
       2757.6891     0.024307735
       2758.4442     0.085882656
       2759.1992     0.069563353
       2759.9543     0.089960717
       2760.7093     0.090466507
       2761.4644     0.098009060
       2762.2194     0.097033546
       2762.9745     0.068811045
       2763.7295     0.042096244
       2764.4846     0.025665213
       2765.2397     0.011449481
       2765.9947     0.042692647
       2766.7498     0.027107240
       2767.5048     0.045094837
       2768.2599     0.055326807
       2769.0149     0.059071706
       2769.7700     0.053193842
       2770.5251     0.077615163
       2771.2801     0.048466121
       2772.0352     0.027629310
       2772.7902     0.038587957
       2773.5453     0.074863063
       2774.3003     0.043265048
       2775.0554     0.072749335
       2775.8105     0.041229036
       2776.5655     0.084058752
       2777.3206     0.086426569
       2778.0756     0.048834150
       2778.8307     0.069043955
       2779.5857     0.041278772
       2780.3408     0.045673553
       2781.0958     0.063230700
       2781.8509     0.053723578
       2782.6060     0.056738229
       2783.3610     0.069239728
       2784.1161     0.062004646
       2784.8711     0.083062500
       2785.6262     0.042413667
       2786.3812     0.051751545
       2787.1363     0.054225684
       2787.8914     0.086511065
       2788.6464     0.067139633
       2789.4015     0.054389517
       2790.1565     0.085349491
       2790.9116     0.050772057
       2791.6666     0.051802482
       2792.4217     0.047494394
       2793.1767     0.055969726
       2793.9318     0.063432577
       2794.6869     0.047297726
       2795.4419     0.062127477
       2796.1970     0.050149455
       2796.9520     0.056699056
       2797.7071     0.068983684
       2798.4621     0.043482902
       2799.2172     0.021529356
       2799.9723     0.037125597
       2800.7273     0.014798559
       2801.4824     0.024020064
       2802.2374     0.018080846
       2802.9925     0.037865588
       2803.7475     0.024149101
       2804.5026     0.020461852
       2805.2577     0.045172396
       2806.0127     0.045664920
       2806.7678     0.026308574
       2807.5228     0.010604637
       2808.2779     0.028154125
       2809.0329     0.023248931
       2809.7880    0.0058666135
       2810.5430     0.068258568
       2811.2981     0.022509121
       2812.0532     0.019561026
       2812.8082     0.042853390
       2813.5633     0.052874266
       2814.3183     0.073283313
       2815.0734     0.073338492
       2815.8284     0.095114320
       2816.5835     0.089759947
       2817.3386     0.095869951
       2818.0936     0.057980924
       2818.8487     0.023718073
       2819.6037     0.079126763
       2820.3588     0.046222997
       2821.1138     0.071238669
       2821.8689     0.093634067
       2822.6239     0.089632001
       2823.3790     0.090307495
       2824.1341     0.072490868
       2824.8891     0.057814446
       2825.6442     0.088203162
       2826.3992      0.11482477
       2827.1543     0.084076525
       2827.9093     0.073538486
       2828.6644     0.073772318
       2829.4195     0.081835934
       2830.1745     0.057442571
       2830.9296     0.049887137
       2831.6846     0.097227904
       2832.4397      0.10702601
       2833.1947      0.13574803
       2833.9498     0.099343171
       2834.7049     0.052626504
       2835.4599     0.046867980
       2836.2150     0.056932592
       2836.9700     0.059661481
       2837.7251     0.024268711
       2838.4801     0.070642409
       2839.2352     0.095407692
       2839.9902     0.014304399
       2840.7453     0.047251297
       2841.5004     0.080389683
       2842.2554     0.060605235
       2843.0105     0.048633089
       2843.7655     0.070155213
       2844.5206    0.0078553970
       2845.2756     0.084279756
       2846.0307     0.089723271
       2846.7858     0.085872796
       2847.5408     0.060793591
       2848.2959     0.040228870
       2849.0509     0.051094824
       2849.8060     0.068654596
       2850.5610     0.069462892
       2851.3161     0.067513308
       2852.0711      0.10017604
       2852.8262     0.046246361
       2853.5813     0.071676706
       2854.3363      0.13998354
       2855.0914     0.098673311
       2855.8464     0.023571432
       2856.6015     0.017668070
       2857.3565     0.035598236
       2858.1116     0.076158944
       2858.8667     0.054948353
       2859.6217     0.076182783
       2860.3768     0.082278371
       2861.1318     0.072202307
       2861.8869     0.081010318
       2862.6419     0.090800244
       2863.3970     0.045690145
       2864.1521     0.052117957
       2864.9071     0.049341774
       2865.6622      0.10244204
       2866.4172      0.10362777
       2867.1723     0.031498819
       2867.9273     0.062498758
       2868.6824     0.080080083
       2869.4374     0.056594061
       2870.1925     0.080729641
       2870.9476      0.11742735
       2871.7026     0.071469936
       2872.4577     0.093970326
       2873.2127      0.11051315
       2873.9678     0.050361525
       2874.7228     0.073404952
       2875.4779     0.066895387
       2876.2330     0.075802420
       2876.9880     0.068202889
       2877.7431     0.038050611
       2878.4981     0.059166050
       2879.2532     0.052164549
       2880.0082      0.10614745
       2880.7633      0.11003330
       2881.5184      0.10280132
       2882.2734     0.056773417
       2883.0285     0.060547000
       2883.7835     0.076560035
       2884.5386     0.069601829
       2885.2936     0.092701267
       2886.0487     0.092893870
       2886.8037     0.091142027
       2887.5588     0.069598346
       2888.3139     0.088917837
       2889.0689      0.13812572
       2889.8240      0.13592935
       2890.5790      0.10634027
       2891.3341     0.060873283
       2892.0891     0.094973751
       2892.8442     0.060202814
       2893.5993     0.064399968
       2894.3543     0.079177064
       2895.1094     0.061134535
       2895.8644     0.086827567
       2896.6195     0.088797242
       2897.3745     0.045792471
       2898.1296      0.10601609
       2898.8846     0.096619165
       2899.6397      0.11834127
       2900.3948     0.044463593
       2901.1498     0.087537033
       2901.9049      0.13225973
       2902.6599     0.059789418
       2903.4150     0.060329123
       2904.1700      0.10450302
       2904.9251     0.079556703
       2905.6802     0.084526960
       2906.4352    0.0086746390
       2907.1903     0.031012091
       2907.9453     0.072113799
       2908.7004     0.054790138
       2909.4554      0.10038782
       2910.2105     0.055890794
       2910.9656     0.060397698
       2911.7206     0.083876054
       2912.4757     0.093128696
       2913.2307      0.10514562
       2913.9858     0.091098454
       2914.7408      0.11128809
       2915.4959     0.060082229
       2916.2509     0.031288611
       2917.0060     0.092296457
       2917.7611      0.10443017
       2918.5161     0.096025336
       2919.2712      0.10978627
       2920.0262     0.076959319
       2920.7813     0.067953717
       2921.5363     0.091575864
       2922.2914     0.066387361
       2923.0465     0.091921833
       2923.8015     0.066515518
       2924.5566     0.094368046
       2925.3116      0.11951628
       2926.0667     0.087566741
       2926.8217     0.085026760
       2927.5768      0.11824006
       2928.3318     0.082285009
       2929.0869     0.058535547
       2929.8420     0.044792106
       2930.5970     0.026850176
       2931.3521     0.073781894
       2932.1071      0.11948521
       2932.8622      0.11976176
       2933.6172      0.10393677
       2934.3723      0.13209188
       2935.1274     0.067073048
       2935.8824     0.074726344
       2936.6375     0.091526058
       2937.3925    0.0049139082
       2938.1476     0.023677213
       2938.9026     0.047102728
       2939.6577     0.054958240
       2940.4128     0.075431121
       2941.1678     0.062597100
       2941.9229     0.086159608
       2942.6779     0.088461910
       2943.4330     0.060651796
       2944.1880     0.054617992
       2944.9431     0.058906212
       2945.6981     0.025272706
       2946.4532     0.096032241
       2947.2083     0.095586755
       2947.9633      0.12816127
       2948.7184     0.094912233
       2949.4734     0.072486866
       2950.2285     0.087482757
       2950.9835      0.13338244
       2951.7386      0.11197174
       2952.4937     0.054748374
       2953.2487     0.067123457
       2954.0038     0.081766630
       2954.7588      0.15664119
       2955.5139      0.14018092
       2956.2689     0.064834398
       2957.0240     0.066800150
       2957.7790     0.071645161
       2958.5341     0.088416593
       2959.2892     0.092347888
       2960.0442      0.14657967
       2960.7993      0.14681768
       2961.5543     0.067202466
       2962.3094     0.047287791
       2963.0644     0.071642479
       2963.8195     0.064620261
       2964.5746     0.065714142
       2965.3296     0.076404805
       2966.0847     0.090236671
       2966.8397     0.052254695
       2967.5948     0.035562642
       2968.3498    0.0054586809
       2969.1049     0.077703575
       2969.8600     0.080940995
       2970.6150     0.040449512
       2971.3701     0.033626600
       2972.1251     0.077500680
       2972.8802     0.068804496
       2973.6352      0.11691551
       2974.3903     0.078504274
       2975.1453     0.079079464
       2975.9004      0.15709445
       2976.6555      0.13340095
       2977.4105     0.067599410
       2978.1656     0.057609120
       2978.9206     0.064416936
       2979.6757      0.13376539
       2980.4307      0.13078265
       2981.1858     0.094334403
       2981.9409     0.070849181
       2982.6959     0.090401526
       2983.4510     0.056707321
       2984.2060     0.056215154
       2984.9611     0.077482000
       2985.7161     0.091269955
       2986.4712     0.066186949
       2987.2263     0.095369506
       2987.9813     0.088824511
       2988.7364     0.070302711
       2989.4914     0.041850409
       2990.2465     0.056718686
       2991.0015     0.096094395
       2991.7566      0.10631143
       2992.5116     0.086301983
       2993.2667      0.10033227
       2994.0218     0.058727785
       2994.7768     0.078069301
       2995.5319     0.091613356
       2996.2869     0.095340871
       2997.0420     0.074723579
       2997.7970     0.073295655
       2998.5521     0.089947828
       2999.3072     0.087542603
       3000.0622     0.075766554
       3000.8173     0.066312453
       3001.5723     0.032763214
       3002.3274     0.077929953
       3003.0824      0.10381354
       3003.8375      0.15091973
       3004.5925      0.10935464
       3005.3476     0.068910723
       3006.1027      0.10297680
       3006.8577     0.076995994
       3007.6128      0.12472153
       3008.3678     0.079875859
       3009.1229     0.093702151
       3009.8779     0.095116864
       3010.6330     0.054138252
       3011.3881     0.034928176
       3012.1431     0.048376572
       3012.8982     0.099434727
       3013.6532      0.11171976
       3014.4083     0.038517438
       3015.1633     0.069377949
       3015.9184      0.10712972
       3016.6735      0.11620914
       3017.4285      0.11510973
       3018.1836     0.091684532
       3018.9386      0.11462238
       3019.6937      0.11806228
       3020.4487     0.099926574
       3021.2038     0.088169325
       3021.9588     0.099082894
       3022.7139      0.12798641
       3023.4690     0.083776797
       3024.2240     0.077790862
       3024.9791     0.095570264
       3025.7341     0.073950603
       3026.4892     0.042840587
       3027.2442     0.059731856
       3027.9993     0.057351391
       3028.7544     0.083027012
       3029.5094     0.072317259
       3030.2645     0.065805391
       3031.0195      0.11633806
       3031.7746      0.10138332
       3032.5296     0.077165755
       3033.2847     0.061672777
       3034.0397      0.11607096
       3034.7948     0.087524473
       3035.5499     0.057545282
       3036.3049     0.032562297
       3037.0600     0.044135986
       3037.8150     0.086328497
       3038.5701      0.10540760
       3039.3251     0.088999758
       3040.0802     0.064599984
       3040.8353     0.086174591
       3041.5903      0.11949159
       3042.3454     0.058969019
       3043.1004     0.071518493
       3043.8555      0.11046206
       3044.6105     0.061293824
       3045.3656     0.085947750
       3046.1207      0.10301418
       3046.8757     0.086528992
       3047.6308      0.12333475
       3048.3858      0.12832694
       3049.1409      0.10576374
       3049.8959     0.093417124
       3050.6510      0.13383196
       3051.4060      0.13055941
       3052.1611     0.069878654
       3052.9162     0.054145473
       3053.6712     0.066980776
       3054.4263      0.10329934
       3055.1813      0.12135408
       3055.9364      0.10456126
       3056.6914     0.072916272
       3057.4465     0.072422339
       3058.2016     0.094153299
       3058.9566      0.11517615
       3059.7117      0.12861286
       3060.4667      0.11341906
       3061.2218      0.14956179
       3061.9768      0.11634820
       3062.7319     0.088712620
       3063.4869     0.062839161
       3064.2420     0.063663594
       3064.9971     0.062869684
       3065.7521     0.065815882
       3066.5072     0.070016438
       3067.2622     0.069613408
       3068.0173     0.063252603
       3068.7723     0.066295212
       3069.5274      0.11100192
       3070.2825      0.13586158
       3071.0375      0.11460107
       3071.7926      0.12702949
       3072.5476      0.12318683
       3073.3027      0.13367042
       3074.0577      0.13884679
       3074.8128      0.14333012
       3075.5679     0.071058246
       3076.3229     0.076691546
       3077.0780      0.13099744
       3077.8330      0.12194630
       3078.5881      0.10471568
       3079.3431      0.10293912
       3080.0982      0.10823451
       3080.8532     0.093622519
       3081.6083     0.069222205
       3082.3634     0.064312395
       3083.1184     0.080322729
       3083.8735      0.12399466
       3084.6285     0.050529855
       3085.3836     0.071035372
       3086.1386      0.11146710
       3086.8937     0.091319793
       3087.6488      0.10958872
       3088.4038     0.099097646
       3089.1589      0.10679276
       3089.9139      0.11697951
       3090.6690     0.075742707
       3091.4240     0.079756013
       3092.1791     0.088565367
       3092.9342     0.091200763
       3093.6892      0.13241779
       3094.4443      0.14402718
       3095.1993      0.10197018
       3095.9544     0.098514155
       3096.7094     0.091912818
       3097.4645     0.054450239
       3098.2195     0.046840200
       3098.9746      0.10056497
       3099.7297      0.13116063
       3100.4847      0.12579060
       3101.2398     0.080689153
       3101.9948     0.078909733
       3102.7499     0.057271031
       3103.5049     0.063258283
       3104.2600     0.091161282
       3105.0151     0.093221546
       3105.7701     0.082202578
       3106.5252     0.078490345
       3107.2802     0.088995022
       3108.0353     0.052242163
       3108.7903     0.041448612
       3109.5454     0.053902471
       3110.3004     0.097159162
       3111.0555      0.11772236
       3111.8106     0.095195634
       3112.5656      0.12017490
       3113.3207      0.15254247
       3114.0757      0.13385837
       3114.8308     0.050734223
       3115.5858     0.052224935
       3116.3409      0.14092133
       3117.0960      0.12257903
       3117.8510     0.088904864
       3118.6061     0.093333832
       3119.3611      0.10399730
       3120.1162      0.11836876
       3120.8712     0.096126261
       3121.6263     0.064607183
       3122.3814      0.12200586
       3123.1364      0.10483494
       3123.8915     0.080256814
       3124.6465     0.035443177
       3125.4016     0.071506158
       3126.1566      0.11305307
       3126.9117      0.16424407
       3127.6667      0.14950350
       3128.4218      0.13411768
       3129.1769      0.14778166
       3129.9319      0.11078820
       3130.6870     0.095644787
       3131.4420      0.10157425
       3132.1971      0.11626712
       3132.9521     0.099438871
       3133.7072     0.074784192
       3134.4623     0.088767809
       3135.2173      0.11883310
       3135.9724     0.076574132
       3136.7274     0.074139589
       3137.4825     0.060416303
       3138.2375     0.093055944
       3138.9926     0.087140943
       3139.7476     0.056559008
       3140.5027     0.036238579
       3141.2578     0.083721343
       3142.0128      0.14278903
       3142.7679      0.14416045
       3143.5229      0.11727393
       3144.2780     0.086324217
       3145.0330      0.10452631
       3145.7881     0.072545291
       3146.5432     0.059516558
       3147.2982     0.085433153
       3148.0533      0.10087680
       3148.8083      0.10852285
       3149.5634      0.15123949
       3150.3184     0.099957234
       3151.0735     0.086430226
       3151.8286      0.12739969
       3152.5836      0.12482667
       3153.3387      0.12695475
       3154.0937      0.14864247
       3154.8488     0.076855655
       3155.6038     0.061936965
       3156.3589     0.092481011
       3157.1139      0.11573389
       3157.8690      0.12458922
       3158.6241      0.10970098
       3159.3791      0.11814338
       3160.1342      0.11778568
       3160.8892     0.095837289
       3161.6443     0.082151293
       3162.3993     0.064437692
       3163.1544     0.097617752
       3163.9095     0.096745058
       3164.6645     0.087566433
       3165.4196     0.093299419
       3166.1746      0.13489571
       3166.9297      0.16193993
       3167.6847      0.12826274
       3168.4398      0.10471876
       3169.1948      0.11490033
       3169.9499      0.10504455
       3170.7050      0.12455111
       3171.4600      0.11488657
       3172.2151      0.11476341
       3172.9701      0.14909785
       3173.7252     0.089990172
       3174.4802     0.088062354
       3175.2353     0.056673651
       3175.9904     0.055573471
       3176.7454     0.076659474
       3177.5005      0.13851494
       3178.2555      0.10173399
       3179.0106     0.047935325
       3179.7656      0.11626644
       3180.5207      0.15195601
       3181.2758      0.11411647
       3182.0308     0.070746896
       3182.7859      0.11434345
       3183.5409     0.096395953
       3184.2960     0.033623901
       3185.0510     0.031405758
       3185.8061     0.075563184
       3186.5611      0.12404062
       3187.3162      0.13967593
       3188.0713     0.087443490
       3188.8263     0.097621722
       3189.5814      0.17876580
       3190.3364      0.14324653
       3191.0915     0.078904570
       3191.8465      0.11130463
       3192.6016     0.094359122
       3193.3567     0.066072173
       3194.1117     0.098063983
       3194.8668      0.13446690
       3195.6218     0.086558496
       3196.3769      0.10746066
       3197.1319      0.10230774
       3197.8870     0.081752022
       3198.6420      0.13035876
       3199.3971     0.095810685
       3200.1522     0.059089626
       3200.9072      0.10944862
       3201.6623     0.077368488
       3202.4173     0.054532769
       3203.1724     0.092968500
       3203.9274     0.092019846
       3204.6825      0.12486231
       3205.4376     0.097945615
       3206.1926     0.048324228
       3206.9477     0.077242341
       3207.7027      0.13881494
       3208.4578      0.17351991
       3209.2128      0.16224705
       3209.9679      0.12498099
       3210.7230     0.088392434
       3211.4780      0.12158760
       3212.2331      0.10357881
       3212.9881     0.045858741
       3213.7432      0.11273547
       3214.4982      0.11378870
       3215.2533      0.11445140
       3216.0083      0.13168483
       3216.7634     0.081370626
       3217.5185     0.084681440
       3218.2735     0.085591292
       3219.0286     0.097328607
       3219.7836      0.12345911
       3220.5387      0.11190222
       3221.2937     0.042916911
       3222.0488     0.095390307
       3222.8039      0.12022493
       3223.5589     0.057414416
       3224.3140      0.10283527
       3225.0690      0.11889728
       3225.8241      0.11715320
       3226.5791      0.13311438
       3227.3342     0.074514697
       3228.0893     0.096373223
       3228.8443     0.064612691
       3229.5994     0.056118737
       3230.3544      0.13354362
       3231.1095      0.12224881
       3231.8645     0.088897765
       3232.6196      0.13322488
       3233.3746     0.061798247
       3234.1297     0.071499247
       3234.8848     0.091930566
       3235.6398     0.089741327
       3236.3949     0.098288617
       3237.1499     0.081389718
       3237.9050     0.086234738
       3238.6600      0.11959927
       3239.4151      0.15437197
       3240.1702      0.11862903
       3240.9252      0.13635347
       3241.6803      0.11953569
       3242.4353      0.11894480
       3243.1904      0.12930410
       3243.9454      0.10311548
       3244.7005      0.11196125
       3245.4555      0.12730732
       3246.2106      0.12094881
       3246.9657      0.13809835
       3247.7207      0.12451951
       3248.4758      0.14243434
       3249.2308      0.10186854
       3249.9859     0.078649775
       3250.7409     0.079248592
       3251.4960     0.099440760
       3252.2511      0.13315558
       3253.0061      0.14053940
       3253.7612      0.12504538
       3254.5162     0.097732623
       3255.2713     0.087999446
       3256.0263      0.12088466
       3256.7814      0.10185926
       3257.5365     0.086772742
       3258.2915      0.14342441
       3259.0466     0.092075111
       3259.8016      0.11155063
       3260.5567     0.079136585
       3261.3117     0.096195986
       3262.0668      0.11922624
       3262.8218      0.12738859
       3263.5769      0.14258968
       3264.3320      0.16621169
       3265.0870      0.13581010
       3265.8421      0.11526885
       3266.5971     0.071495085
       3267.3522     0.096121645
       3268.1072     0.091353013
       3268.8623     0.096126444
       3269.6174     0.091582221
       3270.3724     0.094568717
       3271.1275      0.10405007
       3271.8825      0.12192457
       3272.6376     0.099650738
       3273.3926      0.13317663
       3274.1477      0.19443226
       3274.9027      0.12218445
       3275.6578     0.093075828
       3276.4129     0.099883130
       3277.1679     0.090447184
       3277.9230      0.15692064
       3278.6780      0.14928641
       3279.4331      0.14088176
       3280.1881      0.12270389
       3280.9432      0.11662697
       3281.6983      0.10770973
       3282.4533      0.12031636
       3283.2084      0.13869204
       3283.9634      0.14528268
       3284.7185      0.14707634
       3285.4735      0.14428024
       3286.2286      0.10618426
       3286.9837     0.097433379
       3287.7387     0.096352155
       3288.4938      0.14419878
       3289.2488      0.13778411
       3290.0039      0.14281961
       3290.7589      0.11486498
       3291.5140      0.13867463
       3292.2690      0.11059976
       3293.0241      0.13986958
       3293.7792      0.15519031
       3294.5342      0.11432696
       3295.2893      0.15829566
       3296.0443      0.13048527
       3296.7994      0.15537597
       3297.5544      0.11369146
       3298.3095      0.11148212
       3299.0646      0.11338147
       3299.8196      0.13989731
       3300.5747      0.10041033
       3301.3297     0.098148505
       3302.0848      0.10521371
       3302.8398      0.13228299
       3303.5949      0.12300217
       3304.3499      0.11543841
       3305.1050      0.12867168
       3305.8601     0.083202843
       3306.6151     0.076925496
       3307.3702      0.11053939
       3308.1252      0.11929487
       3308.8803     0.094686241
       3309.6353     0.090515151
       3310.3904     0.078764674
       3311.1455      0.11419969
       3311.9005      0.15699141
       3312.6556      0.13617679
       3313.4106      0.12632487
       3314.1657     0.098075537
       3314.9207      0.12200811
       3315.6758      0.12075653
       3316.4309      0.14735714
       3317.1859      0.12515463
       3317.9410     0.097657481
       3318.6960      0.12165982
       3319.4511      0.13348532
       3320.2061      0.16188768
       3320.9612      0.16803097
       3321.7162      0.13717930
       3322.4713      0.11353474
       3323.2264      0.15701159
       3323.9814      0.15590729
       3324.7365      0.13731251
       3325.4915      0.10511713
       3326.2466      0.10107357
       3327.0016      0.12980266
       3327.7567      0.14082491
       3328.5118      0.12673725
       3329.2668      0.13848592
       3330.0219      0.14489833
       3330.7769      0.11661512
       3331.5320      0.13050646
       3332.2870      0.12708311
       3333.0421     0.090027662
       3333.7972     0.098603271
       3334.5522     0.084686145
       3335.3073      0.14213899
       3336.0623      0.11623499
       3336.8174      0.16005599
       3337.5724      0.16716038
       3338.3275     0.099009731
       3339.0825     0.057531140
       3339.8376     0.073213246
       3340.5927      0.12338933
       3341.3477      0.14812976
       3342.1028      0.11467017
       3342.8578      0.15282578
       3343.6129      0.12577727
       3344.3679     0.079333577
       3345.1230     0.090791296
       3345.8781      0.10586970
       3346.6331     0.096445937
       3347.3882      0.15405886
       3348.1432      0.15995155
       3348.8983      0.16710899
       3349.6533      0.14554817
       3350.4084      0.10259573
       3351.1634     0.094422516
       3351.9185      0.11370794
       3352.6736     0.093485851
       3353.4286      0.11388126
       3354.1837      0.12879190
       3354.9387      0.13572454
       3355.6938      0.11872227
       3356.4488     0.080436059
       3357.2039      0.12902406
       3357.9590      0.10021659
       3358.7140      0.10517897
       3359.4691      0.12999800
       3360.2241      0.10838579
       3360.9792      0.10181062
       3361.7342     0.064119116
       3362.4893      0.13636817
       3363.2444      0.16567486
       3363.9994      0.13642925
       3364.7545      0.10068785
       3365.5095      0.15128568
       3366.2646      0.18739159
       3367.0196      0.15826114
       3367.7747      0.13812347
       3368.5297      0.16399891
       3369.2848      0.15126292
       3370.0399      0.11514844
       3370.7949      0.12382418
       3371.5500      0.12858400
       3372.3050     0.069478088
       3373.0601     0.078199241
       3373.8151     0.077076552
       3374.5702     0.047402141
       3375.3253      0.11097786
       3376.0803      0.12138016
       3376.8354      0.11249441
       3377.5904     0.091994530
       3378.3455      0.10126074
       3379.1005     0.088206955
       3379.8556      0.15807420
       3380.6106      0.16149288
       3381.3657      0.12034327
       3382.1208     0.090583764
       3382.8758      0.11374745
       3383.6309     0.095815794
       3384.3859      0.14739047
       3385.1410      0.14227220
       3385.8960      0.11850342
       3386.6511      0.13387529
       3387.4062      0.10186148
       3388.1612      0.14472929
       3388.9163      0.14777921
       3389.6713      0.11294672
       3390.4264     0.096292881
       3391.1814      0.13559984
       3391.9365      0.15031014
       3392.6916      0.17475073
       3393.4466      0.14233610
       3394.2017      0.16390259
       3394.9567      0.17452274
       3395.7118      0.14833467
       3396.4668      0.14081819
       3397.2219      0.14972669
       3397.9769      0.15420795
       3398.7320      0.13398362
       3399.4871      0.15353294
       3400.2421      0.17846435
       3400.9972      0.12325182
       3401.7522     0.086109559
       3402.5073      0.10033371
       3403.2623      0.12823491
       3404.0174      0.10308446
       3404.7725      0.12499820
       3405.5275      0.17114500
       3406.2826      0.16445330
       3407.0376      0.15080758
       3407.7927      0.17819372
       3408.5477      0.16313928
       3409.3028      0.16402890
       3410.0578      0.11036210
       3410.8129      0.17927188
       3411.5680      0.16405378
       3412.3230      0.12208497
       3413.0781     0.091408898
       3413.8331      0.17229596
       3414.5882      0.16475194
       3415.3432      0.14280617
       3416.0983     0.081449553
       3416.8534      0.10509876
       3417.6084      0.16736737
       3418.3635      0.18047151
       3419.1185      0.14195567
       3419.8736      0.13179873
       3420.6286      0.15085906
       3421.3837      0.10758192
       3422.1388      0.12317568
       3422.8938      0.15515824
       3423.6489      0.13397692
       3424.4039     0.093787138
       3425.1590      0.18312769
       3425.9140      0.15609240
       3426.6691      0.12148545
       3427.4241      0.16916831
       3428.1792      0.17896449
       3428.9343      0.11588175
       3429.6893      0.11808153
       3430.4444      0.11119772
       3431.1994     0.069747687
       3431.9545     0.084614581
       3432.7095     0.077483266
       3433.4646      0.13927034
       3434.2197      0.13065785
       3434.9747      0.12222659
       3435.7298      0.11747775
       3436.4848      0.12130951
       3437.2399      0.14383926
       3437.9949      0.12089005
       3438.7500      0.10830286
       3439.5050      0.11762679
       3440.2601     0.087310858
       3441.0152      0.11300601
       3441.7702      0.11520175
       3442.5253      0.11465045
       3443.2803      0.12353270
       3444.0354      0.18073726
       3444.7904      0.15683409
       3445.5455      0.12675893
       3446.3006      0.13054921
       3447.0556      0.11705147
       3447.8107      0.11341721
       3448.5657      0.14562607
       3449.3208      0.17447891
       3450.0758      0.15805091
       3450.8309      0.12887891
       3451.5860      0.21090250
       3452.3410      0.17274509
       3453.0961      0.11680164
       3453.8511      0.17699555
       3454.6062      0.10987034
       3455.3612      0.14309130
       3456.1163     0.087504681
       3456.8713      0.12691189
       3457.6264      0.16491832
       3458.3815      0.16272595
       3459.1365      0.13997969
       3459.8916     0.094623797
       3460.6466      0.12295082
       3461.4017      0.15561396
       3462.1567      0.21972229
       3462.9118      0.19238332
       3463.6669      0.11814130
       3464.4219      0.16363033
       3465.1770      0.15896259
       3465.9320      0.10409315
       3466.6871      0.17086502
       3467.4421      0.23738013
       3468.1972      0.17145461
       3468.9523      0.17395293
       3469.7073      0.21268700
       3470.4624      0.19788431
       3471.2174      0.12869503
       3471.9725      0.13823854
       3472.7275      0.15016143
       3473.4826      0.10705793
       3474.2376      0.15777385
       3474.9927      0.13850003
       3475.7478      0.15225250
       3476.5028      0.20319483
       3477.2579      0.17329729
       3478.0129      0.14898356
       3478.7680      0.13084383
       3479.5230      0.12215258
       3480.2781      0.17802781
       3481.0332      0.16075051
       3481.7882      0.13231949
       3482.5433      0.14813524
       3483.2983      0.17688412
       3484.0534      0.20245509
       3484.8084      0.16895698
       3485.5635      0.12529632
       3486.3185      0.12694876
       3487.0736      0.10336127
       3487.8287      0.14417661
       3488.5837      0.13693340
       3489.3388      0.10701991
       3490.0938      0.16388597
       3490.8489      0.14616631
       3491.6039      0.11637497
       3492.3590      0.15969678
       3493.1141      0.21097559
       3493.8691      0.15442123
       3494.6242      0.14302905
       3495.3792      0.13460602
       3496.1343      0.12068787
       3496.8893      0.12962345
       3497.6444      0.12797574
       3498.3995      0.15683662
       3499.1545      0.12342963
       3499.9096      0.14976618
       3500.6646     0.094615045
       3501.4197      0.13569055
       3502.1747      0.10703050
       3502.9298      0.12980858
       3503.6848      0.14275828
       3504.4399      0.16650406
       3505.1950      0.17145677
       3505.9500      0.12044599
       3506.7051      0.11643688
       3507.4601      0.14926308
       3508.2152     0.092124303
       3508.9702      0.14670909
       3509.7253      0.13295898
       3510.4804      0.18585690
       3511.2354      0.19279552
       3511.9905      0.16654423
       3512.7455      0.13400445
       3513.5006      0.10129593
       3514.2556      0.14573039
       3515.0107      0.14391367
       3515.7657      0.14468091
       3516.5208      0.13855309
       3517.2759      0.16019881
       3518.0309      0.14585403
       3518.7860      0.10945328
       3519.5410      0.13985430
       3520.2961      0.14232129
       3521.0511      0.10404856
       3521.8062      0.15876986
       3522.5613      0.19420964
       3523.3163      0.16564929
       3524.0714      0.15341733
       3524.8264      0.10309551
       3525.5815      0.13417881
       3526.3365      0.15806396
       3527.0916      0.17714073
       3527.8467      0.14757120
       3528.6017      0.19116723
       3529.3568      0.14343123
       3530.1118      0.17055628
       3530.8669      0.18105125
       3531.6219      0.12694462
       3532.3770      0.17882468
       3533.1320      0.19484550
       3533.8871      0.19948200
       3534.6422      0.17727920
       3535.3972      0.18553982
       3536.1523      0.16827316
       3536.9073      0.16270906
       3537.6624      0.16686796
       3538.4174      0.16789886
       3539.1725      0.17340291
       3539.9276      0.16218167
       3540.6826      0.14894092
       3541.4377      0.12840438
       3542.1927      0.15579903
       3542.9478      0.13029804
       3543.7028     0.082000454
       3544.4579      0.12932078
       3545.2129      0.18063061
       3545.9680      0.17166638
       3546.7231      0.20176696
       3547.4781      0.22074315
       3548.2332      0.18946506
       3548.9882      0.17593983
       3549.7433      0.15202822
       3550.4983      0.11318545
       3551.2534      0.14350480
       3552.0085      0.15952676
       3552.7635      0.15518718
       3553.5186      0.15243904
       3554.2736      0.16365899
       3555.0287      0.15592601
       3555.7837      0.22754401
       3556.5388      0.12446483
       3557.2939      0.14848350
       3558.0489      0.21147887
       3558.8040      0.19384172
       3559.5590      0.15018637
       3560.3141      0.19331653
       3561.0691      0.18745199
       3561.8242      0.17093981
       3562.5792      0.13985693
       3563.3343      0.15378047
       3564.0894      0.14381201
       3564.8444      0.12704987
       3565.5995      0.14633603
       3566.3545      0.14455079
       3567.1096      0.13969679
       3567.8646      0.12945161
       3568.6197      0.15046200
       3569.3748      0.15809757
       3570.1298      0.11797612
       3570.8849      0.13940357
       3571.6399     0.099373853
       3572.3950      0.14708551
       3573.1500      0.12735912
       3573.9051      0.14578500
       3574.6602      0.15506904
       3575.4152      0.15422654
       3576.1703      0.11684416
       3576.9253     0.075729963
       3577.6804     0.046439864
       3578.4354      0.17003776
       3579.1905      0.14547496
       3579.9455      0.11958305
       3580.7006      0.10253671
       3581.4557      0.13835398
       3582.2107      0.17356890
       3582.9658      0.14687394
       3583.7208      0.11999617
       3584.4759      0.15912072
       3585.2309      0.15786291
       3585.9860      0.17523454
       3586.7411      0.15739702
       3587.4961      0.13181638
       3588.2512      0.14856285
       3589.0062      0.16983898
       3589.7613      0.16561013
       3590.5163      0.17866973
       3591.2714      0.17770536
       3592.0264      0.14591581
       3592.7815      0.14407088
       3593.5366      0.14299606
       3594.2916      0.17043715
       3595.0467      0.13474319
       3595.8017      0.15280253
       3596.5568      0.14999837
       3597.3118      0.13970154
       3598.0669      0.14348179
       3598.8220      0.15806130
       3599.5770      0.12544946
       3600.3321      0.10299637
       3601.0871      0.15542537
       3601.8422      0.15853512
       3602.5972      0.14111046
       3603.3523      0.17948191
       3604.1074      0.18855236
       3604.8624      0.18813867
       3605.6175      0.19706655
       3606.3725      0.20417044
       3607.1276      0.16863669
       3607.8826      0.16474963
       3608.6377      0.17398198
       3609.3927      0.14774021
       3610.1478      0.14870605
       3610.9029      0.10103216
       3611.6579      0.10670675
       3612.4130      0.16327954
       3613.1680      0.18436564
       3613.9231      0.17040250
       3614.6781      0.19095759
       3615.4332      0.18280878
       3616.1883      0.17839102
       3616.9433      0.12208044
       3617.6984      0.19529472
       3618.4534      0.14244298
       3619.2085      0.11748117
       3619.9635      0.10364738
       3620.7186      0.16406572
       3621.4736      0.20396401
       3622.2287      0.14946157
       3622.9838      0.14509185
       3623.7388      0.15731019
       3624.4939      0.17690499
       3625.2489      0.18610168
       3626.0040      0.19475366
       3626.7590      0.19202986
       3627.5141      0.14181673
       3628.2692      0.16175909
       3629.0242      0.14557769
       3629.7793      0.13638994
       3630.5343      0.17877265
       3631.2894      0.14505220
       3632.0444      0.16085155
       3632.7995      0.20561720
       3633.5546      0.18104148
       3634.3096      0.17203890
       3635.0647      0.14579374
       3635.8197      0.15823023
       3636.5748      0.18341363
       3637.3298      0.18249425
       3638.0849      0.16419091
       3638.8399      0.14684793
       3639.5950      0.14601779
       3640.3501      0.15745679
       3641.1051      0.14590634
       3641.8602      0.18015341
       3642.6152      0.18024328
       3643.3703      0.15012736
       3644.1253      0.12029177
       3644.8804      0.15758324
       3645.6355      0.17446550
       3646.3905      0.18762985
       3647.1456      0.18508964
       3647.9006      0.10234144
       3648.6557      0.12998747
       3649.4107      0.14532641
       3650.1658      0.17336831
       3650.9208      0.12965571
       3651.6759      0.13706411
       3652.4310      0.20033200
       3653.1860      0.16354283
       3653.9411      0.16909548
       3654.6961      0.15652160
       3655.4512      0.14829934
       3656.2062      0.18557665
       3656.9613      0.20086996
       3657.7164      0.15299089
       3658.4714      0.15520230
       3659.2265      0.18684434
       3659.9815      0.15490179
       3660.7366      0.15047296
       3661.4916      0.15337868
       3662.2467      0.13630076
       3663.0018      0.13471826
       3663.7568      0.17517723
       3664.5119      0.17027414
       3665.2669     0.093411708
       3666.0220      0.11479740
       3666.7770      0.11601683
       3667.5321      0.14010875
       3668.2871      0.16041064
       3669.0422      0.15292324
       3669.7973      0.17839596
       3670.5523      0.11770811
       3671.3074      0.13615797
       3672.0624      0.14573708
       3672.8175      0.13910946
       3673.5725      0.12524163
       3674.3276      0.13192145
       3675.0827      0.18905770
       3675.8377      0.21718124
       3676.5928      0.15941844
       3677.3478      0.15526521
       3678.1029      0.21982632
       3678.8579      0.19382848
       3679.6130      0.19115870
       3680.3680      0.21116483
       3681.1231      0.15018711
       3681.8782      0.14520414
       3682.6332      0.13496395
       3683.3883      0.14202508
       3684.1433      0.20119990
       3684.8984      0.17258397
       3685.6534      0.13430155
       3686.4085      0.17248651
       3687.1636      0.16537584
       3687.9186      0.13990347
       3688.6737      0.17359636
       3689.4287      0.17863577
       3690.1838      0.16279723
       3690.9388      0.19369973
       3691.6939      0.20245186
       3692.4490      0.14777217
       3693.2040      0.15749606
       3693.9591      0.14697114
       3694.7141      0.14367824
       3695.4692      0.16404227
       3696.2242      0.16100781
       3696.9793      0.16206500
       3697.7343      0.20970092
       3698.4894      0.14783512
       3699.2445      0.11860668
       3699.9995      0.16906279
       3700.7546      0.19333314
       3701.5096      0.18395814
       3702.2647      0.14677163
       3703.0197      0.19747860
       3703.7748      0.17447896
       3704.5299      0.15253102
       3705.2849      0.14742417
       3706.0400      0.19026589
       3706.7950      0.20014398
       3707.5501      0.17872493
       3708.3051      0.10815402
       3709.0602      0.12737400
       3709.8153      0.14042734
       3710.5703      0.15038388
       3711.3254      0.16576966
       3712.0804      0.16143507
       3712.8355      0.19559226
       3713.5905      0.20898933
       3714.3456      0.29305373
       3715.1006      0.44718655
       3715.8557      0.52418253
       3716.6108      0.64239208
       3717.3658      0.76774425
       3718.1209      0.90904094
       3718.8759      0.87487138
       3719.6310      0.80182564
       3720.3860      0.77389390
       3721.1411      0.67202500
       3721.8962      0.53438569
       3722.6512      0.44950971
       3723.4063      0.34296266
       3724.1613      0.26099722
       3724.9164      0.17795869
       3725.6714      0.13267860
       3726.4265      0.17061280
       3727.1815      0.18949951
       3727.9366      0.10916676
       3728.6917      0.11485679
       3729.4467      0.17261566
       3730.2018      0.21365029
       3730.9568      0.20393192
       3731.7119      0.19334001
       3732.4669      0.18753074
       3733.2220      0.18583056
       3733.9771      0.16882818
       3734.7321      0.17099995
       3735.4872      0.16656581
       3736.2422      0.19867791
       3736.9973      0.23013765
       3737.7523      0.15949451
       3738.5074      0.14119817
       3739.2625      0.12734079
       3740.0175      0.13283891
       3740.7726      0.10875175
       3741.5276      0.13465691
       3742.2827      0.11510953
       3743.0377      0.17460638
       3743.7928      0.20694686
       3744.5478      0.25112557
       3745.3029      0.20027977
       3746.0580      0.18498302
       3746.8130      0.19556326
       3747.5681      0.18628799
       3748.3231      0.18137766
       3749.0782      0.20783664
       3749.8332      0.19511720
       3750.5883      0.15595304
       3751.3434     0.090902692
       3752.0984      0.13792746
       3752.8535      0.18247784
       3753.6085      0.15844923
       3754.3636      0.19830503
       3755.1186      0.23679856
       3755.8737      0.18855088
       3756.6287      0.11119719
       3757.3838      0.10970166
       3758.1389      0.11336824
       3758.8939      0.12771706
       3759.6490      0.15329277
       3760.4040      0.16004151
       3761.1591      0.16655505
       3761.9141      0.14021851
       3762.6692      0.10353132
       3763.4243      0.12196186
       3764.1793      0.13443274
       3764.9344      0.10888012
       3765.6894      0.12543060
       3766.4445      0.18356272
       3767.1995      0.19445296
       3767.9546      0.17636433
       3768.7097      0.17456968
       3769.4647      0.15479780
       3770.2198      0.15842201
       3770.9748      0.23451301
       3771.7299      0.18774062
       3772.4849      0.16760606
       3773.2400      0.19954513
       3773.9950      0.22824984
       3774.7501      0.23959940
       3775.5052      0.24296112
       3776.2602      0.22600857
       3777.0153      0.18476402
       3777.7703      0.20152154
       3778.5254      0.20381690
       3779.2804      0.18499686
       3780.0355      0.18431912
       3780.7906      0.17039761
       3781.5456      0.19399918
       3782.3007      0.17279220
       3783.0557      0.16363503
       3783.8108      0.18497614
       3784.5658      0.16843637
       3785.3209      0.17911999
       3786.0759      0.11454386
       3786.8310      0.16179703
       3787.5861      0.18086604
       3788.3411      0.13161107
       3789.0962      0.17458575
       3789.8512      0.15035818
       3790.6063      0.15093880
       3791.3613      0.13818832
       3792.1164     0.098791007
       3792.8715      0.15848550
       3793.6265      0.20102244
       3794.3816      0.20840506
       3795.1366      0.19780230
       3795.8917      0.15553941
       3796.6467      0.14669725
       3797.4018      0.17873378
       3798.1569      0.19239212
       3798.9119      0.22993726
       3799.6670      0.18259882
       3800.4220      0.15572049
       3801.1771      0.14817651
       3801.9321      0.18092014
       3802.6872      0.15696431
       3803.4422      0.19294852
       3804.1973      0.21846769
       3804.9524      0.20943778
       3805.7074      0.17737184
       3806.4625      0.21974634
       3807.2175      0.24172220
       3807.9726      0.18634368
       3808.7276      0.17222604
       3809.4827      0.19816554
       3810.2378      0.21079529
       3810.9928      0.18338888
       3811.7479      0.15706705
       3812.5029      0.18132833
       3813.2580      0.21272663
       3814.0130      0.21329733
       3814.7681      0.14029027
       3815.5232      0.15977746
       3816.2782      0.19579142
       3817.0333      0.19411098
       3817.7883      0.15754241
       3818.5434      0.19176482
       3819.2984      0.15889777
       3820.0535      0.18342089
       3820.8085      0.14207831
       3821.5636      0.10183385
       3822.3187      0.16677178
       3823.0737      0.20511581
       3823.8288      0.15708237
       3824.5838      0.17885366
       3825.3389      0.14851261
       3826.0939      0.11938419
       3826.8490      0.12823655
       3827.6041      0.14162902
       3828.3591      0.11631047
       3829.1142      0.14938531
       3829.8692      0.18390279
       3830.6243      0.14464857
       3831.3793      0.16200713
       3832.1344      0.17224394
       3832.8894      0.17605382
       3833.6445      0.24027276
       3834.3996      0.20995004
       3835.1546      0.20964265
       3835.9097      0.23854184
       3836.6647      0.25571508
       3837.4198      0.20919873
       3838.1748      0.18202830
       3838.9299      0.16176815
       3839.6850      0.22880662
       3840.4400      0.24524818
       3841.1951      0.25565496
       3841.9501      0.24686043
       3842.7052      0.25626254
       3843.4602      0.23332497
       3844.2153      0.21621135
       3844.9704      0.22707055
       3845.7254      0.27365503
       3846.4805      0.20025523
       3847.2355      0.21859756
       3847.9906      0.25052067
       3848.7456      0.21144386
       3849.5007      0.21061977
       3850.2557      0.20038174
       3851.0108      0.18434545
       3851.7659      0.19143408
       3852.5209      0.23112206
       3853.2760      0.19750180
       3854.0310      0.21725069
       3854.7861      0.28387853
       3855.5411      0.30671115
       3856.2962      0.25716636
       3857.0513      0.23057259
       3857.8063      0.20522154
       3858.5614      0.19162986
       3859.3164      0.20477874
       3860.0715      0.19271729
       3860.8265      0.21417497
       3861.5816      0.17260734
       3862.3366      0.16955534
       3863.0917      0.17948304
       3863.8468      0.20246681
       3864.6018      0.25579624
       3865.3569      0.19871643
       3866.1119      0.19161171
       3866.8670      0.24998931
       3867.6220      0.30405071
       3868.3771      0.22184065
       3869.1322      0.22428330
       3869.8872      0.20056248
       3870.6423      0.16427403
       3871.3973      0.14972494
       3872.1524      0.15642763
       3872.9074      0.19949119
       3873.6625      0.18883189
       3874.4176      0.18262441
       3875.1726      0.17582293
       3875.9277      0.15895368
       3876.6827      0.19406628
       3877.4378      0.19756955
       3878.1928      0.15366773
       3878.9479      0.16376078
       3879.7029      0.16134780
       3880.4580      0.16982927
       3881.2131      0.19650410
       3881.9681      0.16599852
       3882.7232      0.19020890
       3883.4782      0.21782668
       3884.2333      0.25477281
       3884.9883      0.21334300
       3885.7434      0.16935916
       3886.4985      0.14415252
       3887.2535      0.17359803
       3888.0086      0.18480114
       3888.7636      0.19751382
       3889.5187      0.18668308
       3890.2737      0.19475740
       3891.0288      0.17184833
       3891.7838      0.19185932
       3892.5389      0.20104510
       3893.2940      0.17909217
       3894.0490      0.25144646
       3894.8041      0.26307855
       3895.5591      0.20193587
       3896.3142      0.18021130
       3897.0692      0.17143390
       3897.8243      0.22364280
       3898.5794      0.23359941
       3899.3344      0.25453509
       3900.0895      0.24377102
       3900.8445      0.23426876
       3901.5996      0.20067007
       3902.3546      0.27187178
       3903.1097      0.27089671
       3903.8648      0.21820316
       3904.6198      0.21136564
       4086.6132      0.82094628
       4087.4540      0.91811179
       4088.2947      0.87493274
       4089.1354      0.85932265
       4089.9761      0.72718200
       4090.8168      0.71190432
       4091.6575      0.79971833
       4092.4982      0.94523806
       4093.3389      0.84548986
       4094.1796      0.86777590
       4095.0203      0.97958859
       4095.8610      0.76175406
       4096.7017      0.92152266
       4097.5425       1.0104266
       4098.3832      0.96805272
       4099.2239       1.1401357
       4100.0646      0.98488019
       4100.9053      0.73764606
       4101.7460      0.79024917
       4102.5867      0.81263869
       4103.4274      0.79625030
       4104.2681      0.78221255
       4105.1088      0.82839080
       4105.9495      0.91530663
       4106.7902      0.80871692
       4107.6310      0.88787219
       4108.4717       1.0536289
       4109.3124      0.99365721
       4110.1531       1.0314064
       4110.9938      0.85404503
       4111.8345      0.81872957
       4112.6752      0.89541698
       4113.5159      0.72037913
       4114.3566      0.70358292
       4115.1973      0.77002891
       4116.0380      0.72862648
       4116.8787      0.91604616
       4117.7194      0.93407971
       4118.5602       1.1435658
       4119.4009       1.0199896
       4120.2416      0.78195249
       4121.0823      0.62213537
       4121.9230      0.67431275
       4122.7637      0.72886371
       4123.6044      0.71542267
       4124.4451      0.61046407
       4125.2858      0.57562608
       4126.1265      0.76690623
       4126.9672       1.1445102
       4127.8079      0.73287185
       4128.6487      0.99217567
       4129.4894       1.6468403
       4130.3301       1.5830335
       4131.1708       1.2206447
       4132.0115      0.80564105
       4132.8522      0.60856881
       4133.6929      0.82868665
       4134.5336      0.88711288
       4135.3743       1.0023185
       4136.2150      0.93496837
       4137.0557      0.94713348
       4137.8964      0.92469911
       4138.7372      0.93268171
       4139.5779      0.91174301
       4140.4186      0.84446504
       4141.2593      0.87833824
       4142.1000      0.89301663
       4142.9407       1.0279888
       4143.7814       1.0034141
       4144.6221       1.0184415
       4145.4628      0.77464401
       4146.3035      0.85334819
       4147.1442      0.91455834
       4147.9849      0.97789723
       4148.8256      0.82125522
       4149.6664      0.79068369
       4150.5071      0.84763668
       4151.3478      0.80230996
       4152.1885      0.73871557
       4153.0292      0.75497145
       4153.8699      0.88596019
       4154.7106      0.78813335
       4155.5513      0.72292329
       4156.3920      0.81306354
       4157.2327      0.76373519
       4158.0734      0.75551561
       4158.9141      0.85765931
       4159.7549      0.85907403
       4160.5956      0.67966822
       4161.4363      0.69214739
       4162.2770      0.75490880
       4163.1177      0.66102142
       4163.9584      0.62057646
       4164.7991      0.68231853
       4165.6398      0.72276650
       4166.4805      0.71461191
       4167.3212      0.70322118
       4168.1619      0.80511976
       4169.0026      0.89160300
       4169.8434      0.86867119
       4170.6841      0.81723000
       4171.5248      0.76289855
       4172.3655      0.82196611
       4173.2062      0.92251288
       4174.0469      0.85612347
       4174.8876      0.87028390
       4175.7283      0.91023267
       4176.5690      0.74421453
       4177.4097      0.88063097
       4178.2504      0.98381338
       4179.0911      0.94582507
       4179.9318      0.80274328
       4180.7726      0.87934765
       4181.6133       1.0651484
       4182.4540      0.90695162
       4183.2947      0.76474709
       4184.1354      0.89440036
       4184.9761      0.82943090
       4185.8168      0.86074478
       4186.6575      0.84364819
       4187.4982      0.86879976
       4188.3389      0.90094726
       4189.1796      0.99151074
       4190.0203      0.90533894
       4190.8611      0.98077781
       4191.7018      0.92959280
       4192.5425      0.82018469
       4193.3832      0.87104147
       4194.2239      0.94703995
       4195.0646      0.95356345
       4195.9053       1.0864362
       4196.7460       1.0284535
       4197.5867      0.97458876
       4198.4274      0.89942153
       4199.2681      0.98172715
       4200.1088       1.0181055
       4200.9496      0.83655543
       4201.7903      0.77310394
       4202.6310      0.88590148
       4203.4717       1.0062248
       4204.3124      0.88563864
       4205.1531      0.92736939
       4205.9938      0.91845160
       4206.8345      0.87623420
       4207.6752      0.77830874
       4208.5159      0.79375021
       4209.3566      0.72077245
       4210.1973      0.80825408
       4211.0380      0.83158565
       4211.8788      0.87010066
       4212.7195      0.87257238
       4213.5602      0.67522322
       4214.4009      0.97736696
       4215.2416      0.94697326
       4216.0823      0.81396966
       4216.9230      0.80682684
       4217.7637      0.87700524
       4218.6044      0.94504277
       4219.4451      0.98913166
       4220.2858      0.79604642
       4221.1265      0.81455996
       4221.9673      0.85785874
       4222.8080      0.74568725
       4223.6487      0.91063356
       4224.4894      0.84357851
       4225.3301       1.0012396
       4226.1708      0.87305303
       4227.0115      0.95782750
       4227.8522      0.93205333
       4228.6929      0.80971845
       4229.5336      0.83047473
       4230.3743       1.0615346
       4231.2150       1.0511864
       4232.0558      0.85761894
       4232.8965      0.74729645
       4233.7372      0.70815137
       4234.5779      0.73862504
       4235.4186      0.84341643
       4236.2593      0.84903571
       4237.1000      0.80034115
       4237.9407      0.98411690
       4238.7814       1.0226894
       4239.6221      0.94171658
       4240.4628      0.93434300
       4241.3035       1.0132321
       4242.1442       1.1251519
       4242.9850       1.0038488
       4243.8257      0.95152356
       4244.6664      0.84988965
       4245.5071      0.74512930
       4246.3478      0.79935212
       4247.1885      0.92648214
       4248.0292      0.87733299
       4248.8699      0.83188982
       4249.7106      0.81203041
       4250.5513      0.71851172
       4251.3920      0.63175242
       4252.2327      0.75519915
       4253.0735      0.72904836
       4253.9142      0.80680006
       4254.7549      0.85688652
       4255.5956      0.89405496
       4256.4363      0.75430959
       4257.2770      0.58611553
       4258.1177      0.77587858
       4258.9584      0.91401314
       4259.7991      0.96477251
       4260.6398      0.92878753
       4261.4805      0.79466900
       4262.3212      0.74146415
       4263.1620      0.77227166
       4264.0027      0.78911780
       4264.8434      0.93210364
       4265.6841      0.98033845
       4266.5248      0.87709414
       4267.3655      0.92874825
       4268.2062      0.89385072
       4269.0469      0.87806075
       4269.8876      0.94890636
       4270.7283      0.97422345
       4271.5690      0.84081727
       4272.4097      0.88666280
       4273.2504      0.89965201
       4274.0912      0.96277333
       4274.9319      0.90478340
       4275.7726      0.81002525
       4276.6133      0.90500716
       4277.4540      0.85603191
       4278.2947      0.83174575
       4279.1354       1.0114939
       4279.9761      0.96117763
       4280.8168      0.85550297
       4281.6575      0.81123338
       4282.4982      0.70218347
       4283.3389      0.76987476
       4284.1797      0.78750295
       4285.0204      0.74171834
       4285.8611      0.84247678
       4286.7018      0.76218122
       4287.5425      0.70627066
       4288.3832      0.82696475
       4289.2239      0.83881674
       4290.0646      0.76688841
       4290.9053      0.70153424
       4291.7460      0.80926033
       4292.5867      0.89576059
       4293.4274      0.91168621
       4294.2682      0.81474822
       4295.1089      0.81646330
       4295.9496      0.69198553
       4296.7903      0.75040495
       4297.6310      0.78012663
       4298.4717      0.72569590
       4299.3124      0.80045594
       4300.1531      0.91420334
       4300.9938      0.86128842
       4301.8345      0.89993144
       4302.6752      0.94174376
       4303.5159      0.91836715
       4304.3566      0.83973651
       4305.1974      0.93710941
       4306.0381       1.0049059
       4306.8788      0.97021789
       4307.7195       1.0242946
       4308.5602       1.0558497
       4309.4009      0.91565097
       4310.2416      0.86738370
       4311.0823      0.87310698
       4311.9230      0.86797181
       4312.7637      0.86253007
       4313.6044      0.89576119
       4314.4451      0.75319262
       4315.2859      0.88716822
       4316.1266      0.88401203
       4316.9673      0.82243573
       4317.8080      0.74073577
       4318.6487      0.78249384
       4319.4894      0.99575468
       4320.3301      0.88182524
       4321.1708      0.89651598
       4322.0115      0.91642369
       4322.8522       1.0329777
       4323.6929       1.0987465
       4324.5336       1.2100909
       4325.3744       1.3625987
       4326.2151       1.3679807
       4327.0558       1.1669795
       4327.8965       1.2586007
       4328.7372       1.2141045
       4329.5779       1.1029029
       4330.4186      0.97097407
       4331.2593      0.95648672
       4332.1000      0.92739399
       4332.9407      0.85550840
       4333.7814      0.81075986
       4334.6221      0.79420301
       4335.4628      0.75286962
       4336.3036      0.85340843
       4337.1443      0.73932428
       4337.9850      0.80423676
       4338.8257      0.83140592
       4339.6664      0.91853202
       4340.5071      0.80017355
       4341.3478       1.0035634
       4342.1885       1.1282877
       4343.0292       1.2260860
       4343.8699       1.1342877
       4344.7106       1.0595842
       4345.5513      0.96045881
       4346.3921      0.91962811
       4347.2328       1.0188937
       4348.0735       1.0093170
       4348.9142      0.97848561
       4349.7549      0.91598008
       4350.5956       1.0230651
       4351.4363       1.0799319
       4352.2770       1.1379763
       4353.1177       1.0552909
       4353.9584      0.92454071
       4354.7991      0.89690873
       4355.6398      0.80876095
       4356.4806      0.72461923
       4357.3213      0.76202517
       4358.1620      0.96654144
       4359.0027      0.97277551
       4359.8434      0.97327540
       4360.6841      0.85730680
       4361.5248      0.85579323
       4362.3655      0.94942985
       4363.2062      0.93461274
       4364.0469      0.95225413
       4364.8876      0.97773723
       4365.7283      0.80601559
       4366.5690      0.89608010
       4367.4098      0.98182169
       4368.2505      0.95621766
       4369.0912       1.0439703
       4369.9319      0.81305319
       4370.7726      0.89255953
       4371.6133      0.94929879
       4372.4540       1.0693173
       4373.2947      0.95816224
       4374.1354      0.95175904
       4374.9761      0.69294046
       4375.8168      0.84145042
       4376.6575      0.80688906
       4377.4983      0.78410013
       4378.3390      0.61550823
       4379.1797      0.92729790
       4380.0204       1.0427976
       4380.8611       1.0636270
       4381.7018       1.0097201
       4382.5425      0.86313674
       4383.3832      0.91066888
       4384.2239      0.91411241
       4385.0646      0.84852443
       4385.9053       1.0191729
       4386.7460      0.82730115
       4387.5868      0.92867655
       4388.4275      0.91456545
       4389.2682      0.91198658
       4390.1089       1.0457026
       4390.9496       1.0710231
       4391.7903      0.97550901
       4392.6310      0.90695141
       4393.4717      0.83417536
       4394.3124      0.83160337
       4395.1531      0.88859485
       4395.9938       1.0167949
       4396.8345      0.77457526
       4397.6752      0.98733155
       4398.5160      0.98245214
       4399.3567       1.0909483
       4400.1974       1.1716724
       4401.0381       1.1136999
       4401.8788       1.1124094
       4402.7195       1.0912818
       4403.5602      0.92179837
       4404.4009      0.94856009
       4405.2416      0.86981693
       4406.0823      0.85637869
       4406.9230      0.90615398
       4407.7637      0.94001814
       4408.6045      0.96543558
       4409.4452      0.98870922
       4410.2859       1.0065285
       4411.1266      0.98403221
       4411.9673      0.88234119
       4412.8080      0.94560920
       4413.6487       1.0800545
       4414.4894      0.89917005
       4415.3301      0.85857827
       4416.1708      0.91592938
       4417.0115       1.0034495
       4417.8522       1.1008090
       4418.6930      0.85776144
       4419.5337      0.97194785
       4420.3744      0.59523032
       4421.2151      0.56442470
       4422.0558      0.50262344
       4422.8965       1.2031546
       4423.7372      0.96706138
       4424.5779       1.5309458
       4425.4186       1.2568866
       4426.2593       1.1057052
       4427.1000       1.0109482
       4427.9407      0.88041572
       4428.7814       1.0573530
       4429.6222       1.1035344
       4430.4629       1.2136248
       4431.3036       1.0851442
       4432.1443       1.0242021
       4432.9850      0.95850797
       4433.8257       1.0931844
       4434.6664       1.0229452
       4435.5071      0.89640349
       4436.3478      0.89453185
       4437.1885      0.96940225
       4438.0292      0.94699570
       4438.8699      0.72437597
       4439.7107       1.0725000
       4440.5514      0.95241449
       4441.3921       1.0341483
       4442.2328       1.0520190
       4443.0735      0.93075430
       4443.9142      0.88405556
       4444.7549      0.89909634
       4445.5956       1.2278924
       4446.4363       1.0095944
       4447.2770      0.96520690
       4448.1177      0.98752139
       4448.9584      0.96267921
       4449.7992      0.79763081
       4450.6399       1.0740784
       4451.4806       1.0936171
       4452.3213       1.0140861
       4453.1620       1.0095757
       4454.0027      0.98342472
       4454.8434       1.0358164
       4455.6841       1.1160195
       4456.5248      0.92990942
       4457.3655      0.92692485
       4458.2062      0.88802089
       4459.0469      0.95460626
       4459.8876      0.99071501
       4460.7284       1.0345718
       4461.5691       1.0010011
       4462.4098       1.0076394
       4463.2505      0.98966498
       4464.0912      0.95204807
       4464.9319      0.98145098
       4465.7726      0.86539617
       4466.6133      0.98650285
       4467.4540       1.0139003
       4468.2947      0.90984251
       4469.1354      0.97383683
       4469.9761       1.0644897
       4470.8169       1.0986150
       4471.6576      0.95499733
       4472.4983      0.98330923
       4473.3390       1.0840222
       4474.1797      0.91962606
       4475.0204      0.80959742
       4475.8611       1.0069235
       4476.7018       1.0590919
       4477.5425      0.91302398
       4478.3832       1.0283918
       4479.2239      0.83953228
       4480.0646      0.96915514
       4480.9054       1.0354215
       4481.7461       1.0957598
       4482.5868       1.1594276
       4483.4275       1.0019240
       4484.2682       1.0912075
       4485.1089       1.0770443
       4485.9496       1.0050491
       4486.7903      0.94700372
       4487.6310      0.97825589
       4488.4717       1.0726929
       4489.3124       1.1034673
       4490.1531      0.98291138
       4490.9938       1.0475330
       4491.8346       1.1465563
       4492.6753      0.91230106
       4493.5160       1.1376976
       4494.3567       1.0633296
       4495.1974       1.0231781
       4496.0381       1.0132932
       4496.8788       1.2463447
       4497.7195       1.1204638
       4498.5602       1.1393518
       4499.4009       1.2042733
       4500.2416      0.90838016
       4501.0823       1.0450790
       4501.9231       1.1376354
       4502.7638       1.1284224
       4503.6045       1.1413372
       4504.4452       1.0431702
       4505.2859       1.0235119
       4506.1266      0.93624334
       4506.9673       1.0104284
       4507.8080       1.0731587
       4508.6487       1.1015290
       4509.4894       1.1208140
       4510.3301       1.1298142
       4511.1708       1.0828048
       4512.0116       1.0200878
       4512.8523      0.99255397
       4513.6930       1.0426314
       4514.5337      0.97753538
       4515.3744      0.93960812
       4516.2151       1.0625132
       4517.0558       1.0237311
       4517.8965      0.92433484
       4518.7372       1.0041942
       4519.5779       1.0985045
       4520.4186      0.97031352
       4521.2593      0.88268648
       4522.1000       1.0658862
       4522.9408       1.0218512
       4523.7815       1.0386311
       4524.6222       1.0643442
       4525.4629      0.96408022
       4526.3036       1.0193961
       4527.1443      0.90166649
       4527.9850       1.1271700
       4528.8257       1.0212639
       4529.6664       1.0322491
       4530.5071       1.1283969
       4531.3478      0.98702397
       4532.1885       1.0083643
       4533.0293      0.93694653
       4533.8700       1.0268253
       4534.7107      0.94428274
       4535.5514      0.94832475
       4536.3921       1.0357664
       4537.2328      0.92450370
       4538.0735       1.0602295
       4538.9142       1.0415274
       4539.7549       1.0728643
       4540.5956      0.99867229
       4541.4363      0.86682940
       4542.2770      0.89611243
       4543.1178       1.0663667
       4543.9585       1.0610703
       4544.7992       1.0325874
       4545.6399      0.98793747
       4546.4806       1.0507271
       4547.3213       1.1063076
       4548.1620       1.0891864
       4549.0027      0.91375026
       4549.8434       1.0102097
       4550.6841       1.0919713
       4551.5248       1.1109654
       4552.3655      0.95732674
       4553.2062      0.97130187
       4554.0470      0.98265161
       4554.8877       1.0636448
       4555.7284       1.1004484
       4556.5691       1.0347701
       4557.4098       1.0048188
       4558.2505       1.0758669
       4559.0912       1.0178398
       4559.9319       1.0729479
       4560.7726       1.1766360
       4561.6133       1.0179483
       4562.4540      0.87997254
       4563.2947      0.95106159
       4564.1355       1.0438919
       4564.9762       1.0758675
       4565.8169       1.0188311
       4566.6576       1.0557548
       4567.4983       1.0664867
       4568.3390       1.3021797
       4569.1797      0.90826146
       4570.0204       1.2401341
       4570.8611       1.0936445
       4571.7018       1.0189814
       4572.5425      0.96889771
       4573.3832      0.99062707
       4574.2240       1.0576521
       4575.0647       1.1929804
       4575.9054      0.98895999
       4576.7461      0.94259801
       4577.5868      0.84373233
       4578.4275      0.84191296
       4579.2682       1.0484595
       4580.1089      0.99378575
       4580.9496      0.85725542
       4581.7903      0.91206479
       4582.6310      0.98938414
       4583.4717       1.1332423
       4584.3124       1.0460259
       4585.1532      0.97303854
       4585.9939      0.99429123
       4586.8346      0.93333213
       4587.6753      0.97895032
       4588.5160      0.95026785
       4589.3567      0.99981860
       4590.1974      0.83342898
       4591.0381      0.85809021
       4591.8788       1.1341218
       4592.7195      0.87682457
       4593.5602      0.98452243
       4594.4009      0.92746035
       4595.2417      0.95528434
       4596.0824      0.86969147
       4596.9231      0.93783166
       4597.7638       1.0378498
       4598.6045      0.97491437
       4599.4452       1.0419379
       4600.2859      0.93793639
       4601.1266      0.88558004
       4601.9673       1.0115992
       4602.8080       1.0061128
       4603.6487      0.91355687
       4604.4894      0.90541580
       4605.3302       1.0566646
       4606.1709       1.0795171
       4607.0116       1.0211664
       4607.8523       1.1571242
       4608.6930       1.2210444
       4609.5337       1.0587378
       4610.3744      0.97663229
       4611.2151       1.0206408
       4612.0558       1.0954242
       4612.8965       1.0837620
       4613.7372       1.1729550
       4614.5779       1.1626113
       4615.4186       1.0161576
       4616.2594       1.1766899
       4617.1001       1.0203159
       4617.9408      0.81926358
       4618.7815      0.96422749
       4619.6222      0.88841347
       4620.4629      0.96816025
       4621.3036       1.0925153
       4622.1443      0.96031347
       4622.9850       1.0940982
       4623.8257       1.0120264
       4624.6664      0.95119506
       4625.5071       1.0850624
       4626.3479      0.99928763
       4627.1886      0.93868134
       4628.0293      0.87543581
       4628.8700      0.96316462
       4629.7107       1.0876583
       4630.5514      0.92011190
       4631.3921       1.0577098
       4632.2328       1.1075122
       4633.0735      0.93287081
       4633.9142      0.97751184
       4634.7549      0.95703586
       4635.5956      0.97777264
       4636.4364      0.99431624
       4637.2771       1.0395346
       4638.1178      0.95828878
       4638.9585      0.96581750
       4639.7992       1.0158036
       4640.6399       1.0051377
       4641.4806      0.99100148
       4642.3213      0.90612528
       4643.1620      0.97950075
       4644.0027      0.94227602
       4644.8434       1.0637455
       4645.6841      0.93962204
       4646.5248      0.99715314
       4647.3656       1.0277487
       4648.2063       1.1362419
       4649.0470       1.0637040
       4649.8877       1.1195998
       4650.7284       1.1030787
       4651.5691       1.0952253
       4652.4098       1.0809237
       4653.2505       1.0254085
       4654.0912       1.1122986
       4654.9319      0.92792680
       4655.7726       1.0202895
       4656.6133      0.99042304
       4657.4541       1.0666150
       4658.2948      0.93439054
       4659.1355      0.95024382
       4659.9762       1.0272710
       4660.8169      0.90712570
       4661.6576      0.89190537
       4662.4983      0.77980666
       4663.3390      0.93825478
       4664.1797      0.91671590
       4665.0204       1.0032807
       4665.8611       1.2573853
       4666.7018      0.97319109
       4667.5426      0.95532128
       4668.3833      0.97469863
       4669.2240      0.99216988
       4670.0647      0.97876753
       4670.9054      0.88390444
       4671.7461       1.1045920
       4672.5868       1.0830826
       4673.4275       1.0941428
       4674.2682       1.1149749
       4675.1089      0.85328554
       4675.9496      0.96009626
       4676.7903       1.0606032
       4677.6310       1.0962472
       4678.4718      0.90936636
       4679.3125       1.1467129
       4680.1532       1.1411735
       4680.9939      0.91865753
       4681.8346       1.0182807
       4682.6753      0.90936527
       4683.5160       1.0280583
       4684.3567       1.0451711
       4685.1974       1.0497127
       4686.0381      0.98255640
       4686.8788      0.97369485
       4687.7195      0.96738551
       4688.5603      0.98781369
       4689.4010       1.0802191
       4690.2417       1.0817072
       4691.0824      0.89197977
       4691.9231      0.96436410
       4692.7638      0.93856873
       4693.6045       1.0169609
       4694.4452      0.93033154
       4695.2859      0.94242582
       4696.1266      0.93955448
       4696.9673      0.94651432
       4697.8080      0.94482648
       4698.6488      0.95491290
       4699.4895      0.86588115
       4700.3302      0.96761312
       4701.1709      0.96258221
       4702.0116       1.0132393
       4702.8523       1.0872037
       4703.6930       1.0574163
       4704.5337       1.0400794
       4705.3744       1.1752473
       4706.2151       1.1247302
       4707.0558       1.0229445
       4707.8965      0.91216111
       4708.7372       1.0014412
       4709.5780      0.94680930
       4710.4187       1.0082013
       4711.2594      0.90681248
       4712.1001       1.0903961
       4712.9408      0.92411847
       4713.7815       1.0922220
       4714.6222       1.1157251
       4715.4629      0.90394311
       4716.3036       1.0866757
       4717.1443       1.1437518
       4717.9850       1.0650430
       4718.8257       1.1518707
       4719.6665       1.0939934
       4720.5072       1.1685046
       4721.3479       1.0552489
       4722.1886       1.1375031
       4723.0293      0.96268354
       4723.8700      0.85037252
       4724.7107      0.93954884
       4725.5514      0.98108233
       4726.3921       1.1012592
       4727.2328       1.0610453
       4728.0735       1.0426461
       4728.9142       1.0653968
       4729.7550      0.99792199
       4730.5957       1.1329020
       4731.4364       1.0288485
       4732.2771       1.1684266
       4733.1178       1.1462371
       4733.9585       1.0199456
       4734.7992       1.0691176
       4735.6399       1.0829828
       4736.4806       1.0335618
       4737.3213       1.0034925
       4738.1620       1.1057094
       4739.0027       1.0782227
       4739.8434       1.0350071
       4740.6842       1.0503315
       4741.5249       1.0616200
       4742.3656       1.1397963
       4743.2063       1.1087913
       4744.0470       1.1786717
       4744.8877       1.1919056
       4745.7284       1.0872751
       4746.5691       1.0786992
       4747.4098       1.0676163
       4748.2505       1.0517515
       4749.0912      0.97396917
       4749.9319       1.0657007
       4750.7727       1.0659966
       4751.6134      0.94446798
       4752.4541       1.1336567
       4753.2948      0.92306531
       4754.1355       1.0328296
       4754.9762       1.0453487
       4755.8169       1.0940244
       4756.6576       1.0931752
       4757.4983       1.0910118
       4758.3390      0.98413580
       4759.1797       1.0250916
       4760.0204      0.97320863
       4760.8612      0.92590382
       4761.7019       1.0564130
       4762.5426       1.0620911
       4763.3833      0.94508520
       4764.2240       1.1323526
       4765.0647       1.0114872
       4765.9054      0.98634068
       4766.7461      0.96007211
       4767.5868       1.0493902
       4768.4275       1.0251128
       4769.2682       1.0168775
       4770.1089      0.95914057
       4770.9496       1.0634277
       4771.7904       1.1187521
       4772.6311       1.2400901
       4773.4718      0.94644030
       4774.3125       1.0554970
       4775.1532       1.0853682
       4775.9939      0.92140304
       4776.8346       1.0327628
       4777.6753       1.0672714
       4778.5160      0.99836004
       4779.3567      0.97891456
       4780.1974      0.89437951
       4781.0381      0.94862907
       4781.8789      0.95926433
       4782.7196       1.0079769
       4783.5603      0.88664284
       4784.4010      0.97219545
       4785.2417       1.1185257
       4786.0824       1.0466149
       4786.9231      0.95241768
       4787.7638      0.88156008
       4788.6045       1.0055749
       4789.4452      0.86807924
       4790.2859      0.99921356
       4791.1266       1.0081155
       4791.9674       1.0609093
       4792.8081       1.1169174
       4793.6488       1.0089936
       4794.4895       1.0094542
       4795.3302       1.0231231
       4796.1709       1.0161669
       4797.0116       1.0642612
       4797.8523      0.86317626
       4798.6930       1.0023213
       4799.5337      0.90637948
       4800.3744       1.1208568
       4801.2151       1.1239540
       4802.0558      0.90444789
       4802.8966      0.99779845
       4803.7373       1.3199512
       4804.5780       1.2767626
       4805.4187      0.88858514
       4806.2594      0.94851468
       4807.1001       1.0648443
       4807.9408       1.3187213
       4808.7815       1.0127602
       4809.6222      0.96622017
       4810.4629      0.98936751
       4811.3036       1.1313437
       4812.1443       1.1643409
       4812.9851       1.1138079
       4813.8258      0.99482544
       4814.6665       1.1062528
       4815.5072       1.1415160
       4816.3479       1.0380712
       4817.1886       1.1371847
       4818.0293      0.96474479
       4818.8700       1.0539877
       4819.7107       1.0152202
       4820.5514       1.0409655
       4821.3921       1.0484240
       4822.2328       1.1202907
       4823.0736      0.94735091
       4823.9143       1.2068858
       4824.7550       1.0525142
       4825.5957      0.79391678
       4826.4364      0.86936220
       4827.2771      0.98283349
       4828.1178       1.0378096
       4828.9585      0.76696739
       4829.7992      0.79295027
       4830.6399      0.68642260
       4831.4806      0.72173962
       4832.3213      0.66645082
       4833.1620      0.68331334
       4834.0028      0.87514592
       4834.8435      0.80052135
       4835.6842      0.87898161
       4836.5249      0.84794736
       4837.3656      0.70551037
       4838.2063      0.87178076
       4839.0470      0.89610603
       4839.8877      0.93951124
       4840.7284       1.0476436
       4841.5691      0.91400098
       4842.4098      0.85829934
       4843.2505      0.93129042
       4844.0913      0.99892048
       4844.9320      0.83009704
       4845.7727      0.91243321
       4846.6134      0.77456431
       4847.4541      0.84564151
       4848.2948      0.80545618
       4849.1355      0.76973689
       4849.9762      0.82737931
       4850.8169      0.68008560
       4851.6576      0.85295607
       4852.4983      0.75833668
       4853.3390       1.0026460
       4854.1798       1.0934461
       4855.0205       1.2604049
       4855.8612       1.4885632
       4856.7019       2.1199255
       4857.5426       2.3671156
       4858.3833       2.4127431
       4859.2240       2.2262010
       4860.0647       2.0990787
       4860.9054       1.9452182
       4861.7461       1.6311639
       4862.5868       1.4306740
       4863.4275       1.1375276
       4864.2682      0.96212938
       4865.1090      0.88420902
       4865.9497      0.92329025
       4866.7904      0.92833734
       4867.6311      0.82027056
       4868.4718      0.73653424
       4869.3125      0.70246446
       4870.1532       1.0778913
       4870.9939      0.93800716
       4871.8346       1.1281625
       4872.6753       1.1518907
       4873.5160      0.97330239
       4874.3567       1.0588132
       4875.1975       1.0542218
       4876.0382      0.77351888
       4876.8789      0.88055224
       4877.7196      0.97218022
       4878.5603      0.99952530
       4879.4010      0.95407543
       4880.2417       1.0697447
       4881.0824      0.96612349
       4881.9231       1.0346516
       4882.7638      0.92025550
       4883.6045      0.94400982
       4884.4452       1.0283050
       4885.2860      0.95171784
       4886.1267      0.90911738
       4886.9674      0.84852845
       4887.8081      0.91536654
       4888.6488      0.91058189
       4889.4895      0.93676161
       4890.3302       1.0115052
       4891.1709       1.1818596
       4892.0116       1.2949082
       4892.8523       1.1899535
       4893.6930       1.0807194
       4894.5337       1.1236102
       4895.3744       1.0013730
       4896.2152       1.0065124
       4897.0559      0.98129843
       4897.8966       1.0203430
       4898.7373       1.2710397
       4899.5780       1.0334412
       4900.4187       1.0281304
       4901.2594       1.1338331
       4902.1001       1.0833883
       4902.9408       1.3017188
       4903.7815       1.2268327
       4904.6222      0.89376729
       4905.4629       1.0262379
       4906.3037       1.2167585
       4907.1444       1.1401945
       4907.9851       1.0868074
       4908.8258       1.1136053
       4909.6665      0.99986487
       4910.5072       1.3122553
       4911.3479       1.2131963
       4912.1886       1.2436398
       4913.0293       1.1260353
       4913.8700       1.1461407
       4914.7107       1.0548077
       4915.5514       1.0617630
       4916.3922       1.1710197
       4917.2329       1.1324340
       4918.0736       1.1750799
       4918.9143       1.0798021
       4919.7550       1.1179752
       4920.5957       1.1747309
       4921.4364       1.1606613
       4922.2771       1.2606873
       4923.1178       1.2237589
       4923.9585       1.1752269
       4924.7992       1.1937203
       4925.6399       1.1927237
       4926.4806       1.2104632
       4927.3214       1.2297634
       4928.1621       1.0502062
       4929.0028       1.0575692
       4929.8435       1.1276263
       4930.6842       1.1438074
       4931.5249       1.1057911
       4932.3656       1.0666554
       4933.2063       1.1041336
       4934.0470       1.2624639
       4934.8877       1.0542481
       4935.7284       1.2319436
       4936.5691       1.1605783
       4937.4099      0.98750005
       4938.2506       1.1192928
       4939.0913       1.0260283
       4939.9320       1.1432834
       4940.7727       1.1702557
       4941.6134       1.1406153
       4942.4541       1.1823933
       4943.2948       1.2315069
       4944.1355       1.1436309
       4944.9762       1.2313995
       4945.8169       1.1281777
       4946.6576       1.1936513
       4947.4984       1.1412067
       4948.3391       1.2137637
       4949.1798       1.1404196
       4950.0205       1.0945630
       4950.8612       1.2198960
       4951.7019       1.3301056
       4952.5426       1.1490054
       4953.3833       1.1527274
       4954.2240       1.2593292
       4955.0647       1.3971052
       4955.9054       1.3886529
       4956.7461       1.4033875
       4957.5868       1.4079640
       4958.4276       1.4156225
       4959.2683       1.4816912
       4960.1090       1.3639679
       4960.9497       1.1502788
       4961.7904       1.1071179
       4962.6311       1.2050521
       4963.4718       1.0342216
       4964.3125       1.0567459
       4965.1532       1.1247954
       4965.9939       1.1980461
       4966.8346       1.0776215
       4967.6753       1.0666359
       4968.5161      0.99808528
       4969.3568       1.1663299
       4970.1975       1.0530370
       4971.0382       1.0968792
       4971.8789       1.2287375
       4972.7196       1.1318480
       4973.5603       1.1133430
       4974.4010       1.2459666
       4975.2417       1.1834631
       4976.0824       1.1995714
       4976.9231       1.2031072
       4977.7638       1.0388202
       4978.6046       1.1417237
       4979.4453       1.2556594
       4980.2860       1.1096504
       4981.1267       1.0635075
       4981.9674      0.89484546
       4982.8081       1.2043294
       4983.6488      0.98405612
       4984.4895       1.2270598
       4985.3302       1.0186098
       4986.1709       1.2390213
       4987.0116       1.2948088
       4987.8523       1.1809324
       4988.6930       1.2270340
       4989.5338       1.1854743
       4990.3745       1.1643615
       4991.2152       1.1191777
       4992.0559       1.3254404
       4992.8966       1.1642498
       4993.7373       1.2959049
       4994.5780       1.1011835
       4995.4187       1.1059211
       4996.2594       1.0105133
       4997.1001       1.1771958
       4997.9408       1.2589822
       4998.7815       1.1139939
       4999.6223      0.96867934
       5000.4630       1.2219883
       5001.3037       1.2279225
       5002.1444       1.3132432
       5002.9851       1.5508208
       5003.8258       1.7741572
       5004.6665       1.9238247
       5005.5072       2.3062177
       5006.3479       2.0270420
       5007.1886       2.0334777
       5008.0293       1.7250599
       5008.8700       1.5429526
       5009.7108       1.2381809
       5010.5515       1.0700787
       5011.3922       1.0442984
       5012.2329       1.0253619
       5013.0736       1.1452545
       5013.9143       1.0484866
       5014.7550       1.1286911
       5015.5957       1.1372306
       5016.4364       1.2412913
       5017.2771       1.0958718
       5018.1178       1.1182310
       5018.9585       1.1081724
       5019.7992       1.1619651
       5020.6400       1.0077573
       5021.4807       1.1623467
       5022.3214       1.0057588
       5023.1621       1.2382215
       5024.0028       1.3481292
       5024.8435       1.1762669
       5025.6842       1.2735487
       5026.5249       1.1371763
       5027.3656       1.1160177
       5028.2063       1.1849933
       5029.0470       1.1026818
       5029.8877      0.98109172
       5030.7285       1.1415313
       5031.5692       1.2113916
       5032.4099       1.2419019
       5033.2506       1.0798142
       5034.0913       1.0510374
       5034.9320       1.0419571
       5035.7727       1.0507170
       5036.6134       1.0320407
       5037.4541      0.91182927
       5038.2948       1.0728611
       5039.1355       1.1149130
       5039.9762       1.2467124
       5040.8170       1.1063795
       5041.6577       1.1501697
       5042.4984       1.2049884
       5043.3391       1.1524604
       5044.1798       1.2106463
       5045.0205      0.99717690
       5045.8612      0.92794421
       5046.7019       1.0688344
       5047.5426       1.0401790
       5048.3833       1.0238694
       5049.2240       1.1400426
       5050.0647       1.1158135
       5050.9054      0.95640876
       5051.7462       1.0241178
       5052.5869      0.99636828
       5053.4276       1.0160792
       5054.2683       1.0963354
       5055.1090       1.2964447
       5055.9497       1.1637985
       5056.7904       1.2027534
       5057.6311       1.2222641
       5058.4718       1.2513269
       5059.3125       1.2300438
       5060.1532       1.2625065
       5060.9939       1.1602108
       5061.8347       1.3892452
       5062.6754       1.1063340
       5063.5161       1.1748481
       5064.3568       1.2305921
       5065.1975       1.0373106
       5066.0382       1.0770019
       5066.8789       1.0435846
       5067.7196       1.1705073
       5068.5603      0.97724250
       5069.4010      0.98246926
       5070.2417       1.1192281
       5071.0824       1.2793358
       5071.9232       1.2310099
       5072.7639       1.2052359
       5073.6046       1.1236510
       5074.4453       1.1469006
       5075.2860       1.1400123
       5076.1267       1.0901331
       5076.9674       1.1320431
       5077.8081       1.1985295
       5078.6488       1.2087302
       5079.4895       1.0970130
       5080.3302       1.1763862
       5081.1709       1.3233281
       5082.0116       1.2268829
       5082.8524       1.1914679
       5083.6931       1.2130754
       5084.5338       1.2611003
       5085.3745       1.3715769
       5086.2152       1.2687013
       5087.0559       1.3556717
       5087.8966       1.0975362
       5088.7373       1.1289849
       5089.5780       1.3102121
       5090.4187       1.0129033
       5091.2594       1.0117685
       5092.1001       1.0560289
       5092.9409      0.93422656
       5093.7816       1.0024570
       5094.6223      0.90296154
       5095.4630       1.0864725
       5096.3037       1.0091686
       5097.1444       1.3102110
       5097.9851      0.97625619
       5098.8258       1.6714430
       5099.6665       1.6738447
       5100.5072       1.5386689
       5101.3479       1.2877747
       5102.1886       1.2104402
       5103.0294       1.1185083
       5103.8701       1.1513343
       5104.7108       1.1990755
       5105.5515       1.1955266
       5106.3922       1.1755186
       5107.2329       1.1403660
       5108.0736       1.0336390
       5108.9143       1.0800978
       5109.7550       1.1476368
       5110.5957       1.2905561
       5111.4364      0.99816776
       5112.2771       1.2636932
       5113.1178       1.1688037
       5113.9586       1.1800188
       5114.7993       1.1493901
       5115.6400       1.1043301
       5116.4807      0.73192771
       5117.3214      0.22628474
       5118.1621      0.94547981
       5119.0028       1.1582392
       5119.8435       1.0353184
       5120.6842       1.0759378
       5121.5249       1.1309694
       5122.3656       1.4702949
       5123.2063       1.2311535
       5124.0471       1.2884435
       5124.8878       1.2653877
       5125.7285       1.1382818
       5126.5692      0.97211710
       5127.4099       1.4488972
       5128.2506      0.94851874
       5129.0913       1.0591243
       5129.9320       1.2787682
       5130.7727       1.2052779
       5131.6134       1.0708748
       5132.4541       1.2057150
       5133.2948       1.2898793
       5134.1356       1.1732351
       5134.9763       1.0304415
       5135.8170       1.2042469
       5136.6577       1.3643594
       5137.4984       1.2317271
       5138.3391       1.0399446
       5139.1798       1.0463863
       5140.0205      0.85526327
       5140.8612       1.1422563
       5141.7019       1.1899903
       5142.5426       1.0843569
       5143.3833       1.2120547
       5144.2240       1.2315793
       5145.0648       1.5358141
       5145.9055       1.4124305
       5146.7462       1.1775037
       5147.5869       1.2981878
       5148.4276       1.6425671
       5149.2683       1.6980637
       5150.1090       2.2744919
       5150.9497       2.2868929
       5151.7904       1.7713935
       5152.6311       1.2947375
       5153.4718       1.1634636
       5154.3125       1.1862516
       5155.1533       1.2214771
       5155.9940       1.1208071
       5156.8347       1.0655345
       5157.6754       1.2641868
       5158.5161       1.1898825
       5159.3568       1.2777212
       5160.1975       1.1294974
       5161.0382       1.2265867
       5161.8789       1.2344865
       5162.7196       1.1638479
       5163.5603       1.0636190
       5164.4010      0.95810983
       5165.2418      0.86898115
       5166.0825      0.85771857
       5166.9232      0.97511010
       5167.7639       1.4284097
       5168.6046       1.0916040
       5169.4453      0.92631215
       5170.2860      0.99109638
       5171.1267      0.95280152
       5171.9674      0.99694336
       5172.8081       1.0656337
       5173.6488       1.0368191
       5174.4895       1.0975292
       5175.3302       1.2004534
       5176.1710       1.2188370
       5177.0117       1.1599390
       5177.8524       1.2304555
       5178.6931       1.3727183
       5179.5338       1.0157192
       5180.3745       1.3007989
       5181.2152       1.2229091
       5182.0559       1.1536798
       5182.8966      0.95526531
       5183.7373       1.1560637
       5184.5780      0.79849867
       5185.4187       1.0073860
       5186.2595      0.88610719
       5187.1002       1.2410320
       5187.9409       1.3335206
       5188.7816       1.2406769
       5189.6223       1.2866704
       5190.4630       1.4289620
       5191.3037       1.1855662
       5192.1444       1.2218311
       5192.9851       1.1183814
       5193.8258       1.1416298
       5194.6665       1.2826302
       5195.5072       1.3200707
       5196.3480       1.2539352
       5197.1887       1.2794564
       5198.0294       1.3773916
       5198.8701       1.4674436
       5199.7108       1.3929486
       5200.5515       1.3929822
       5201.3922       1.3645988
       5202.2329       1.4820192
       5203.0736       1.1588523
       5203.9143       1.2129220
       5204.7550       1.1148846
       5205.5957       1.2533459
       5206.4364       1.1470103
       5207.2772       1.0102240
       5208.1179       1.1408560
       5208.9586      0.97018964
       5209.7993       1.0385585
       5210.6400       1.2994348
       5211.4807       1.3256744
       5212.3214       1.2664924
       5213.1621       1.4144964
       5214.0028       1.3690309
       5214.8435       1.3527073
       5215.6842       1.2658754
       5216.5249       1.1572813
       5217.3657       1.2176628
       5218.2064       1.2396876
       5219.0471       1.2228489
       5219.8878       1.3077201
       5220.7285       1.2979714
       5221.5692       1.2153314
       5222.4099       1.1977198
       5223.2506       1.1797283
       5224.0913       1.2756568
       5224.9320       1.2455238
       5225.7727       1.2668043
       5226.6134       1.2058243
       5227.4542       1.1957713
       5228.2949       1.2221296
       5229.1356       1.3639748
       5229.9763       1.4078155
       5230.8170       1.3011212
       5231.6577       1.3702635
       5232.4984       1.3946816
       5233.3391       1.2016704
       5234.1798       1.1255095
       5235.0205       1.2358050
       5235.8612       1.3357297
       5236.7019       1.0967896
       5237.5426       1.4346929
       5238.3834       1.3592564
       5239.2241       1.4433242
       5240.0648       1.3823735
       5240.9055       1.4129689
       5241.7462       1.3653981
       5242.5869       1.4041142
       5243.4276       1.1549600
       5244.2683       1.1339034
       5245.1090       1.2184953
       5245.9497       1.3295710
       5246.7904       1.3119158
       5247.6311       1.1355621
       5248.4719       1.2570063
       5249.3126       1.1457789
       5250.1533       1.2243022
       5250.9940       1.2574054
       5251.8347       1.4141691
       5252.6754       1.2759015
       5253.5161       1.2447319
       5254.3568      0.99615139
       5255.1975       1.3367829
       5256.0382       1.2878932
       5256.8789       1.2421774
       5257.7196       1.1481226
       5258.5604       1.3283221
       5259.4011       1.2503514
       5260.2418       1.1239833
       5261.0825       1.3221077
       5261.9232       1.2751317
       5262.7639       1.2760454
       5263.6046       1.4809864
       5264.4453       1.1120717
       5265.2860       1.3303152
       5266.1267       1.3191266
       5266.9674       1.1005071
       5267.8081       1.2464654
       5268.6488       1.3762645
       5269.4896       1.1206140
       5270.3303       1.3270388
       5271.1710       1.2995275
       5272.0117       1.3377052
       5272.8524       1.2331086
       5273.6931       1.2059885
       5274.5338       1.0511626
       5275.3745       1.2704769
       5276.2152       1.2445242
       5277.0559       1.3595128
       5277.8966       1.3284895
       5278.7373       1.1061121
       5279.5781       1.3302942
       5280.4188       1.3334072
       5281.2595       1.4242342
       5282.1002       1.1754878
       5282.9409       1.1324147
       5283.7816       1.1940012
       5284.6223       1.2414000
       5285.4630       1.3437508
       5286.3037       1.3372857
       5287.1444       1.2413328
       5287.9851       1.2670420
       5288.8258       1.2585889
       5289.6666       1.4140808
       5290.5073       1.2849746
       5291.3480       1.5156975
       5292.1887       1.1315933
       5293.0294       1.3518428
       5293.8701       1.4171207
       5294.7108       1.4465680
       5295.5515       1.0131841
       5296.3922       1.3458533
       5297.2329       1.6904851
       5298.0736       1.5339092
       5298.9143       1.2385692
       5299.7550       1.4023824
       5300.5958       1.5839391
       5301.4365       1.5460517
       5302.2772       1.6051224
       5303.1179       1.6892022
       5303.9586       1.4795498
       5304.7993       1.4455001
       5305.6400       1.3613273
       5306.4807       1.4277292
       5307.3214       1.5892175
       5308.1621       1.6470693
       5309.0028       1.3922154
       5309.8435       1.4045810
       5310.6843       1.3654053
       5311.5250       1.4043315
       5312.3657       1.3610433
       5313.2064       1.3313547
       5314.0471       1.3749982
       5314.8878       1.3835502
       5315.7285       1.3605504
       5316.5692       1.4288620
       5317.4099       1.2373698
       5318.2506       1.4388393
       5319.0913       1.1557455
       5319.9320       1.2107934
       5320.7728       1.3527591
       5321.6135       1.2939717
       5322.4542       1.4563322
       5323.2949       1.4091818
       5324.1356       1.2798505
       5324.9763       1.3816268
       5325.8170       1.3461291
       5326.6577       1.3795860
       5327.4984       1.0641341
       5328.3391       1.2757492
       5329.1798       1.2234269
       5330.0205       1.3807594
       5330.8612       1.3611170
       5331.7020       1.1294052
       5332.5427       1.3040908
       5333.3834       1.2234341
       5334.2241       1.3083973
       5335.0648       1.3936356
       5335.9055       1.3386145
       5336.7462       1.4647016
       5337.5869       1.3390406
       5338.4276       1.5405659
       5339.2683       1.3305447
       5340.1090       1.2882414
       5340.9497       1.1351203
       5341.7905       1.3555806
       5342.6312       1.2822877
       5343.4719       1.2431028
       5344.3126       1.1815429
       5345.1533       1.0800133
       5345.9940      0.97772082
       5346.8347      0.85953675
       5347.6754      0.85337116
       5348.5161      0.66173274
       5349.3568      0.66069877
       5350.1975             NaN
       5351.0382             NaN
       5351.8790             NaN
       5352.7197             NaN
       5353.5604             NaN
       5354.4011             NaN
       5355.2418             NaN
       5356.0825             NaN
       5356.9232             NaN
       5357.7639             NaN
       5358.6046             NaN
       5359.4453             NaN
       5360.2860             NaN
       5361.1267             NaN
       5361.9674             NaN
       5362.8082             NaN
       5363.6489             NaN
       5364.4896             NaN
       5365.3303             NaN
       5366.1710             NaN
       5367.0117             NaN
       5367.8524             NaN
       5368.6931             NaN
       5369.5338             NaN
       5370.3745             NaN
       5371.2152             NaN
       5372.0559             NaN
       5372.8967             NaN
       5373.7374             NaN
       5374.5781             NaN
       5375.4188             NaN
       5376.2595             NaN
       5377.1002             NaN
       5377.9409             NaN
       5378.7816             NaN
       5379.6223             NaN
       5380.4630             NaN
       5381.3037             NaN
       5382.1444             NaN
       5382.9852             NaN
       5383.8259             NaN
       5384.6666             NaN
       5385.5073             NaN
       5386.3480             NaN
       5387.1887             NaN
       5388.0294             NaN
       5388.8701             NaN
       5389.7108             NaN
       5390.5515             NaN
       5391.3922             NaN
       5392.2329             NaN
       5393.0736             NaN
       5393.9144             NaN
       5394.7551             NaN
       5395.5958             NaN
       5396.4365             NaN
       5397.2772             NaN
       5398.1179             NaN
       5398.9586             NaN
       5399.7993             NaN
       5400.6400             NaN
       5401.4807             NaN
       5402.3214             NaN
       5403.1621             NaN
       5404.0029             NaN
       5404.8436             NaN
       5405.6843             NaN
       5406.5250             NaN
       5407.3657             NaN
       5408.2064             NaN
       5409.0471             NaN
       5409.8878             NaN
       5410.7285             NaN
       5411.5692             NaN
       5412.4099             NaN
       5413.2506             NaN
       5414.0914             NaN
       5414.9321             NaN
       5415.7728             NaN
       5416.6135             NaN
       5417.4542             NaN
       5418.2949             NaN
       5419.1356             NaN
       5419.9763             NaN
       5420.8170             NaN
       5421.6577             NaN
       5422.4984             NaN
       5423.3391             NaN
       5424.1798             NaN
       5425.0206       1.4459884
       5425.8613       1.3861327
       5426.7020       1.1046639
       5427.5427      0.87683997
       5428.3834       1.2204796
       5429.2241       1.2536047
       5430.0648       1.3610121
       5430.9055       1.4040671
       5431.7462       1.5385091
       5432.5869       1.7549614
       5433.4276       1.6641267
       5434.2683       1.7178201
       5435.1091       1.3068687
       5435.9498       1.3329484
       5436.7905       1.3040220
       5437.6312       1.3249315
       5438.4719       1.4733344
       5439.3126       1.5209013
       5440.1533       1.3913536
       5440.9940       1.5973044
       5441.8347       1.5655519
       5442.6754       1.4882317
       5443.5161       1.5087765
       5444.3568       1.3688411
       5445.1976       1.2874118
       5446.0383       1.3336377
       5446.8790       1.4367823
       5447.7197       1.5602133
       5448.5604       1.3090166
       5449.4011       1.2645751
       5450.2418       1.3476288
       5451.0825       1.3432455
       5451.9232       1.6213926
       5452.7639       1.2298281
       5453.6046      0.91155518
       5454.4453       1.0373908
       5455.2860       1.1214063
       5456.1268       1.3311837
       5456.9675       1.5176183
       5457.8082       1.6105734
       5458.6489       1.6719188
       5459.4896       1.5106049
       5460.3303       1.3967837
       5461.1710       1.1808699
       5462.0117       1.1962469
       5462.8524       1.4599247
       5463.6931       1.6310440
       5464.5338       1.7069320
       5465.3745       1.6198740
       5466.2153       1.7020329
       5467.0560       1.4413459
       5467.8967       1.3581131
       5468.7374       1.5566132
       5469.5781       1.5030917
       5470.4188       1.4942236
       5471.2595       1.3664135
       5472.1002       1.3732525
       5472.9409       1.4599950
       5473.7816       1.5483350
       5474.6223       1.4019755
       5475.4630       1.4504420
       5476.3038       1.2809095
       5477.1445       1.3395253
       5477.9852       1.7486592
       5478.8259       1.7242852
       5479.6666       1.4412371
       5480.5073       1.3566171
       5481.3480       1.5406799
       5482.1887       1.4721915
       5483.0294       1.4605537
       5483.8701       1.2931906
       5484.7108       1.0458827
       5485.5515       1.1419156
       5486.3922       1.1173333
       5487.2330       1.4972891
       5488.0737       1.8122042
       5488.9144       1.7923379
       5489.7551       1.4749197
       5490.5958       1.4186815
       5491.4365       1.3431625
       5492.2772       1.3270255
       5493.1179       1.3782246
       5493.9586       1.3206972
       5494.7993       1.1779183
       5495.6400       1.1233114
       5496.4807      0.94793804
       5497.3215       1.0504321
       5498.1622       1.1337860
       5499.0029       1.2857450
       5499.8436       1.1341924
       5500.6843       1.4307748
       5501.5250       1.5509670
       5502.3657       1.3378517
       5503.2064       1.1697180
       5504.0471       1.1830198
       5504.8878       1.2523388
       5505.7285       1.3842809
       5506.5692       1.5584800
       5507.4100       1.6118447
       5508.2507       1.5546597
       5509.0914       1.5270590
       5509.9321       1.3353308
       5510.7728       1.4156933
       5511.6135       1.4175626
       5512.4542       1.4394328
       5513.2949       1.5146749
       5514.1356       1.4403441
       5514.9763       1.3569675
       5515.8170       1.4002492
       5516.6577       1.3394214
       5517.4984       1.4115414
       5518.3392       1.2876947
       5519.1799       1.4106010
       5520.0206       1.4558307
       5520.8613       1.5240256
       5521.7020       1.4667808
       5522.5427       1.5312448
       5523.3834       1.5737044
       5524.2241       1.4973907
       5525.0648       1.4305516
       5525.9055       1.2472200
       5526.7462       1.2835855
       5527.5869       1.4069530
       5528.4277       1.3305493
       5529.2684       1.4633992
       5530.1091       1.8964816
       5530.9498       1.4849133
       5531.7905       1.6187723
       5532.6312       1.5595042
       5533.4719       1.5227701
       5534.3126       1.6381880
       5535.1533       1.4076449
       5535.9940       1.4047755
       5536.8347       1.3626967
       5537.6754       1.3349246
       5538.5162       1.2765705
       5539.3569       1.1483763
       5540.1976       1.5076374
       5541.0383       1.5611283
       5541.8790       1.4356470
       5542.7197       1.2718367
       5543.5604       1.5215583
       5544.4011       1.3348183
       5545.2418       1.2243461
       5546.0825       1.2448556
       5546.9232       1.4262857
       5547.7639       1.5623939
       5548.6046       1.5395839
       5549.4454       1.3914807
       5550.2861       1.4025254
       5551.1268       1.4483840
       5551.9675       1.3376436
       5552.8082       1.3676299
       5553.6489       1.6914563
       5554.4896       1.5702438
       5555.3303       1.4876182
       5556.1710       1.7976552
       5557.0117       1.6809774
       5557.8524       1.4262641
       5558.6931       1.4428283
       5559.5339       1.5521066
       5560.3746       1.4681132
       5561.2153       1.4467475
       5562.0560       1.3663239
       5562.8967       1.3970874
       5563.7374       1.4343619
       5564.5781       1.3463993
       5565.4188       1.4107472
       5566.2595       1.5006167
       5567.1002       1.5493164
       5567.9409       1.1000731
       5568.7816       1.0735060
       5569.6224       1.0044664
       5570.4631       1.2014699
       5571.3038       1.2668365
       5572.1445       1.7129685
       5572.9852       1.7666297
       5573.8259       1.5217685
       5574.6666       1.4984832
       5575.5073       1.6274356
       5576.3480       2.0087129
       5577.1887       1.9003151
       5578.0294       1.9546328
       5578.8701       2.3794851
       5579.7108       1.9207579
       5580.5516       1.5811973
       5581.3923       1.5490611
       5582.2330       1.3891367
       5583.0737       1.2874945
       5583.9144       1.4553164
       5584.7551       1.5796497
       5585.5958       1.6485784
       5586.4365       1.5729401
       5587.2772       1.4535699
       5588.1179       1.4450004
       5588.9586       1.4790264
       5589.7993       1.4185772
       5590.6401       1.4157101
       5591.4808       1.3590785
       5592.3215       1.2861248
       5593.1622       1.3045759
       5594.0029       1.3505490
       5594.8436       1.3391351
       5595.6843       1.6907669
       5596.5250       1.7320364
       5597.3657       1.5765454
       5598.2064       1.6164825
       5599.0471       1.5335154
       5599.8878       1.4614619
       5600.7286       1.4367483
       5601.5693       1.8680054
       5602.4100       2.6059286
       5603.2507       2.3725768
       5604.0914       1.3877737
       5604.9321       1.1226990
       5605.7728       1.3590391
       5606.6135       1.4018037
       5607.4542       1.0741709
       5608.2949       1.4712049
       5609.1356       1.7446578
       5609.9763       1.6969039
       5610.8170       1.3832193
       5611.6578       1.3527370
       5612.4985       1.4150235
       5613.3392       1.4188715
       5614.1799       1.3326263
       5615.0206       1.4645148
       5615.8613       1.3170650
       5616.7020       1.2488328
       5617.5427       1.3708488
       5618.3834       1.4977056
       5619.2241       1.4385230
       5620.0648       1.5586155
       5620.9055       1.5152244
       5621.7463       1.5684939
       5622.5870       1.5344544
       5623.4277       1.2926579
       5624.2684       1.0833281
       5625.1091      0.84653196
       5625.9498      0.78089689
       5626.7905       1.2772533
       5627.6312       2.0010376
       5628.4719       1.5432964
       5629.3126       1.8540010
       5630.1533       1.5197127
       5630.9940       1.1736539
       5631.8348       1.3854801
       5632.6755       1.5694281
       5633.5162       1.5410269
       5634.3569       1.6949109
       5635.1976       1.6056405
       5636.0383       1.4759153
       5636.8790       1.5222079
       5637.7197       1.5648590
       5638.5604       1.4000073
       5639.4011       1.4124737
       5640.2418       1.1573406
       5641.0825       1.0796069
       5641.9232       1.4174717
       5642.7640       1.5449948
       5643.6047       1.4767787
       5644.4454       1.4977677
       5645.2861       1.4082198
       5646.1268       1.3409768
       5646.9675       1.2217511
       5647.8082       1.2952456
       5648.6489       1.0707898
       5649.4896       1.0171807
       5650.3303       1.2893926
       5651.1710       1.4888270
       5652.0117       1.5148835
       5652.8525       1.7494735
       5653.6932       1.6840569
       5654.5339       1.6148739
       5655.3746       1.5203229
       5656.2153       1.4677190
       5657.0560       1.4624548
       5657.8967       1.4127556
       5658.7374       1.5291604
       5659.5781       1.5140541
       5660.4188       1.3703222
       5661.2595       1.4473114
       5662.1002       1.5641170
       5662.9410       1.3978518
       5663.7817       1.3675068
       5664.6224       1.4330204
       5665.4631       1.4805310
       5666.3038       1.3524571
       5667.1445       1.3740871
       5667.9852       1.3466649
       5668.8259       1.3421625
       5669.6666       1.0680848
       5670.5073       1.3593293
       5671.3480       1.4334097
       5672.1887       1.3872532
       5673.0294       1.1919039
       5673.8702       1.2755765
       5674.7109       1.2750523
       5675.5516       1.5237623
       5676.3923       1.5368875
       5677.2330       1.7416699
       5678.0737       1.5533502
       5678.9144       1.3514847
       5679.7551       1.5475662
       5680.5958       1.4414354
       5681.4365       1.3759962
       5682.2772       1.3869757
       5683.1179       1.5167234
       5683.9587       1.4597238
       5684.7994       1.4224998
       5685.6401       1.5338910
       5686.4808       1.2868161
       5687.3215       1.3513712
       5688.1622       1.3076119
       5689.0029       1.2491670
       5689.8436       1.3952198
       5690.6843       1.5316984
       5691.5250       1.4806266
       5692.3657       1.4430727
       5693.2064       1.5229151
       5694.0472       1.4587484
       5694.8879       1.3887961
       5695.7286       1.4095253
       5696.5693       1.4142471
       5697.4100       1.4378135
       5698.2507       1.3364922
       5699.0914       1.4899488
       5699.9321       1.5702597
       5700.7728       1.5574366
       5701.6135       1.3616246
       5702.4542       1.3137875
       5703.2949       1.3370557
       5704.1356       1.4054029
       5704.9764       1.4464138
       5705.8171       1.4984358
       5706.6578       1.4382184
       5707.4985       1.3436422
       5708.3392       1.3586043
       5709.1799       1.2679165
       5710.0206       1.3656087
       5710.8613       1.5048185
       5711.7020       1.5498548
       5712.5427       1.5506386
       5713.3834       1.4873906
       5714.2241       1.4845575
       5715.0649       1.4036625
       5715.9056       1.4081763
       5716.7463       1.3981444
       5717.5870       1.3523607
       5718.4277       1.4265228
       5719.2684       1.4799398
       5720.1091       1.4921364
       5720.9498       1.3888861
       5721.7905       1.3857438
       5722.6312       1.3869039
       5723.4719       1.4807459
       5724.3126       1.4181342
       5725.1534       1.3425172
       5725.9941       1.3749764
       5726.8348       1.4828618
       5727.6755       1.4592185
       5728.5162       1.3842911
       5729.3569       1.4799537
       5730.1976       1.5059300
       5731.0383       1.6161936
       5731.8790       1.4840211
       5732.7197       1.5253949
       5733.5604       1.5101836
       5734.4011       1.4215553
       5735.2418       1.4555893
       5736.0826       1.4677268
       5736.9233       1.5666461
       5737.7640       1.5070770
       5738.6047       1.2620138
       5739.4454       1.2047779
       5740.2861       1.2351881
       5741.1268       1.3292028
       5741.9675       1.3725325
       5742.8082       1.2960564
       5743.6489       1.2308539
       5744.4896       1.3102091
       5745.3303       1.3913304
       5746.1711       1.3263243
       5747.0118       1.4183326
       5747.8525       1.3658545
       5748.6932       1.4532603
       5749.5339       1.4696529
       5750.3746       1.4833610
       5751.2153       1.4845891
       5752.0560       1.3755717
       5752.8967       1.4640887
       5753.7374       1.5061985
       5754.5781       1.5143775
       5755.4188       1.5105781
       5756.2596       1.3809454
       5757.1003       1.2310572
       5757.9410       1.4063856
       5758.7817       1.3574257
       5759.6224       1.3931716
       5760.4631       1.5359046
       5761.3038       1.3253653
       5762.1445       1.3260654
       5762.9852       1.3550051
       5763.8259       1.2749979
       5764.6666       1.4484177
       5765.5073       1.4367140
       5766.3480       1.3921621
       5767.1888       1.3616361
       5768.0295       1.4360241
       5768.8702       1.4248221
       5769.7109       1.4447827
       5770.5516       1.4517564
       5771.3923       1.3473558
       5772.2330       1.5134212
       5773.0737       1.4239327
       5773.9144       1.5216104
       5774.7551       1.4263225
       5775.5958       1.5066820
       5776.4365       1.5183565
       5777.2773       1.4064638
       5778.1180       1.4926771
       5778.9587       1.4373542
       5779.7994       1.4560768
       5780.6401       1.4504107
       5781.4808       1.3905046
       5782.3215       1.1609910
       5783.1622       1.2714840
       5784.0029       1.2861956
       5784.8436       1.2755316
       5785.6843       1.3709702
       5786.5250       1.4294081
       5787.3658       1.3241759
       5788.2065       1.3482612
       5789.0472       1.3651783
       5789.8879       1.3165319
       5790.7286       1.3277730
       5791.5693       1.3117720
       5792.4100       1.2790223
       5793.2507       1.3053509
       5794.0914       1.2711522
       5794.9321       1.3037907
       5795.7728       1.4018859
       5796.6135       1.4711126
       5797.4542       1.3300728
       5798.2950       1.4310297
       5799.1357       1.4717978
       5799.9764       1.3826459
       5800.8171       1.4495234
       5801.6578       1.4154152
       5802.4985       1.4785290
       5803.3392       1.4039862
       5804.1799       1.3842114
       5805.0206       1.5416522
       5805.8613       1.5670281
       5806.7020       1.4703908
       5807.5427       1.4892652
       5808.3835       1.4952853
       5809.2242       1.5000544
       5810.0649       1.4815443
       5810.9056       1.4163654
       5811.7463       1.4554894
       5812.5870       1.4589266
       5813.4277       1.3212330
       5814.2684       1.3512998
       5815.1091       1.4010416
       5815.9498       1.4638301
       5816.7905       1.4600284
       5817.6312       1.4127858
       5818.4720       1.4797065
       5819.3127       1.4067176
       5820.1534       1.4303273
       5820.9941       1.5250066
       5821.8348       1.5512147
       5822.6755       1.4936244
       5823.5162       1.5316372
       5824.3569       1.4899449
       5825.1976       1.5291423
       5826.0383       1.4882435
       5826.8790       1.4444691
       5827.7197       1.2962553
       5828.5604       1.4187511
       5829.4012       1.6942504
       5830.2419       1.5758225
       5831.0826       1.7087094
       5831.9233       1.5952452
       5832.7640       1.3813454
       5833.6047       1.2540449
       5834.4454       1.4749217
       5835.2861       1.6864029
       5836.1268       1.6956610
       5836.9675       1.7567623
       5837.8082       1.2753811
       5838.6489       1.5001148
       5839.4897       1.0621212
       5840.3304       1.1378682
       5841.1711       1.3591479
       5842.0118       1.2345743
       5842.8525       1.6441840
       5843.6932       2.0322874
       5844.5339       1.9353765
       5845.3746       1.5689272
       5846.2153       1.2860365
       5847.0560       1.3660190
       5847.8967       1.4914972
       5848.7374       1.3377922
       5849.5782       1.3209723
       5850.4189       1.4945446
       5851.2596       1.7077962
       5852.1003       1.8727606
       5852.9410       1.6247345
       5853.7817       1.3888520
       5854.6224       1.4080317
       5855.4631       1.3646349
       5856.3038       1.3739066
       5857.1445       1.4816803
       5857.9852       1.4163029
       5858.8259       1.3324884
       5859.6666       1.4269887
       5860.5074       1.5575076
       5861.3481       1.4390801
       5862.1888       1.3936651
       5863.0295       1.4553479
       5863.8702       1.3696745
       5864.7109       1.3865329
       5865.5516       1.4443342
       5866.3923       1.4479143
       5867.2330       1.4067366
       5868.0737       1.4074764
       5868.9144       1.5242306
       5869.7551       1.6390092
       5870.5959       1.3806791
       5871.4366      0.73929509
       5872.2773       1.2319854
       5873.1180      0.70370697
       5873.9587       1.3796189
       5874.7994       2.0018741
       5875.6401       2.8099806
       5876.4808       2.6512460
       5877.3215       2.0356156
       5878.1622       1.5504736
       5879.0029       1.7233802
       5879.8436       1.8761688
       5880.6844       1.8624908
       5881.5251       1.7080788
       5882.3658       1.8958266
       5883.2065       1.7840742
       5884.0472       1.4422720
       5884.8879       1.4777477
       5885.7286       1.2814336
       5886.5693       1.2451043
       5887.4100       1.3292683
       5888.2507       1.2725719
       5889.0914       1.2904252
       5889.9321       1.2931858
       5890.7728       1.2584549
       5891.6136       1.2181978
       5892.4543       1.1611183
       5893.2950       1.2061708
       5894.1357       1.2352815
       5894.9764       1.2316300
       5895.8171       1.2501831
       5896.6578       1.3451851
       5897.4985       1.0617008
       5898.3392       1.0007432
       5899.1799       1.1674860
       5900.0206       1.3629040
       5900.8613       1.2424388
       5901.7021       1.4494341
       5902.5428       1.6015176
       5903.3835       1.6819941
       5904.2242       1.4819262
       5905.0649       1.4143348
       5905.9056       1.5598393
       5906.7463       1.5428580
       5907.5870       1.5642748
       5908.4277       1.4846854
       5909.2684       1.0653034
       5910.1091       1.0050539
       5910.9498       1.2062235
       5911.7906       1.0152261
       5912.6313       1.3395989
       5913.4720       2.1065442
       5914.3127       2.7394329
       5915.1534       2.3327750
       5915.9941       1.9123213
       5916.8348       1.7072065
       5917.6755       1.5272673
       5918.5162       1.4655704
       5919.3569       1.7254452
       5920.1976       1.4302803
       5921.0383       1.2044760
       5921.8790       1.4500953
       5922.7198       1.3303539
       5923.5605       1.3169022
       5924.4012       1.4376882
       5925.2419       1.6555242
       5926.0826       1.7253289
       5926.9233       1.5152785
       5927.7640       1.4128324
       5928.6047       1.5638251
       5929.4454       1.8770465
       5930.2861       1.5884525
       5931.1268      0.72657771
       5931.9675      0.51049411
       5932.8083      0.89401981
       5933.6490       1.3123656
       5934.4897       1.1093410
       5935.3304       1.7519272
       5936.1711       2.4049282
       5937.0118       2.3430554
       5937.8525       1.9521266
       5938.6932       1.6265061
       5939.5339       1.5492616
       5940.3746       1.5467659
       5941.2153       1.5606136
       5942.0560       1.5654159
       5942.8968       1.5127147
       5943.7375       1.4949106
       5944.5782       1.5614061
       5945.4189       1.6021278
       5946.2596       1.4364736
       5947.1003       1.3478020
       5947.9410       1.4216807
       5948.7817       1.2855555
       5949.6224       1.2607354
       5950.4631       1.6054645
       5951.3038       1.6551905
       5952.1445       1.4029146
       5952.9852       1.4221030
       5953.8260       1.3323687
       5954.6667       1.6070192
       5955.5074       1.2701647
       5956.3481      0.84622722
       5957.1888       1.3393561
       5958.0295       1.1285972
       5958.8702       1.4975840
       5959.7109       1.7639551
       5960.5516       1.8773110
       5961.3923       1.8256774
       5962.2330       1.8263974
       5963.0737       1.5256699
       5963.9145       1.5391044
       5964.7552       1.5322705
       5965.5959       1.6120421
       5966.4366       1.5572437
       5967.2773       1.4717077
       5968.1180       1.5656638
       5968.9587       1.4410070
       5969.7994       1.5027343
       5970.6401       1.5146584
       5971.4808       1.5145634
       5972.3215       1.6303517
       5973.1622       1.5780578
       5974.0030       1.6010598
       5974.8437       1.4963612
       5975.6844       1.1900238
       5976.5251       1.3225844
       5977.3658       1.3420550
       5978.2065       1.7025198
       5979.0472       1.6736133
       5979.8879       1.7705648
       5980.7286       1.7639009
       5981.5693       1.6885537
       5982.4100       1.7179762
       5983.2507       1.5093949
       5984.0914       1.3755247
       5984.9322       1.4089792
       5985.7729       1.2808765
       5986.6136       1.5104921
       5987.4543       1.6042930
       5988.2950       1.4050755
       5989.1357       1.1451414
       5989.9764      0.91027620
       5990.8171       1.2399151
       5991.6578       1.4797850
       5992.4985       1.5566037
       5993.3392       1.5185225
       5994.1799       1.5133513
       5995.0207       1.5669753
       5995.8614       1.4488306
       5996.7021       1.5266494
       5997.5428       1.4416849
       5998.3835       1.5660258
       5999.2242       1.5551060
       6000.0649       1.5753767
       6000.9056       1.5718515
       6001.7463       1.5289594
       6002.5870       1.5054116
       6003.4277       1.5290970
       6004.2684       1.5650580
       6005.1092       1.6020428
       6005.9499       1.4832610
       6006.7906       1.5435654
       6007.6313       1.6011983
       6008.4720       1.4684362
       6009.3127       1.5034428
       6010.1534       1.4473294
       6010.9941       1.6302708
       6011.8348       1.5611907
       6012.6755       1.6523087
       6013.5162       1.5557516
       6014.3569       1.2234429
       6015.1976       1.4102613
       6016.0384       1.6693454
       6016.8791       1.8080671
       6017.7198       1.6959806
       6018.5605       1.6652772
       6019.4012       1.9350168
       6020.2419       1.8784267
       6021.0826       1.6172607
       6021.9233       1.5913346
       6022.7640       1.6285452
       6023.6047       1.5189701
       6024.4454       1.5571407
       6025.2861       1.6393684
       6026.1269       1.5826134
       6026.9676       1.5896220
       6027.8083       1.6546224
       6028.6490       1.5183100
       6029.4897       1.5938241
       6030.3304       1.5662496
       6031.1711       1.6264108
       6032.0118       1.6251100
       6032.8525       1.5946045
       6033.6932       1.4833350
       6034.5339       1.5179254
       6035.3746       1.5757794
       6036.2154       1.5328375
       6037.0561       1.4643351
       6037.8968       1.4996954
       6038.7375       1.5752568
       6039.5782       1.5982038
       6040.4189       1.5533988
       6041.2596       1.5307614
       6042.1003       1.5817398
       6042.9410       1.6017730
       6043.7817       1.5290699
       6044.6224       1.5121122
       6045.4631       1.5627889
       6046.3038       1.5461572
       6047.1446       1.5439666
       6047.9853       1.4799283
       6048.8260       1.5850672
       6049.6667       1.5953734
       6050.5074       1.6913759
       6051.3481       1.6973178
       6052.1888       1.4871710
       6053.0295       1.5855474
       6053.8702       1.6823003
       6054.7109       1.5266446
       6055.5516       1.5790175
       6056.3923       1.5149070
       6057.2331       1.5496592
       6058.0738       1.4346095
       6058.9145       1.4671309
       6059.7552       1.4826939
       6060.5959       1.5243051
       6061.4366       1.5119428
       6062.2773       1.4944185
       6063.1180       1.6143764
       6063.9587       1.5675439
       6064.7994       1.5493351
       6065.6401       1.4646412
       6066.4808       1.4690407
       6067.3216       1.5069973
       6068.1623       1.4440350
       6069.0030       1.6415539
       6069.8437       1.4240543
       6070.6844       1.5379879
       6071.5251       1.6519580
       6072.3658       1.3390214
       6073.2065       1.5553920
       6074.0472       1.8008907
       6074.8879       1.4336807
       6075.7286       1.7526442
       6076.5693       1.6712720
       6077.4101       1.5206321
       6078.2508       1.7107507
       6079.0915       1.7449730
       6079.9322       1.6926198
       6080.7729       1.6951525
       6081.6136       1.6518836
       6082.4543       1.6457296
       6083.2950       1.6447041
       6084.1357       1.7446648
       6084.9764       1.5589435
       6085.8171       1.5890431
       6086.6578       1.3447471
       6087.4985       1.5903417
       6088.3393       1.8149955
       6089.1800       1.6717241
       6090.0207       1.6478852
       6090.8614       1.6222659
       6091.7021       1.8380986
       6092.5428       2.0027112
       6093.3835       1.8229322
       6094.2242       1.8001067
       6095.0649       1.8742283
       6095.9056       2.0948346
       6096.7463       2.0130390
       6097.5870       1.8987151
       6098.4278       1.8902018
       6099.2685       2.0766905
       6100.1092       1.7873797
       6100.9499       1.7930186
       6101.7906       1.6879916
       6102.6313       1.8233135
       6103.4720       1.9378866
       6104.3127       1.7458567
       6105.1534       1.6146677
       6105.9941       1.7174054
       6106.8348       1.5738783
       6107.6755       1.7397675
       6108.5163       1.7066945
       6109.3570       1.6065859
       6110.1977       1.5702678
       6111.0384       1.5531240
       6111.8791       1.6329173
       6112.7198       1.5120783
       6113.5605       1.6384648
       6114.4012       1.6214833
       6115.2419       1.6286904
       6116.0826       1.5730166
       6116.9233       1.5926435
       6117.7640       1.5228679
       6118.6047       1.5894362
       6119.4455       1.6252151
       6120.2862       1.5488308
       6121.1269       1.4822340
       6121.9676       1.4999840
       6122.8083       1.4943800
       6123.6490       1.5393556
       6124.4897       1.5469154
       6125.3304       1.4912011
       6126.1711       1.5163020
       6127.0118       1.4808524
       6127.8525       1.4900636
       6128.6932       1.3781566
       6129.5340       1.3829749
       6130.3747       1.4244511
       6131.2154       1.6326292
       6132.0561       1.6353550
       6132.8968       1.5378974
       6133.7375       1.5034221
       6134.5782       1.5483013
       6135.4189       1.6041369
       6136.2596       1.6636971
       6137.1003       1.6002319
       6137.9410       1.4605872
       6138.7817       1.3721667
       6139.6225       1.4204553
       6140.4632       1.4530891
       6141.3039       1.5092211
       6142.1446       1.4770079
       6142.9853       1.3956312
       6143.8260       1.4417442
       6144.6667       1.4418786
       6145.5074       1.6970290
       6146.3481       1.5317592
       6147.1888       1.5838293
       6148.0295       1.6395089
       6148.8702       1.5516219
       6149.7109       1.4851079
       6150.5517       1.6129056
       6151.3924       1.5485258
       6152.2331       1.5865899
       6153.0738       1.6257093
       6153.9145       1.6837124
       6154.7552       1.6498008
       6155.5959       1.5195100
       6156.4366       1.6502307
       6157.2773       1.5595837
       6158.1180       1.5318093
       6158.9587       1.3621078
       6159.7994       1.4410331
       6160.6402       1.4465209
       6161.4809       1.4712855
       6162.3216       1.4951374
       6163.1623       1.8199705
       6164.0030       1.2171935
       6164.8437       1.3682788
       6165.6844       2.4571282
       6166.5251       3.2748552
       6167.3658       3.2513797
       6168.2065       3.6279949
       6169.0472       3.5574472
       6169.8879       3.4427770
       6170.7287       2.5587001
       6171.5694       1.6285819
       6172.4101       1.8328238
       6173.2508       2.4992910
       6174.0915       1.8142742
       6174.9322       3.0349667
       6175.7729      0.72971425
       6176.6136      0.45811266
       6177.4543      0.16017270
       6178.2950      0.76113316
       6179.1357       1.6591108
       6179.9764       2.3246060
       6180.8171       3.7290698
       6181.6579       3.4761455
       6182.4986       2.4588109
       6183.3393       1.5893159
       6184.1800       1.5119224
       6185.0207      0.90376997
       6185.8614       1.4929055
       6186.7021       1.3919322
       6187.5428       1.3305407
       6188.3835       1.5270523
       6189.2242       1.8861246
       6190.0649       1.9486112
       6190.9056       1.7897597
       6191.7464       1.5674428
       6192.5871       1.5870815
       6193.4278       1.5180220
       6194.2685       1.5004521
       6195.1092       1.5588326
       6195.9499       1.6153624
       6196.7906       1.5419142
       6197.6313       1.5081029
       6198.4720       1.5883023
       6199.3127       1.4881975
       6200.1534       1.6446354
       6200.9941       1.8188380
       6201.8349       1.8695287
       6202.6756       1.6318126
       6203.5163       1.5609812
       6204.3570       1.5359471
       6205.1977       1.7006756
       6206.0384       1.6654165
       6206.8791       1.6916393
       6207.7198       1.8713145
       6208.5605       2.2651844
       6209.4012       1.5995814
       6210.2419     -0.76872730
       6211.0826     -0.45747879
       6211.9233      -1.0754270
       6212.7641      0.47543345
       6213.6048       1.0240761
       6214.4455       3.2406915
       6215.2862       4.3750086
       6216.1269       2.1932291
       6216.9676       1.6805351
       6217.8083      0.93166977
       6218.6490       1.5235350
       6219.4897       1.2232273
       6220.3304       1.6274820
       6221.1711       2.4788512
       6222.0118       2.7190205
       6222.8526       1.9968539
       6223.6933       1.7157799
       6224.5340       1.5619629
       6225.3747       1.7393318
       6226.2154       1.5569017
       6227.0561       1.6927990
       6227.8968       1.6612796
       6228.7375       1.6104906
       6229.5782       1.4607335
       6230.4189      0.90421310
       6231.2596      0.80274397
       6232.1003       1.0667135
       6232.9411       1.4401852
       6233.7818       1.5091602
       6234.6225       1.5680035
       6235.4632       1.6074485
       6236.3039       1.4247114
       6237.1446       1.7358646
       6237.9853       1.6452630
       6238.8260       1.0668918
       6239.6667       1.3056365
       6240.5074       1.3137553
       6241.3481       1.5741976
       6242.1888       1.2789583
       6243.0295       2.1723741
       6243.8703       2.4855578
       6244.7110       1.7826366
       6245.5517       1.6747335
       6246.3924       1.5533136
       6247.2331       1.5160044
       6248.0738       1.4648942
       6248.9145       1.4414216
       6249.7552       2.0469998
       6250.5959       2.1001543
       6251.4366     0.077111315
       6252.2773      0.28482896
       6253.1180     -0.72373699
       6253.9588      0.89443947
       6254.7995       1.0426698
       6255.6402       2.3699759
       6256.4809       4.2076220
       6257.3216       2.8221389
       6258.1623       1.9507397
       6259.0030       1.6202068
       6259.8437       1.5252864
       6260.6844       1.5760054
       6261.5251       1.4593201
       6262.3658       1.4426929
       6263.2065      0.73216149
       6264.0473       1.0673695
       6264.8880       1.1061596
       6265.7287       1.3823752
       6266.5694       1.3928424
       6267.4101       1.6503093
       6268.2508       2.7740274
       6269.0915       2.4578190
       6269.9322       1.8529402
       6270.7729       1.6852312
       6271.6136       1.5410732
       6272.4543       1.6316196
       6273.2950       1.9946684
       6274.1357       2.6575554
       6274.9765      0.52985466
       6275.8172       1.1284842
       6276.6579      0.52021574
       6277.4986      0.58604638
       6278.3393      0.94451589
       6279.1800       1.8413653
       6280.0207       4.4994162
       6280.8614       3.8956443
       6281.7021       1.7249838
       6282.5428       1.5563984
       6283.3835       1.5832074
       6284.2242       1.4560264
       6285.0650       1.3940580
       6285.9057       1.5079761
       6286.7464       1.5829900
       6287.5871       1.4659964
       6288.4278       1.5147354
       6289.2685       1.3595096
       6290.1092       1.4535258
       6290.9499       1.8642004
       6291.7906       1.1553898
       6292.6313       1.1256773
       6293.4720      0.88392801
       6294.3127       1.6442813
       6295.1535       1.2123192
       6295.9942       1.4964474
       6296.8349       2.4739708
       6297.6756       2.5819161
       6298.5163       2.0726458
       6299.3570       2.1316302
       6300.1977       2.1771412
       6301.0384       2.7535409
       6301.8791       1.5917251
       6302.7198       1.0459057
       6303.5605       2.3813887
       6304.4012      0.64678901
       6305.2419      0.58396874
       6306.0827       1.3691474
       6306.9234       3.7161638
       6307.7641       3.6695139
       6308.6048       2.0328840
       6309.4455       1.6918035
       6310.2862       1.5590832
       6311.1269       1.5046836
       6311.9676       1.6257847
       6312.8083       1.6168764
       6313.6490       1.5059438
       6314.4897       1.4453757
       6315.3304       1.5800622
       6316.1712       1.6217595
       6317.0119       1.6305552
       6317.8526       1.5852343
       6318.6933       1.4542410
       6319.5340       1.4412652
       6320.3747       1.5219293
       6321.2154       1.5415688
       6322.0561       1.6503671
       6322.8968       1.6639874
       6323.7375       1.1549660
       6324.5782       1.1921017
       6325.4189      0.79639239
       6326.2597      0.51608949
       6327.1004      0.68767819
       6327.9411      0.36521289
       6328.7818       1.2032043
       6329.6225      0.98342093
       6330.4632       1.2853389
       6331.3039       2.1320638
       6332.1446       1.4594679
       6332.9853      0.85356280
       6333.8260       1.3285451
       6334.6667       1.3580474
       6335.5074       1.1469778
       6336.3481       2.0294852
       6337.1889       3.7577389
       6338.0296       4.4116992
       6338.8703       3.0901790
       6339.7110       2.1977656
       6340.5517       1.8254031
       6341.3924       1.8211161
       6342.2331       1.7170341
       6343.0738       1.5753153
       6343.9145       1.5271669
       6344.7552       1.5497626
       6345.5959       1.5277536
       6346.4366       1.4416573
       6347.2774       1.3476248
       6348.1181       1.5391164
       6348.9588       1.5940177
       6349.7995       1.5969833
       6350.6402       1.6253856
       6351.4809       1.5811856
       6352.3216       1.5332541
       6353.1623       1.3716007
       6354.0030       1.4851369
       6354.8437       1.7619272
       6355.6844       1.5931831
       6356.5251       1.6563838
       6357.3659       1.8754204
       6358.2066       1.6008910
       6359.0473       1.5835575
       6359.8880       1.5678978
       6360.7287       1.7341270
       6361.5694       1.6888090
       6362.4101       1.6765967
       6363.2508       2.0000271
       6364.0915       2.2658116
       6364.9322       1.5026938
       6365.7729       1.5629213
       6366.6136       1.1017618
       6367.4543       1.2963956
       6368.2951       1.0921447
       6369.1358       1.5144406
       6369.9765       1.7078383
       6370.8172       1.7872555
       6371.6579       2.4078878
       6372.4986       2.0062861
       6373.3393       1.6739630
       6374.1800       1.7688078
       6375.0207       1.5507020
       6375.8614       1.6432873
       6376.7021       1.7265146
       6377.5428       1.7847088
       6378.3836       1.7594812
       6379.2243       1.6565860
       6380.0650       1.7053751
       6380.9057       1.5870480
       6381.7464       1.7022809
       6382.5871       1.6243964
       6383.4278       1.5954409
       6384.2685       1.5180766
       6385.1092       1.5622509
       6385.9499       1.5018845
       6386.7906       1.6626752
       6387.6313       1.5262834
       6388.4721       1.6016617
       6389.3128       1.5834509
       6390.1535       1.6320746
       6390.9942       1.6233113
       6391.8349       1.7323125
       6392.6756       1.5626429
       6393.5163       1.4659114
       6394.3570       1.5288380
       6395.1977       1.6969877
       6396.0384       1.6479873
       6396.8791       1.5652077
       6397.7198       1.6054658
       6398.5605       1.5236020
       6399.4013       1.5657995
       6400.2420       1.6976012
       6401.0827       1.9096025
       6401.9234       1.8307624
       6402.7641       1.5200756
       6403.6048       1.4854220
       6404.4455       1.3392179
       6405.2862       1.1443768
       6406.1269       1.2557587
       6406.9676       1.6054389
       6407.8083       1.5591438
       6408.6490       1.7965448
       6409.4898       1.7235614
       6410.3305       1.7467874
       6411.1712       1.5557474
       6412.0119       1.6487272
       6412.8526       1.6437901
       6413.6933       1.6929542
       6414.5340       1.6574708
       6415.3747       1.5798404
       6416.2154       1.6894357
       6417.0561       1.6114099
       6417.8968       1.5157800
       6418.7375       1.6711964
       6419.5783       1.5486828
       6420.4190       1.6592818
       6421.2597       1.7393223
       6422.1004       1.7632443
       6422.9411       1.8070351
       6423.7818       1.7852297
       6424.6225       1.6293772
       6425.4632       1.6049503
       6426.3039       1.6346400
       6427.1446       1.5926922
       6427.9853       1.7033073
       6428.8260       1.5423365
       6429.6667       1.5170656
       6430.5075       1.4981248
       6431.3482       1.5795495
       6432.1889       1.7187346
       6433.0296       1.7471721
       6433.8703       1.6985881
       6434.7110       1.8425169
       6435.5517       1.7681127
       6436.3924       1.6793783
       6437.2331       1.7185243
       6438.0738       1.5757635
       6438.9145       1.5265000
       6439.7552       1.6781363
       6440.5960       1.7283551
       6441.4367       1.6200284
       6442.2774       1.6308077
       6443.1181       1.5967711
       6443.9588       1.4420332
       6444.7995       1.5304728
       6445.6402       1.5732306
       6446.4809       1.4264811
       6447.3216       1.6239999
       6448.1623       1.6303459
       6449.0030       1.6770750
       6449.8437       1.8723351
       6450.6845       1.7237595
       6451.5252       1.7069394
       6452.3659       1.7939728
       6453.2066       1.7404814
       6454.0473       1.6171982
       6454.8880       1.5684523
       6455.7287       1.6479914
       6456.5694       1.6488497
       6457.4101       1.6051601
       6458.2508       1.5400158
       6459.0915       1.5131012
       6459.9322       1.4568984
       6460.7729       1.4590370
       6461.6137       1.5490853
       6462.4544       1.6537582
       6463.2951       1.6697608
       6464.1358       1.6270551
       6464.9765       1.6299694
       6465.8172       1.6424393
       6466.6579       1.7429031
       6467.4986       1.6672047
       6468.3393       1.6212887
       6469.1800       1.7074914
       6470.0207       1.6421778
       6470.8614       1.6149445
       6471.7022       1.7030011
       6472.5429       1.5730945
       6473.3836       1.7408818
       6474.2243       1.8441057
       6475.0650       1.6699528
       6475.9057       1.7598944
       6476.7464       1.8633139
       6477.5871       1.7524368
       6478.4278       1.6982057
       6479.2685       1.8078004
       6480.1092       1.8360170
       6480.9499       1.8055968
       6481.7907       1.7236420
       6482.6314       1.7161262
       6483.4721       1.7935418
       6484.3128       1.7855685
       6485.1535       1.8096134
       6485.9942       1.6973740
       6486.8349       1.9164683
       6487.6756       1.6365113
       6488.5163       1.6122473
       6489.3570       1.7232555
       6490.1977       1.6700885
       6491.0384       1.7763003
       6491.8791       1.5741730
       6492.7199       1.5639524
       6493.5606       1.6154972
       6494.4013       1.8591670
       6495.2420       1.7776983
       6496.0827       1.7254788
       6496.9234       1.6998984
       6497.7641       1.5941206
       6498.6048       1.6402881
       6499.4455       1.5965553
       6500.2862       1.4910012
       6501.1269       1.7836267
       6501.9676       1.6976026
       6502.8084       1.7410082
       6503.6491       1.7858786
       6504.4898       1.7720247
       6505.3305       1.7556088
       6506.1712       1.7989734
       6507.0119       1.7844635
       6507.8526       1.6904683
       6508.6933       1.7319353
       6509.5340       1.6948120
       6510.3747       1.6040624
       6511.2154       1.6001351
       6512.0561       1.8110688
       6512.8969       1.5469919
       6513.7376       1.6388701
       6514.5783       1.7083510
       6515.4190       1.6320566
       6516.2597       1.6334761
       6517.1004       1.7017359
       6517.9411       1.5338841
       6518.7818       1.5468857
       6519.6225       1.6688484
       6520.4632       1.7639852
       6521.3039       1.6959927
       6522.1446       1.7505821
       6522.9853       1.6262603
       6523.8261       1.7684423
       6524.6668       1.8144669
       6525.5075       1.7368382
       6526.3482       1.8358580
       6527.1889       1.6174166
       6528.0296       1.6637892
       6528.8703       1.7047812
       6529.7110       1.6263985
       6530.5517       1.6368470
       6531.3924       1.6063109
       6532.2331       1.5026179
       6533.0738       1.6890660
       6533.9146       1.6655157
       6534.7553       1.6652811
       6535.5960       1.6562609
       6536.4367       1.4997632
       6537.2774       1.6829526
       6538.1181       1.8134366
       6538.9588       1.6828302
       6539.7995       1.7314775
       6540.6402       1.7459342
       6541.4809       1.6430829
       6542.3216       1.5410596
       6543.1623       1.8963652
       6544.0031       1.8563178
       6544.8438       2.2438960
       6545.6845       2.6478865
       6546.5252       2.7282343
       6547.3659       2.3995939
       6548.2066       1.8490649
       6549.0473       2.3468213
       6549.8880       1.7573825
       6550.7287       2.2973875
       6551.5694       3.4807822
       6552.4101       2.4114074
       6553.2508       2.2741202
       6554.0915       1.2892073
       6554.9323       1.0150335
       6555.7730       1.2942862
       6556.6137       3.9940431
       6557.4544       6.4283989
       6558.2951       1.6650690
       6559.1358       6.5784110
       6559.9765       6.5092595
       6560.8172       9.3821510
       6561.6579       9.7563751
       6562.4986       9.2541572
       6563.3393       8.4694209
       6564.1800       10.988078
       6565.0208       10.592642
       6565.8615       8.6692954
       6566.7022       7.9417924
       6567.5429       7.1157102
       6568.3836       5.9199929
       6569.2243       3.8173929
       6570.0650       2.1866139
       6570.9057       1.2536693
       6571.7464       1.0837346
       6572.5871       1.3945006
       6573.4278       1.4652622
       6574.2685       1.9229467
       6575.1093       2.3821181
       6575.9500       1.4082856
       6576.7907       1.1078077
       6577.6314       1.2299041
       6578.4721       1.8266119
       6579.3128       3.0223092
       6580.1535       4.0047255
       6580.9942       4.9954093
       6581.8349       5.5307738
       6582.6756       5.2657161
       6583.5163       4.5584806
       6584.3570       3.9787836
       6585.1977       3.4405267
       6586.0385       3.4924906
       6586.8792       3.3506844
       6587.7199       2.9870024
       6588.5606       3.0731442
       6589.4013       2.9035079
       6590.2420       2.3700375
       6591.0827       2.0298186
       6591.9234       1.5066537
       6592.7641       1.1959459
       6593.6048       1.2175318
       6594.4455       1.3625058
       6595.2862       1.2703671
       6596.1270      -1.6655899
       6596.9677      0.42031310
       6597.8084       1.8837028
       6598.6491       1.1315855
       6599.4898      0.39495173
       6600.3305       3.0162413
       6601.1712       7.6628157
       6602.0119       6.0392546
       6602.8526       1.7487354
       6603.6933      0.98684813
       6604.5340       1.1506727
       6605.3747       1.1159839
       6606.2155       1.6040803
       6607.0562       1.1526334
       6607.8969       1.4931171
       6608.7376       1.7926514
       6609.5783       2.0587781
       6610.4190       1.7338862
       6611.2597       1.6092145
       6612.1004       1.7088871
       6612.9411       1.6408851
       6613.7818       1.9125069
       6614.6225       1.5493907
       6615.4632       1.7203118
       6616.3039       1.6307310
       6617.1447       2.7147376
       6617.9854       2.4623363
       6618.8261       2.1593664
       6619.6668       2.6296321
       6620.5075       2.0254465
       6621.3482       1.6873332
       6622.1889       1.6633120
       6623.0296       1.3107996
       6623.8703       1.4074397
       6624.7110       1.5069939
       6625.5517       1.7912766
       6626.3924       1.9297486
       6627.2332       1.3759309
       6628.0739       1.6211858
       6628.9146      0.79607313
       6629.7553       1.1783055
       6630.5960       1.1862132
       6631.4367       1.7526926
       6632.2774       2.7589755
       6633.1181       1.9952559
       6633.9588       1.6027719
       6634.7995       1.3870376
       6635.6402       1.0660336
       6636.4809      0.86714661
       6637.3217      0.94473023
       6638.1624       1.2908955
       6639.0031       1.4092431
       6639.8438       1.8468208
       6640.6845      0.72208868
       6641.5252     -0.91458803
       6642.3659      0.64642097
       6643.2066      -2.1530954
       6644.0473     -0.72905910
       6644.8880     -0.94405881
       6645.7287       1.9086746
       6646.5694       4.7851115
       6647.4101       2.2901365
       6648.2509       1.4541924
       6649.0916       1.3317281
       6649.9323       1.3119296
       6650.7730       1.6521208
       6651.6137       1.6314361
       6652.4544       1.3947509
       6653.2951       1.9971623
       6654.1358      0.75791842
       6654.9765    -0.035932065
       6655.8172      0.52569060
       6656.6579       1.0904348
       6657.4986      0.80141072
       6658.3394       1.4584310
       6659.1801       2.6615557
       6660.0208       2.6266640
       6660.8615      0.23071245
       6661.7022      0.38368848
       6662.5429       1.1637459
       6663.3836       1.1390914
       6664.2243       1.2494004
       6665.0650       1.1913363
       6665.9057       1.4994629
       6666.7464       1.0154989
       6667.5871     -0.90992585
       6668.4279       2.0450976
       6669.2686      -1.1747522
       6670.1093     -0.51748962
       6670.9500      -1.3630537
       6671.7907      0.13123249
       6672.6314       2.4486959
       6673.4721     -0.86827713
       6674.3128     -0.72331914
       6675.1535      0.67471433
       6675.9942       1.2395015
       6676.8349       1.5240762
       6677.6756       1.6307173
       6678.5163       1.5912991
       6679.3571       1.5801331
       6680.1978       1.7814339
       6681.0385       1.4640778
       6681.8792       1.3073320
       6682.7199       1.4788570
       6683.5606       1.2989560
       6684.4013       1.1320747
       6685.2420     -0.42445721
       6686.0827     -0.64691000
       6686.9234      0.60421170
       6687.7641      0.40779971
       6688.6048       1.0515374
       6689.4456       1.3222531
       6690.2863       3.3691912
       6691.1270       3.7218323
       6691.9677       2.4784535
       6692.8084       1.9324774
       6693.6491       2.0723280
       6694.4898       1.8968915
       6695.3305       1.6403709
       6696.1712       2.1682296
       6697.0119       1.1911900
       6697.8526     0.083893197
       6698.6933      0.26315874
       6699.5341       1.4387517
       6700.3748       4.0016952
       6701.2155       6.1088825
       6702.0562       11.473951
       6702.8969       14.836413
       6703.7376       8.8649468
       6704.5783       3.0231803
       6705.4190       1.2080458
       6706.2597       1.1768221
       6707.1004       1.5467865
       6707.9411       1.6129395
       6708.7818       1.5654653
       6709.6225       1.6511562
       6710.4633       1.5960705
       6711.3040       1.7715341
       6712.1447       1.9431355
       6712.9854       2.3069822
       6713.8261       2.7945811
       6714.6668       3.4288264
       6715.5075       3.8853165
       6716.3482       4.0127830
       6717.1889       3.6711788
       6718.0296       3.3182216
       6718.8703       3.2313474
       6719.7110       3.5529613
       6720.5518       3.0462313
       6721.3925       2.6076323
       6722.2332       2.8327482
       6723.0739       2.6757711
       6723.9146       2.2824484
       6724.7553       2.3736059
       6725.5960       3.0948528
       6726.4367       3.5401094
       6727.2774       2.3951064
       6728.1181       2.4426601
       6728.9588       2.7376896
       6729.7995       3.5490467
       6730.6403       3.4910945
       6731.4810       2.6205897
       6732.3217       3.1678619
       6733.1624       2.2406783
       6734.0031       3.6576597
       6734.8438       4.0834908
       6735.6845       5.4792163
       6736.5252       7.4450028
       6737.3659       4.4689074
       6738.2066       2.6493362
       6739.0473       2.0922139
       6739.8880       1.9342142
       6740.7287       1.7899730
       6741.5695       1.7076517
       6742.4102       1.6972968
       6743.2509       1.6472961
       6744.0916       1.4732417
       6744.9323       1.2923341
       6745.7730       1.4198651
       6746.6137       1.4895773
       6747.4544       1.5644324
       6748.2951       1.4403623
       6749.1358       1.4353094
       6749.9765       1.5059507
       6750.8172       1.3083852
       6751.6580       1.4013391
       6752.4987       1.3513486
       6753.3394       1.4625375
       6754.1801       1.5971263
       6755.0208       1.6632854
       6755.8615       1.6700421
       6756.7022       1.6319038
       6757.5429       1.5936555
       6758.3836       1.6665362
       6759.2243       1.4396131
       6760.0650       1.0980620
       6760.9057       1.5916171
       6761.7465       1.0432906
       6762.5872       1.5387498
       6763.4279       1.5570135
       6764.2686       1.8778068
       6765.1093       2.2040519
       6765.9500       1.8492850
       6766.7907       1.8212936
       6767.6314       1.6222151
       6768.4721       1.1514707
       6769.3128       1.2251041
       6770.1535       1.2383404
       6770.9942       1.3632747
       6771.8349       1.5528807
       6772.6757      0.97738662
       6773.5164       1.3508882
       6774.3571       1.4427169
       6775.1978      0.82235887
       6776.0385      0.75183747
       6776.8792       1.1257718
       6777.7199       1.5817555
       6778.5606       1.4907238
       6779.4013       1.6206423
       6780.2420       1.5918437
       6781.0827       1.5389167
       6781.9234       1.6387875
       6782.7642       1.5213296
       6783.6049       1.1272915
       6784.4456       1.2330499
       6785.2863       1.4103444
       6786.1270       1.2520212
       6786.9677       1.4417988
