# wavelength flux
       1974.3896     0.045953945
       1975.0556    -0.015102267
       1975.7216   -0.0017835880
       1976.3877   -0.0020038708
       1977.0537   -0.0021840298
       1977.7197     0.051306313
       1978.3858     0.036507833
       1979.0518     0.036092661
       1979.7178     0.062503164
       1980.3839    0.0071277203
       1981.0499     0.038505547
       1981.7159     0.019856340
       1982.3819    -0.017410999
       1983.0480     0.021873183
       1983.7140    0.0080550766
       1984.3800   -0.0018534381
       1985.0461     0.043230165
       1985.7121    0.0097544415
       1986.3781   -0.0022109828
       1987.0442    -0.018573120
       1987.7102   -0.0059829509
       1988.3762     0.026788948
       1989.0422     0.012695339
       1989.7083     0.055974950
       1990.3743     0.020844124
       1991.0403     0.068732463
       1991.7064     0.056416590
       1992.3724     0.046379577
       1993.0384     0.025884872
       1993.7045     0.018294565
       1994.3705    0.0091627851
       1995.0365     0.020599004
       1995.7025  -0.00033661436
       1996.3686    -0.027517512
       1997.0346    -0.024519262
       1997.7006    -0.011862364
       1998.3667   -0.0043140575
       1999.0327    0.0041301645
       1999.6987   -0.0052074809
       2000.3647     0.038380728
       2001.0308    0.0074367932
       2001.6968     0.028272765
       2002.3628     0.035950447
       2003.0289     0.016922683
       2003.6949     0.036548231
       2004.3609     0.023014645
       2005.0270     0.010175466
       2005.6930     0.012837075
       2006.3590     0.030107908
       2007.0250     0.025008361
       2007.6911     0.021528015
       2008.3571    0.0035192911
       2009.0231     0.012315951
       2009.6892   0.00090631708
       2010.3552     0.041670040
       2011.0212    -0.016367230
       2011.6873     0.011761874
       2012.3533   -0.0085046289
       2013.0193    0.0016050848
       2013.6853     0.023622999
       2014.3514     0.031812925
       2015.0174    0.0018020738
       2015.6834    0.0070460161
       2016.3495     0.033136324
       2017.0155     0.019942269
       2017.6815     0.062566900
       2018.3476     0.036074264
       2019.0136    -0.015983906
       2019.6796     0.045575113
       2020.3456     0.041436614
       2021.0117     0.035253330
       2021.6777     0.047890673
       2022.3437    0.0039520208
       2023.0098   -0.0055192452
       2023.6758     0.018531275
       2024.3418    0.0067217690
       2025.0078     0.040839804
       2025.6739     0.042037894
       2026.3399     0.017699029
       2027.0059   -0.0080174195
       2027.6720     0.031558989
       2028.3380    -0.032881980
       2029.0040     0.021081224
       2029.6701     0.023071644
       2030.3361     0.031771959
       2031.0021    0.0045103886
       2031.6681     0.015663425
       2032.3342     0.043855769
       2033.0002     0.062615679
       2033.6662     0.059758837
       2034.3323     0.042685373
       2034.9983     0.056620016
       2035.6643     0.010115261
       2036.3304     0.077018576
       2036.9964     0.046689230
       2037.6624    0.0081122304
       2038.3284     0.041025235
       2038.9945    0.0087490079
       2039.6605     0.028334989
       2040.3265     0.020994123
       2040.9926     0.039777766
       2041.6586     0.041590477
       2042.3246     0.040433583
       2042.9907     0.014256074
       2043.6567     0.046951962
       2044.3227     0.060197466
       2044.9887     0.036902574
       2045.6548     0.054289744
       2046.3208     0.066663532
       2046.9868     0.013613838
       2047.6529     0.043200066
       2048.3189     0.059621845
       2048.9849     0.011557483
       2049.6509     0.048546805
       2050.3170    0.0090408342
       2050.9830     0.023134925
       2051.6490     0.044074289
       2052.3151   -0.0045125457
       2052.9811     0.030501654
       2053.6471     0.017778781
       2054.3132   -0.0013544569
       2054.9792    0.0056070839
       2055.6452     0.021014071
       2056.3112     0.050340085
       2056.9773     0.042030987
       2057.6433     0.014428486
       2058.3093     0.014333473
       2058.9754     0.025037362
       2059.6414     0.039274209
       2060.3074     0.012003964
       2060.9735     0.033286827
       2061.6395   -0.0047664029
       2062.3055   -0.0093445359
       2062.9715   -0.0065143256
       2063.6376     0.012660076
       2064.3036     0.011878532
       2064.9696     0.017577774
       2065.6357    0.0031167976
       2066.3017   -0.0054444988
       2066.9677   -0.0021591741
       2067.6338     0.014784313
       2068.2998    0.0091494796
       2068.9658     0.028406629
       2069.6318     0.058392691
       2070.2979     0.011098971
       2070.9639     0.022656639
       2071.6299     0.019879334
       2072.2960     0.056797236
       2072.9620     0.045444903
       2073.6280     0.037816017
       2074.2941     0.011543196
       2074.9601     0.031400246
       2075.6261     0.021840054
       2076.2921     0.049958938
       2076.9582     0.056571040
       2077.6242     0.019359522
       2078.2902     0.024598562
       2078.9563     0.028205380
       2079.6223     0.060951429
       2080.2883     0.029956328
       2080.9543     0.020382331
       2081.6204     0.024032407
       2082.2864     0.041858710
       2082.9524     0.030749831
       2083.6185     0.011889071
       2084.2845     0.034607566
       2084.9505     0.041622608
       2085.6166     0.038952880
       2086.2826     0.019007227
       2086.9486     0.024555305
       2087.6146     0.015037766
       2088.2807     0.021832949
       2088.9467     0.037837892
       2089.6127     0.036338211
       2090.2788   0.00018778981
       2090.9448   -0.0095032804
       2091.6108     0.017938396
       2092.2769     0.019210503
       2092.9429     0.044473903
       2093.6089     0.031004014
       2094.2749     0.019953315
       2094.9410    0.0087817482
       2095.6070     0.028008876
       2096.2730     0.039732418
       2096.9391     0.018104700
       2097.6051    0.0054712765
       2098.2711     0.038553711
       2098.9372     0.041757683
       2099.6032     0.032521760
       2100.2692   0.00014738648
       2100.9352     0.040210195
       2101.6013     0.031457632
       2102.2673     0.015424666
       2102.9333     0.010711003
       2103.5994  -0.00028833603
       2104.2654    0.0093463527
       2104.9314     0.049691309
       2105.5974     0.044122474
       2106.2635    0.0044122543
       2106.9295     0.024099983
       2107.5955    -0.011758575
       2108.2616    0.0059152969
       2108.9276     0.052613226
       2109.5936     0.024547873
       2110.2597     0.011030471
       2110.9257    0.0033061897
       2111.5917    0.0052543634
       2112.2577     0.010007484
       2112.9238     0.014606156
       2113.5898     0.037395027
       2114.2558     0.032148329
       2114.9219     0.045295502
       2115.5879     0.021124202
       2116.2539    0.0014700297
       2116.9200     0.031451605
       2117.5860    0.0055581995
       2118.2520     0.028607342
       2118.9180     0.022261382
       2119.5841     0.037915811
       2120.2501     0.039231725
       2120.9161     0.025792770
       2121.5822     0.016739586
       2122.2482     0.037913499
       2122.9142     0.035770560
       2123.5803     0.019076861
       2124.2463     0.052509702
       2124.9123     0.035670828
       2125.5783     0.026447222
       2126.2444     0.044503950
       2126.9104     0.018446837
       2127.5764     0.055276556
       2128.2425    0.0068629890
       2128.9085     0.031481606
       2129.5745     0.028116649
       2130.2405     0.022380849
       2130.9066     0.019042392
       2131.5726     0.020606058
       2132.2386     0.034614935
       2132.9047     0.035560634
       2133.5707     0.034433628
       2134.2367     0.017129748
       2134.9028     0.024923676
       2135.5688     0.038554023
       2136.2348     0.041807753
       2136.9008     0.024504821
       2137.5669    0.0016711220
       2138.2329     0.021799212
       2138.8989     0.063365403
       2139.5650     0.035346646
       2140.2310     0.012605471
       2140.8970     0.014690702
       2141.5631     0.033324772
       2142.2291     0.033398501
       2142.8951     0.050751491
       2143.5611     0.020862911
       2144.2272    0.0020228139
       2144.8932     0.016528213
       2145.5592     0.017352042
       2146.2253     0.026111567
       2146.8913     0.028332038
       2147.5573     0.027314736
       2148.2234     0.043333901
       2148.8894    0.0073145701
       2149.5554     0.016120979
       2150.2214     0.031323606
       2150.8875     0.046875923
       2151.5535   -0.0082916559
       2152.2195    0.0041925866
       2152.8856     0.030790285
       2153.5516     0.014259175
       2154.2176     0.026935999
       2154.8837     0.027339161
       2155.5497     0.026122721
       2156.2157     0.012298772
       2156.8817     0.021900347
       2157.5478     0.020413151
       2158.2138     0.019207541
       2158.8798     0.035123508
       2159.5459    0.0050549903
       2160.2119     0.033871012
       2160.8779    0.0073009999
       2161.5439     0.023906204
       2162.2100     0.017973042
       2162.8760     0.013175332
       2163.5420   -0.0090023120
       2164.2081   -0.0016047830
       2164.8741    0.0076426806
       2165.5401    0.0086358924
       2166.2062     0.020796199
       2166.8722     0.037040981
       2167.5382    0.0041077523
       2168.2042     0.015247560
       2168.8703     0.023548566
       2169.5363     0.023688978
       2170.2023     0.027622110
       2170.8684     0.037282912
       2171.5344    0.0090638653
       2172.2004     0.017428105
       2172.8665     0.032572726
       2173.5325     0.049888528
       2174.1985     0.023921573
       2174.8645     0.010129288
       2175.5306     0.011650558
       2176.1966     0.012544397
       2176.8626     0.030800973
       2177.5287     0.027604501
       2178.1947     0.012025166
       2178.8607   -0.0093357710
       2179.5268    0.0057076054
       2180.1928     0.022632214
       2180.8588     0.049816310
       2181.5248     0.027088456
       2182.1909     0.038876355
       2182.8569     0.020789578
       2183.5229     0.035088054
       2184.1890     0.038554858
       2184.8550     0.021894615
       2185.5210    0.0074331096
       2186.1870     0.010883441
       2186.8531    0.0094654360
       2187.5191     0.020604045
       2188.1851   -0.0011931166
       2188.8512     0.034422708
       2189.5172     0.034240713
       2190.1832     0.028347965
       2190.8493     0.021617952
       2191.5153     0.035658345
       2192.1813     0.019708784
       2192.8473    0.0031355692
       2193.5134     0.031849195
       2194.1794     0.035919229
       2194.8454     0.033844216
       2195.5115     0.012734049
       2196.1775     0.018617521
       2196.8435     0.010355168
       2197.5096     0.045807700
       2198.1756     0.010467156
       2198.8416     0.027958200
       2199.5076     0.026895727
       2200.1737     0.016785076
       2200.8397    -0.017015901
       2201.5057     0.016423896
       2202.1718     0.022055599
       2202.8378     0.050486781
       2203.5038     0.030850424
       2204.1699     0.027711198
       2204.8359     0.018198735
       2205.5019     0.029435009
       2206.1679     0.030578447
       2206.8340     0.030919577
       2207.5000     0.025941253
       2208.1660     0.021067311
       2208.8321  -9.8532507e-05
       2209.4981   -0.0053235750
       2210.1641     0.012422492
       2210.8302    0.0091674006
       2211.4962     0.029809511
       2212.1622     0.039301142
       2212.8282     0.013745254
       2213.4943     0.027279906
       2214.1603     0.035545862
       2214.8263     0.028736614
       2215.4924     0.011723434
       2216.1584     0.026944538
       2216.8244    0.0068139667
       2217.4904     0.018988985
       2218.1565     0.023588780
       2218.8225     0.021825741
       2219.4885     0.027387291
       2220.1546     0.019772879
       2220.8206     0.029248607
       2221.4866     0.013784663
       2222.1527     0.027567377
       2222.8187     0.030217217
       2223.4847     0.013681176
       2224.1507     0.016295654
       2224.8168     0.028803086
       2225.4828    0.0041104131
       2226.1488    0.0072691693
       2226.8149     0.031933064
       2227.4809    0.0082439510
       2228.1469     0.017767342
       2228.8130     0.019776147
       2229.4790     0.021788270
       2230.1450     0.021294395
       2230.8110     0.030847359
       2231.4771     0.026049645
       2232.1431     0.016669537
       2232.8091     0.020300900
       2233.4752     0.030059562
       2234.1412     0.012810192
       2234.8072     0.031158075
       2235.4733     0.018859359
       2236.1393     0.011745477
       2236.8053     0.014324658
       2237.4713    0.0086005141
       2238.1374     0.029727580
       2238.8034     0.026825834
       2239.4694     0.014795886
       2240.1355     0.015268072
       2240.8015     0.031824937
       2241.4675     0.026225905
       2242.1335     0.033160212
       2242.7996    0.0065310291
       2243.4656     0.018670406
       2244.1316     0.028989519
       2244.7977     0.013988857
       2245.4637     0.017900905
       2246.1297     0.021341157
       2246.7958     0.020158589
       2247.4618     0.033781306
       2248.1278     0.025813806
       2248.7938     0.022903163
       2249.4599     0.017329436
       2250.1259     0.031003895
       2250.7919     0.024508617
       2251.4580     0.032414585
       2252.1240     0.034853103
       2252.7900     0.021953244
       2253.4561    0.0032371763
       2254.1221    0.0090290402
       2254.7881     0.020541388
       2255.4541     0.030904918
       2256.1202    0.0017645221
       2256.7862    0.0096063299
       2257.4522   -0.0046963218
       2258.1183     0.014064948
       2258.7843     0.018392634
       2259.4503     0.022031326
       2260.1164     0.053881430
       2260.7824     0.023996175
       2261.4484     0.015910835
       2262.1144     0.025198163
       2262.7805    0.0028413036
       2263.4465     0.022128245
       2264.1125   -0.0063317004
       2264.7786     0.023914142
       2265.4446     0.029330764
       2266.1106     0.016093237
       2266.7766     0.021925752
       2267.4427     0.019673236
       2268.1087   -0.0012309582
       2268.7747     0.015405240
       2269.4408     0.020763727
       2270.1068     0.037819570
       2270.7728     0.022756734
       2271.4389     0.024077896
       2272.1049     0.033336348
       2272.7709     0.021806191
       2273.4369     0.036302588
       2274.1030     0.022051001
       2274.7690     0.031970323
       2275.4350    -0.010602151
       2276.1011     0.034001314
       2276.7671     0.046143245
       2277.4331     0.024160915
       2278.0992     0.048727090
       2278.7652     0.010531775
       2279.4312     0.011680012
       2280.0972     0.018121560
       2280.7633     0.026298887
       2281.4293     0.053724437
       2282.0953     0.027522215
       2282.7614     0.047909048
       2283.4274     0.025135951
       2284.0934     0.020903403
       2284.7595     0.029419307
       2285.4255     0.018927061
       2286.0915     0.028165422
       2286.7575     0.016391978
       2287.4236     0.017813955
       2288.0896     0.015796955
       2288.7556     0.015775530
       2289.4217     0.014591578
       2290.0877     0.029792164
       2290.7537     0.032970367
       2291.4198     0.016933306
       2292.0858     0.028811628
       2292.7518     0.013606304
       2293.4178     0.037025086
       2294.0839     0.042963206
       2294.7499     0.021353250
       2295.4159     0.016071988
       2296.0820     0.016484974
       2296.7480     0.013960079
       2297.4140     0.029137305
       2298.0800     0.013137136
       2298.7461     0.027059751
       2299.4121     0.022199731
       2300.0781     0.020450470
       2300.7442     0.027615587
       2301.4102     0.042713392
       2302.0762     0.017032114
       2302.7423    0.0053240900
       2303.4083     0.031093953
       2304.0743     0.029350611
       2304.7403    0.0063632462
       2305.4064     0.027910461
       2306.0724     0.046202829
       2306.7384     0.032300387
       2307.4045     0.034363677
       2308.0705     0.062748708
       2308.7365     0.053842249
       2309.4026     0.041518180
       2310.0686     0.025339921
       2310.7346     0.018007280
       2311.4006     0.046319973
       2312.0667     0.034137251
       2312.7327     0.013738730
       2313.3987     0.028307322
       2314.0648     0.028086719
       2314.7308     0.025747432
       2315.3968    0.0075660559
       2316.0629     0.021732757
       2316.7289     0.013999002
       2317.3949     0.045133885
       2318.0609     0.021910176
       2318.7270     0.018321810
       2319.3930     0.041138159
       2320.0590     0.043636692
       2320.7251     0.044847344
       2321.3911     0.033982116
       2322.0571     0.032401064
       2322.7231     0.018836480
       2323.3892     0.030662815
       2324.0552     0.028959285
       2324.7212     0.046118951
       2325.3873     0.028254296
       2326.0533     0.042911251
       2326.7193     0.028802127
       2327.3854     0.049772011
       2328.0514     0.040721254
       2328.7174     0.045330228
       2329.3834     0.031717102
       2330.0495     0.021899225
       2330.7155     0.028714363
       2331.3815     0.031593505
       2332.0476     0.025273297
       2332.7136     0.056388680
       2333.3796     0.024789615
       2334.0457     0.032875747
       2334.7117     0.033106976
       2335.3777     0.026217539
       2336.0437     0.033644137
       2336.7098     0.039858707
       2337.3758     0.037705803
       2338.0418     0.022075198
       2338.7079    0.0079219791
       2339.3739     0.036665837
       2340.0399     0.023752366
       2340.7060     0.023939679
       2341.3720     0.022807296
       2342.0380     0.022780260
       2342.7040     0.023235586
       2343.3701     0.012270268
       2344.0361     0.028865069
       2344.7021    0.0055803190
       2345.3682   -0.0057062102
       2346.0342     0.022578745
       2346.7002     0.039761288
       2347.3662     0.022824073
       2348.0323    0.0056942237
       2348.6983     0.048087311
       2349.3643     0.047412259
       2350.0304     0.046699722
       2350.6964     0.053449048
       2351.3624     0.018100128
       2352.0285     0.054867991
       2352.6945     0.044052172
       2353.3605     0.058306798
       2354.0265     0.044794598
       2354.6926     0.035595779
       2355.3586     0.039678158
       2356.0246     0.036671534
       2356.6907     0.039453062
       2357.3567     0.017415059
       2358.0227     0.022710443
       2358.6888     0.054417671
       2359.3548     0.062149449
       2360.0208     0.038754691
       2360.6868     0.013641036
       2361.3529     0.022807936
       2362.0189     0.037876672
       2362.6849     0.033189048
       2363.3510     0.034941071
       2364.0170     0.019249684
       2364.6830     0.028370590
       2365.3491     0.037323761
       2366.0151     0.042416855
       2366.6811     0.028628137
       2367.3471     0.042202661
       2368.0132     0.021203608
       2368.6792     0.023991870
       2369.3452     0.049693795
       2370.0113     0.033805822
       2370.6773     0.031267618
       2371.3433     0.035541705
       2372.0094    0.0057065974
       2372.6754     0.017009249
       2373.3414     0.026368395
       2374.0074     0.038219125
       2374.6735     0.025432511
       2375.3395    0.0036446758
       2376.0055     0.016456019
       2376.6716    0.0083660399
       2377.3376     0.023088391
       2378.0036     0.015663479
       2378.6696     0.015321611
       2379.3357     0.016128881
       2380.0017     0.028610989
       2380.6677     0.025914547
       2381.3338     0.041304913
       2381.9998     0.024409914
       2382.6658     0.015561272
       2383.3319     0.011033399
       2383.9979     0.016055234
       2384.6639    0.0069831288
       2385.3299    0.0028523986
       2385.9960     0.023144421
       2386.6620     0.012973249
       2387.3280     0.029188748
       2387.9941     0.037003235
       2388.6601     0.026713122
       2389.3261     0.017344385
       2389.9922     0.030706192
       2390.6582     0.039882663
       2391.3242     0.035702501
       2391.9902     0.023300905
       2392.6563     0.029227246
       2393.3223     0.038015357
       2393.9883     0.039067799
       2394.6544     0.048757114
       2395.3204     0.042903775
       2395.9864     0.030522776
       2396.6525     0.022004630
       2397.3185     0.038438240
       2397.9845     0.059150682
       2398.6505     0.038700114
       2399.3166     0.032614825
       2399.9826     0.034012098
       2400.6486     0.049738253
       2401.3147     0.041853697
       2401.9807     0.029164189
       2402.6467     0.042361946
       2403.3127     0.049985474
       2403.9788     0.066016229
       2404.6448     0.040775284
       2405.3108     0.029349736
       2405.9769     0.031705450
       2406.6429     0.032322055
       2407.3089     0.020101976
       2407.9750     0.028353727
       2408.6410     0.031616581
       2409.3070     0.043179320
       2409.9730     0.046311874
       2410.6391     0.014007940
       2411.3051     0.029099373
       2411.9711     0.052780570
       2412.6372     0.043617173
       2413.3032     0.024903123
       2413.9692     0.039808579
       2414.6353     0.044785213
       2415.3013     0.031725211
       2415.9673     0.029867860
       2416.6333     0.034867402
       2417.2994     0.045857691
       2417.9654     0.046309218
       2418.6314     0.048754501
       2419.2975     0.028623537
       2419.9635     0.043359370
       2420.6295     0.047778118
       2421.2956     0.030578644
       2421.9616     0.029800856
       2422.6276     0.016052771
       2423.2936     0.015629885
       2423.9597     0.032430847
       2424.6257     0.041079256
       2425.2917     0.038576819
       2425.9578     0.048762137
       2426.6238     0.044375563
       2427.2898     0.030449825
       2427.9558     0.025171499
       2428.6219     0.018784601
       2429.2879     0.034725801
       2429.9539     0.031967028
       2430.6200     0.046954855
       2431.2860     0.019050490
       2431.9520     0.020664163
       2432.6181     0.053458758
       2433.2841     0.032204242
       2433.9501     0.026645130
       2434.6161     0.056402527
       2435.2822     0.040277589
       2435.9482     0.030119045
       2436.6142     0.022790178
       2437.2803     0.020522619
       2437.9463    0.0096595617
       2438.6123     0.033497128
       2439.2784     0.012376813
       2439.9444     0.039888103
       2440.6104     0.043673313
       2441.2764     0.041321065
       2441.9425     0.029321538
       2442.6085     0.041995315
       2443.2745     0.034340229
       2443.9406     0.039688544
       2444.6066     0.043779899
       2445.2726     0.040654716
       2445.9387     0.031902234
       2446.6047     0.032142872
       2447.2707     0.037595818
       2447.9367     0.042624929
       2448.6028     0.029421075
       2449.2688     0.050908035
       2449.9348     0.034478509
       2450.6009     0.030510608
       2451.2669     0.055679563
       2451.9329     0.046342380
       2452.5990     0.048785829
       2453.2650     0.059078290
       2453.9310     0.055450496
       2454.5970     0.040034811
       2455.2631     0.039909589
       2455.9291     0.029208423
       2456.5951     0.033413458
       2457.2612     0.045023277
       2457.9272     0.045655341
       2458.5932     0.045816731
       2459.2592     0.026279316
       2459.9253     0.045733286
       2460.5913     0.045870323
       2461.2573     0.033146416
       2461.9234     0.032271857
       2462.5894     0.032337113
       2463.2554     0.047370313
       2463.9215     0.049631970
       2464.5875     0.048892428
       2465.2535     0.047865866
       2465.9195     0.051707400
       2466.5856     0.039777718
       2467.2516     0.041050949
       2467.9176     0.052168750
       2468.5837     0.034268990
       2469.2497     0.048592097
       2469.9157     0.049815468
       2470.5818     0.051709659
       2471.2478     0.036934727
       2471.9138     0.049939105
       2472.5798     0.048072510
       2473.2459     0.049288208
       2473.9119     0.052158130
       2474.5779     0.038843117
       2475.2440     0.036427154
       2475.9100     0.045744862
       2476.5760     0.043542579
       2477.2421     0.040930285
       2477.9081     0.035859362
       2478.5741     0.040462101
       2479.2401     0.029459413
       2479.9062     0.044256635
       2480.5722     0.043617116
       2481.2382     0.038678220
       2481.9043     0.020196043
       2482.5703     0.018063207
       2483.2363     0.042726488
       2483.9023     0.031715970
       2484.5684     0.050987356
       2485.2344     0.037470287
       2485.9004     0.037722088
       2486.5665     0.055660503
       2487.2325     0.073594909
       2487.8985     0.040277711
       2488.5646     0.045912203
       2489.2306     0.048308563
       2489.8966     0.037045483
       2490.5626     0.051988975
       2491.2287     0.066595377
       2491.8947     0.072642704
       2492.5607     0.038205263
       2493.2268     0.052601155
       2493.8928     0.061261220
       2494.5588     0.040268428
       2495.2249     0.053697373
       2495.8909     0.046498149
       2496.5569     0.026053081
       2497.2229     0.060489927
       2497.8890     0.034859687
       2498.5550     0.038139452
       2499.2210     0.037649689
       2499.8871     0.044189160
       2500.5531     0.048009747
       2501.2191     0.055857381
       2501.8852     0.055680022
       2502.5512     0.050709538
       2503.2172     0.059541420
       2503.8832     0.050231033
       2504.5493     0.026708433
       2505.2153     0.039380134
       2505.8813     0.044769518
       2506.5474     0.065829024
       2507.2134     0.057024051
       2507.8794     0.029386355
       2508.5454     0.037067886
       2509.2115     0.047373059
       2509.8775     0.039676335
       2510.5435     0.043749110
       2511.2096     0.048523274
       2511.8756     0.060435918
       2512.5416     0.040561528
       2513.2077     0.050635174
       2513.8737     0.045485847
       2514.5397     0.043406673
       2515.2057     0.038114697
       2515.8718     0.038792317
       2516.5378     0.045899553
       2517.2038     0.033108754
       2517.8699     0.040281116
       2518.5359     0.063350580
       2519.2019     0.051223736
       2519.8680     0.055362548
       2520.5340     0.069177461
       2521.2000     0.055949708
       2521.8660     0.041209052
       2522.5321     0.044043579
       2523.1981     0.056305096
       2523.8641     0.040582314
       2524.5302     0.036697198
       2525.1962     0.040511937
       2525.8622     0.062504531
       2526.5283     0.063279629
       2527.1943     0.037607907
       2527.8603     0.041962332
       2528.5263     0.041474015
       2529.1924     0.042746362
       2529.8584     0.044993401
       2530.5244     0.049984603
       2531.1905     0.067582225
       2531.8565     0.060379380
       2532.5225     0.059548839
       2533.1886     0.078281721
       2533.8546     0.051128547
       2534.5206     0.043315263
       2535.1866     0.051312666
       2535.8527     0.042860655
       2536.5187     0.032541339
       2537.1847     0.041934284
       2537.8508     0.015606925
       2538.5168     0.054554143
       2539.1828     0.063328190
       2539.8488     0.052596550
       2540.5149     0.056710007
       2541.1809     0.058193219
       2541.8469     0.087780893
       2542.5130     0.059014514
       2543.1790     0.062601320
       2543.8450     0.060789679
       2544.5111     0.057739272
       2545.1771     0.059190544
       2545.8431     0.073238990
       2546.5091     0.058415258
       2547.1752     0.073306544
       2547.8412     0.057421785
       2548.5072     0.028472143
       2549.1733     0.055709401
       2549.8393     0.044588461
       2550.5053     0.080967569
       2551.1714     0.062587242
       2551.8374     0.052015083
       2552.5034     0.058277801
       2553.1694     0.072848027
       2553.8355     0.052247311
       2554.5015     0.052020782
       2555.1675     0.062028812
       2555.8336     0.054475840
       2556.4996     0.033152507
       2557.1656     0.019244384
       2557.8317     0.055845850
       2558.4977     0.082812576
       2559.1637     0.062237563
       2559.8297     0.061331640
       2560.4958     0.036886197
       2561.1618    0.0072850538
       2561.8278     0.037209119
       2562.4939     0.058429318
       2563.1599     0.054124865
       2563.8259     0.061421997
       2564.4919     0.062714883
       2565.1580     0.069294118
       2565.8240     0.023937069
       2566.4900     0.046049572
       2567.1561     0.043683229
       2567.8221     0.031221423
       2568.4881     0.057953139
       2569.1542     0.054734281
       2569.8202     0.070177037
       2570.4862     0.059882803
       2571.1522     0.051141852
       2571.8183     0.032731544
       2572.4843     0.023510110
       2573.1503     0.051542071
       2573.8164     0.059623066
       2574.4824     0.056269415
       2575.1484     0.033141241
       2575.8145     0.046267122
       2576.4805     0.067805062
       2577.1465     0.056218512
       2577.8125     0.043415450
       2578.4786     0.049602177
       2579.1446     0.049765000
       2579.8106     0.045512574
       2580.4767     0.045627649
       2581.1427     0.044845626
       2581.8087     0.045238459
       2582.4748     0.057161969
       2583.1408     0.049263454
       2583.8068     0.042871342
       2584.4728     0.025255664
       2585.1389     0.050231082
       2585.8049     0.058659674
       2586.4709     0.034284837
       2587.1370     0.022979295
       2587.8030     0.038351683
       2588.4690     0.053539151
       2589.1351     0.013647083
       2589.8011     0.031123314
       2590.4671     0.015816527
       2591.1331    0.0027421518
       2591.7992     0.012951479
       2592.4652     0.048963633
       2593.1312     0.030315632
       2593.7973     0.037742854
       2594.4633     0.037628222
       2595.1293     0.078994855
       2595.7953     0.079865226
       2596.4614     0.034151812
       2597.1274     0.028612900
       2597.7934     0.039564694
       2598.4595     0.045231448
       2599.1255     0.034984573
       2599.7915     0.037486871
       2600.4576     0.046960829
       2601.1236     0.039451424
       2601.7896   -0.0050299827
       2602.4556    -0.017908345
       2603.1217    -0.017574363
       2603.7877     0.015940369
       2604.4537     0.030905448
       2605.1198     0.011603583
       2605.7858     0.010037674
       2606.4518     0.029789078
       2607.1179     0.030376032
       2607.7839     0.049034111
       2608.4499     0.041580320
       2609.1159     0.039457609
       2609.7820     0.034951182
       2610.4480     0.048790769
       2611.1140     0.063740194
       2611.7801     0.052886834
       2612.4461     0.048075587
       2613.1121     0.054116534
       2613.7782     0.076695617
       2614.4442     0.050711329
       2615.1102     0.055182929
       2615.7762     0.067081504
       2616.4423     0.048354521
       2617.1083     0.053014878
       2617.7743     0.065004770
       2618.4404     0.045224707
       2619.1064     0.051470483
       2619.7724     0.070964970
       2620.4384     0.054164879
       2621.1045     0.050951217
       2621.7705     0.043738395
       2622.4365     0.058211969
       2623.1026     0.075481015
       2623.7686     0.055054593
       2624.4346     0.058839182
       2625.1007     0.062147498
       2625.7667     0.054773582
       2626.4327     0.054254470
       2627.0987     0.068260014
       2627.7648     0.067503619
       2628.4308     0.071484023
       2629.0968     0.059153983
       2629.7629     0.060965059
       2630.4289     0.085755430
       2631.0949     0.063115903
       2631.7610     0.085863289
       2632.4270     0.075375975
       2633.0930     0.066881694
       2633.7590     0.065802855
       2634.4251     0.075446214
       2635.0911     0.069835845
       2635.7571     0.059014583
       2636.4232     0.059016915
       2637.0892     0.053831128
       2637.7552     0.054530862
       2638.4213     0.061495269
       2639.0873     0.066778037
       2639.7533     0.056940538
       2640.4193     0.072953846
       2641.0854     0.082505741
       2641.7514     0.066680807
       2642.4174     0.070115872
       2643.0835     0.091325263
       2643.7495     0.095649818
       2644.4155     0.077811712
       2645.0815     0.068510088
       2645.7476     0.098901340
       2646.4136     0.072348690
       2647.0796     0.051864089
       2647.7457     0.064271169
       2648.4117     0.056047285
       2649.0777     0.059137041
       2649.7438     0.085056141
       2650.4098     0.069018968
       2651.0758     0.069402056
       2651.7418     0.076846847
       2652.4079     0.061989196
       2653.0739     0.053045316
       2653.7399     0.073723879
       2654.4060     0.080040282
       2655.0720     0.076694219
       2655.7380     0.063602633
       2656.4041     0.049042903
       2657.0701     0.049906097
       2657.7361     0.070965233
       2658.4021     0.075181880
       2659.0682     0.085795290
       2659.7342     0.083036157
       2660.4002     0.060229393
       2661.0663     0.061996347
       2661.7323     0.069961684
       2662.3983     0.081776856
       2663.0644     0.048659256
       2663.7304     0.039036584
       2664.3964     0.083964219
       2665.0624     0.081465565
       2665.7285     0.067068917
       2666.3945     0.065759069
       2667.0605     0.093166644
       2667.7266     0.097881968
       2668.3926     0.067760753
       2669.0586     0.077795936
       2669.7247     0.085427916
       2670.3907     0.078895875
       2671.0567     0.060865928
       2671.7227     0.058611471
       2672.3888     0.066412131
       2673.0548     0.063617810
       2673.7208     0.071509194
       2674.3869     0.073969752
       2675.0529     0.063723798
       2675.7189     0.077567273
       2676.3849     0.071842621
       2677.0510     0.083740918
       2677.7170     0.089013241
       2678.3830     0.088680189
       2679.0491     0.080765842
       2679.7151     0.054529206
       2680.3811     0.071382203
       2681.0472     0.072179848
       2681.7132     0.069340328
       2682.3792     0.095493878
       2683.0452     0.090870795
       2683.7113     0.076082178
       2684.3773     0.061250588
       2685.0433     0.076675257
       2685.7094     0.081517094
       2686.3754     0.073821677
       2687.0414     0.061733645
       2687.7075     0.072519970
       2688.3735     0.048314504
       2689.0395     0.053403879
       2689.7055     0.083234600
       2690.3716     0.094959652
       2691.0376     0.079069500
       2691.7036     0.095809106
       2692.3697     0.080674320
       2693.0357     0.057296143
       2693.7017     0.048463609
       2694.3678     0.037669598
       2695.0338     0.063499763
       2695.6998     0.057972241
       2696.3658     0.083163768
       2697.0319     0.072556873
       2697.6979     0.074662153
       2698.3639     0.059530593
       2699.0300     0.079442172
       2699.6960      0.10052980
       2700.3620     0.068677626
       2701.0280     0.073947082
       2701.6941     0.070837263
       2702.3601     0.080262205
       2703.0261     0.084122548
       2703.6922     0.075747462
       2704.3582     0.073534042
       2705.0242     0.088163347
       2705.6903     0.071397220
       2706.3563     0.069156743
       2707.0223     0.072578311
       2707.6883     0.076898956
       2708.3544     0.051683993
       2709.0204     0.064487764
       2709.6864     0.067510380
       2710.3525     0.050085722
       2711.0185     0.070066962
       2711.6845     0.081515111
       2712.3506     0.064147728
       2713.0166     0.065681382
       2713.6826     0.092835577
       2714.3486     0.056734230
       2715.0147     0.053924012
       2715.6807     0.040977027
       2716.3467     0.066492705
       2717.0128     0.078815149
       2717.6788     0.071757383
       2718.3448     0.089284172
       2719.0109     0.095930164
       2719.6769     0.072055227
       2720.3429     0.060656952
       2721.0089     0.060968790
       2721.6750     0.041568392
       2722.3410     0.048755233
       2723.0070     0.056124860
       2723.6731     0.082577787
       2724.3391     0.061480203
       2725.0051     0.051183620
       2725.6711     0.063324360
       2726.3372     0.063196804
       2727.0032     0.069297409
       2727.6692     0.062340444
       2728.3353     0.059034915
       2729.0013     0.080134463
       2729.6673     0.084329380
       2730.3334     0.056883659
       2730.9994     0.055040404
       2731.6654     0.075798783
       2732.3314     0.089976489
       2732.9975     0.063918927
       2733.6635     0.069242596
       2734.3295     0.064744128
       2734.9956     0.076289078
       2735.6616     0.070079139
       2736.3276     0.066112343
       2736.9937     0.062045802
       2737.6597     0.063674539
       2738.3257     0.064806640
       2738.9917     0.053601016
       2739.6578     0.063158169
       2740.3238     0.072500693
       2740.9898     0.091950770
       2741.6559     0.071248926
       2742.3219     0.064028215
       2742.9879     0.055919274
       2743.6540     0.045200171
       2744.3200     0.071710762
       2744.9860     0.053459565
       2745.6520     0.072944985
       2746.3181     0.075961364
       2746.9841     0.080243677
       2747.6501     0.077989406
       2748.3162     0.053483219
       2748.9822     0.040237460
       2749.6482     0.050893197
       2750.3143     0.086099270
       2750.9803      0.10847010
       2751.6463      0.10814306
       2752.3123     0.069740526
       2752.9784     0.075344289
       2753.6444     0.081095538
       2754.3104      0.11133759
       2754.9765      0.11516622
       2755.6425     0.089500695
       2756.3085     0.083314569
       2756.9745     0.093983145
       2757.6406     0.071319470
       2758.3066     0.070748465
       2758.9726     0.083742024
       2759.6387     0.085444271
       2760.3047     0.089219615
       2760.9707     0.082871329
       2761.6368     0.094157396
       2762.3028     0.094822271
       2762.9688     0.098280465
       2763.6348     0.097170633
       2764.3009     0.091929167
       2764.9669     0.072904687
       2765.6329     0.056915303
       2766.2990     0.086711613
       2766.9650      0.10086592
       2767.6310     0.069007784
       2768.2971     0.082663374
       2768.9631     0.091949652
       2769.6291     0.088728549
       2770.2951     0.096092821
       2770.9612     0.082124793
       2771.6272     0.083728998
       2772.2932     0.077545062
       2772.9593     0.069870672
       2773.6253     0.062532078
       2774.2913     0.070524494
       2774.9574     0.089693714
       2775.6234     0.077535032
       2776.2894      0.10664792
       2776.9554     0.088109947
       2777.6215     0.058530662
       2778.2875     0.067996159
       2778.9535     0.082893907
       2779.6196     0.089731703
       2780.2856     0.084626362
       2780.9516     0.051779712
       2781.6176     0.059822492
       2782.2837     0.060874935
       2782.9497     0.063999015
       2783.6157     0.065837359
       2784.2818     0.059335306
       2784.9478     0.063870785
       2785.6138     0.081636436
       2786.2799     0.076288219
       2786.9459     0.082564808
       2787.6119     0.084241290
       2788.2779     0.077950890
       2788.9440     0.065191061
       2789.6100     0.076726466
       2790.2760     0.095693709
       2790.9421      0.10556908
       2791.6081     0.078342399
       2792.2741     0.060713359
       2792.9402     0.052818483
       2793.6062     0.060709059
       2794.2722     0.051389785
       2794.9382     0.034135745
       2795.6043     0.032937038
       2796.2703     0.033109815
       2796.9363     0.053789836
       2797.6024     0.015115050
       2798.2684    -0.018578919
       2798.9344   -0.0010145587
       2799.6005    0.0099761243
       2800.2665     0.014151849
       2800.9325     0.029034907
       2801.5985     0.051062707
       2802.2646     0.026724689
       2802.9306     0.029074318
       2803.5966     0.027122716
       2804.2627     0.030714535
       2804.9287     0.020713452
       2805.5947     0.017864355
       2806.2607    0.0089130891
       2806.9268   -0.0067402354
       2807.5928    0.0067615547
       2808.2588     0.026425897
       2808.9249     0.044137365
       2809.5909     0.048017179
       2810.2569     0.067455930
       2810.9230     0.054149825
       2811.5890     0.048211512
       2812.2550     0.092166295
       2812.9210      0.10223963
       2813.5871      0.10597067
       2814.2531     0.086191784
       2814.9191     0.083137963
       2815.5852     0.097686480
       2816.2512     0.083725500
       2816.9172     0.075562927
       2817.5833     0.089766344
       2818.2493     0.087625212
       2818.9153     0.071789481
       2819.5813     0.079852351
       2820.2474     0.085153263
       2820.9134     0.088385330
       2821.5794     0.096037287
       2822.2455     0.078446535
       2822.9115     0.062720736
       2823.5775     0.073868410
       2824.2436     0.091302785
       2824.9096     0.076177280
       2825.5756     0.081232177
       2826.2416     0.065698347
       2826.9077     0.061310018
       2827.5737     0.057108303
       2828.2397     0.059040965
       2828.9058     0.056918237
       2829.5718     0.078744208
       2830.2378     0.064312400
       2830.9039     0.067024664
       2831.5699     0.080020679
       2832.2359     0.053874767
       2832.9019     0.056252804
       2833.5680     0.059150556
       2834.2340      0.10117903
       2834.9000     0.080120997
       2835.5661     0.064707361
       2836.2321     0.061017130
       2836.8981     0.079292788
       2837.5641     0.075732104
       2838.2302     0.071704878
       2838.8962     0.099452752
       2839.5622     0.081672250
       2840.2283     0.065604239
       2840.8943     0.082425369
       2841.5603     0.073838576
       2842.2264     0.071222477
       2842.8924     0.086019553
       2843.5584     0.087416041
       2844.2244     0.090281782
       2844.8905     0.061974179
       2845.5565     0.048898104
       2846.2225     0.064762717
       2846.8886     0.058573250
       2847.5546     0.049046678
       2848.2206     0.085904517
       2848.8867     0.088037821
       2849.5527     0.099659048
       2850.2187     0.081203877
       2850.8847     0.075940593
       2851.5508     0.067991312
       2852.2168     0.050490718
       2852.8828     0.056276486
       2853.5489     0.054219962
       2854.2149     0.058110788
       2854.8809     0.029587484
       2855.5470     0.013739956
       2856.2130     0.051276955
       2856.8790     0.061287901
       2857.5450     0.060778014
       2858.2111     0.061977388
       2858.8771     0.074641131
       2859.5431     0.081142522
       2860.2092     0.070179034
       2860.8752     0.079803291
       2861.5412      0.10118467
       2862.2072     0.067617437
       2862.8733     0.077990948
       2863.5393     0.072162307
       2864.2053     0.086775136
       2864.8714     0.082145014
       2865.5374     0.053318085
       2866.2034     0.058829593
       2866.8695     0.079494840
       2867.5355     0.079776248
       2868.2015     0.079296482
       2868.8675     0.055505848
       2869.5336     0.084620771
       2870.1996      0.12882269
       2870.8656     0.086265801
       2871.5317     0.078869772
       2872.1977     0.071498951
       2872.8637     0.079932279
       2873.5298     0.041844657
       2874.1958     0.053281570
       2874.8618     0.069293990
       2875.5278     0.070445958
       2876.1939     0.072736045
       2876.8599      0.10547327
       2877.5259     0.073069869
       2878.1920     0.065618753
       2878.8580     0.066438368
       2879.5240     0.070962870
       2880.1901     0.051558687
       2880.8561     0.058774233
       2881.5221     0.068764131
       2882.1881     0.083045516
       2882.8542     0.078046383
       2883.5202     0.068381050
       2884.1862     0.062886975
       2884.8523     0.086233774
       2885.5183     0.078007031
       2886.1843     0.050990056
       2886.8503     0.073772869
       2887.5164     0.082535125
       2888.1824     0.069023275
       2888.8484     0.063128118
       2889.5145     0.083321472
       2890.1805     0.085222072
       2890.8465     0.054081237
       2891.5126     0.061089286
       2892.1786      0.10675353
       2892.8446      0.10173127
       2893.5106     0.093104318
       2894.1767     0.076018428
       2894.8427     0.094792042
       2895.5087     0.093600132
       2896.1748     0.082756387
       2896.8408     0.066643604
       2897.5068     0.062597568
       2898.1729     0.098339224
       2898.8389     0.098276574
       2899.5049     0.088371667
       2900.1709     0.074192777
       2900.8370     0.050456121
       2901.5030     0.077463506
       2902.1690     0.095197862
       2902.8351     0.080250874
       2903.5011     0.058295065
       2904.1671     0.075703617
       2904.8332     0.089480652
       2905.4992     0.085800554
       2906.1652     0.077713962
       2906.8312     0.067050420
       2907.4973     0.081453264
       2908.1633     0.077490416
       2908.8293     0.080313003
       2909.4954      0.11199161
       2910.1614      0.10868372
       2910.8274     0.069612357
       2911.4935     0.074695858
       2912.1595     0.086379515
       2912.8255     0.087162438
       2913.4915     0.098077130
       2914.1576     0.095361732
       2914.8236     0.078527221
       2915.4896     0.085185161
       2916.1557     0.063945882
       2916.8217     0.056876622
       2917.4877     0.056320388
       2918.1537     0.053560381
       2918.8198     0.063450606
       2919.4858     0.068421884
       2920.1518     0.073413946
       2920.8179     0.080837261
       2921.4839     0.077591925
       2922.1499     0.079043632
       2922.8160     0.079341275
       2923.4820     0.066967984
       2924.1480     0.098207603
       2924.8140      0.10512963
       2925.4801     0.090853484
       2926.1461     0.081747400
       2926.8121     0.097956190
       2927.4782     0.088054289
       2928.1442     0.041681944
       2928.8102     0.069750513
       2929.4763     0.080688030
       2930.1423     0.045173988
       2930.8083     0.062353931
       2931.4743      0.10032137
       2932.1404      0.10340336
       2932.8064      0.10154285
       2933.4724     0.078187111
       2934.1385     0.099975789
       2934.8045      0.10222804
       2935.4705     0.086631811
       2936.1366     0.071568339
       2936.8026     0.099145623
       2937.4686      0.11087326
       2938.1346     0.086292033
       2938.8007     0.081984218
       2939.4667     0.099860210
       2940.1327     0.086603257
       2940.7988     0.095329421
       2941.4648     0.083300531
       2942.1308     0.069359440
       2942.7968     0.061304005
       2943.4629     0.049391422
       2944.1289     0.049695539
       2944.7949     0.063202284
       2945.4610     0.083192513
       2946.1270     0.081714081
       2946.7930     0.098007942
       2947.4591     0.073862643
       2948.1251     0.062062771
       2948.7911     0.083632948
       2949.4571     0.099095569
       2950.1232     0.089528699
       2950.7892     0.081075847
       2951.4552     0.077699954
       2952.1213     0.078661171
       2952.7873     0.073513178
       2953.4533     0.072628676
       2954.1194     0.060010951
       2954.7854     0.069374628
       2955.4514     0.085617908
       2956.1174     0.092092021
       2956.7835      0.10201112
       2957.4495     0.087979823
       2958.1155     0.073729855
       2958.7816     0.076998002
       2959.4476     0.093800571
       2960.1136     0.093611862
       2960.7797     0.069234572
       2961.4457     0.074175804
       2962.1117     0.075729382
       2962.7777     0.054527273
       2963.4438     0.071281968
       2964.1098     0.093708729
       2964.7758     0.089562494
       2965.4419     0.091408520
       2966.1079     0.088133457
       2966.7739      0.11077914
       2967.4400      0.11840306
       2968.1060      0.10131499
       2968.7720     0.094316148
       2969.4380     0.091298089
       2970.1041      0.11617798
       2970.7701     0.095028213
       2971.4361     0.067060553
       2972.1022     0.096263357
       2972.7682     0.085471963
       2973.4342     0.077607843
       2974.1002     0.082577992
       2974.7663     0.089908996
       2975.4323     0.084307385
       2976.0983     0.091649996
       2976.7644     0.051680237
       2977.4304      0.10512742
       2978.0964     0.096027087
       2978.7625     0.078978893
       2979.4285      0.10220181
       2980.0945     0.092070548
       2980.7605     0.099072775
       2981.4266     0.099788265
       2982.0926     0.090715495
       2982.7586     0.073572955
       2983.4247     0.046221795
       2984.0907     0.060677778
       2984.7567     0.081747550
       2985.4228      0.10215288
       2986.0888     0.085801788
       2986.7548     0.061947087
       2987.4208     0.065616488
       2988.0869     0.076730134
       2988.7529     0.099661022
       2989.4189     0.089791814
       2990.0850      0.11118550
       2990.7510      0.10811091
       2991.4170     0.083341704
       2992.0831      0.10415742
       2992.7491     0.084495736
       2993.4151     0.062091290
       2994.0811     0.070264539
       2994.7472      0.10200094
       2995.4132      0.10236586
       2996.0792      0.11655559
       2996.7453      0.10092913
       2997.4113     0.098374742
       2998.0773      0.10059390
       2998.7433     0.089324350
       2999.4094     0.077939488
       3000.0754     0.073729741
       3000.7414     0.067461366
       3001.4075     0.081688092
       3002.0735     0.086299658
       3002.7395     0.096961421
       3003.4056     0.096416277
       3004.0716     0.090975802
       3004.7376     0.078301319
       3005.4036     0.066648838
       3006.0697     0.082421108
       3006.7357     0.094633318
       3007.4017     0.086663539
       3008.0678     0.099771022
       3008.7338     0.091008970
       3009.3998      0.11103312
       3010.0659      0.10335792
       3010.7319     0.097515172
       3011.3979     0.098974187
       3012.0639      0.10152038
       3012.7300     0.090004240
       3013.3960     0.062502474
       3014.0620     0.082703071
       3014.7281     0.085535746
       3015.3941     0.094533958
       3016.0601      0.11231297
       3016.7262     0.085014018
       3017.3922     0.092244164
       3018.0582     0.089496608
       3018.7242     0.081721440
       3019.3903     0.093867268
       3020.0563      0.10003224
       3020.7223     0.093474501
       3021.3884     0.088608677
       3022.0544      0.11550309
       3022.7204      0.11145820
       3023.3864      0.10637033
       3024.0525     0.073340037
       3024.7185     0.074839248
       3025.3845     0.088772772
       3026.0506     0.084816629
       3026.7166     0.078586143
       3027.3826     0.086026966
       3028.0487     0.087162407
       3028.7147      0.10059885
       3029.3807      0.12628380
       3030.0467      0.12514258
       3030.7128     0.097791062
       3031.3788     0.096374298
       3032.0448     0.093112281
       3032.7109     0.081906933
       3033.3769     0.092215910
       3034.0429     0.082603396
       3034.7090     0.086008450
       3035.3750      0.10259490
       3036.0410     0.087404057
       3036.7070     0.050315841
       3037.3731     0.067440735
       3038.0391     0.056323844
       3038.7051     0.080220087
       3039.3712     0.095581571
       3040.0372      0.10279317
       3040.7032     0.088734379
       3041.3693     0.093014298
       3042.0353      0.10017822
       3042.7013     0.097883143
       3043.3673     0.087954400
       3044.0334     0.065754963
       3044.6994     0.062415502
       3045.3654     0.061413953
       3046.0315     0.077365749
       3046.6975     0.096090366
       3047.3635     0.088809653
       3048.0296     0.061096491
       3048.6956     0.055389270
       3049.3616     0.069240988
       3050.0276      0.10955660
       3050.6937     0.089215792
       3051.3597     0.073060667
       3052.0257     0.078942130
       3052.6918     0.082142394
       3053.3578     0.091895211
       3054.0238     0.085021313
       3054.6898     0.058018242
       3055.3559     0.085820151
       3056.0219     0.097598992
       3056.6879     0.084930167
       3057.3540     0.094398063
       3058.0200      0.10004406
       3058.6860     0.095384325
       3059.3521     0.087356920
       3060.0181      0.10027808
       3060.6841     0.095947414
       3061.3501     0.093615531
       3062.0162     0.081290940
       3062.6822     0.099517719
       3063.3482      0.11839725
       3064.0143      0.11609672
       3064.6803      0.11430818
       3065.3463      0.10486209
       3066.0124      0.10454180
       3066.6784     0.087163714
       3067.3444     0.087187537
       3068.0104      0.11423790
       3068.6765      0.11333114
       3069.3425      0.10013480
       3070.0085      0.11399352
       3070.6746      0.12916596
       3071.3406      0.10057149
       3072.0066     0.079499659
       3072.6727     0.092429339
       3073.3387     0.081085509
       3074.0047     0.083363357
       3074.6707     0.080037296
       3075.3368     0.081664685
       3076.0028     0.081100734
       3076.6688     0.072444550
       3077.3349      0.10076450
       3078.0009     0.095365096
       3078.6669      0.10953836
       3079.3329      0.10645048
       3079.9990      0.10907677
       3080.6650     0.087964918
       3081.3310      0.10627492
       3081.9971     0.077796288
       3082.6631     0.062609139
       3083.3291     0.095185209
       3083.9952     0.094237098
       3084.6612     0.072626136
       3085.3272     0.089792761
       3085.9932      0.11260719
       3086.6593     0.094422112
       3087.3253      0.10121860
       3087.9913      0.10684300
       3088.6574     0.099252677
       3089.3234      0.11274130
       3089.9894      0.12691869
       3090.6555     0.093053783
       3091.3215     0.081128168
       3091.9875     0.079153064
       3092.6535     0.090601683
       3093.3196     0.088305722
       3093.9856     0.074518014
       3094.6516     0.088964364
       3095.3177     0.066267976
       3095.9837     0.082760662
       3096.6497     0.087198568
       3097.3158     0.090825112
       3097.9818      0.10111961
       3098.6478     0.091340863
       3099.3138     0.075256463
       3099.9799     0.082207475
       3100.6459     0.095845159
       3101.3119      0.11160748
       3101.9780      0.12773972
       3102.6440      0.12355822
       3103.3100     0.081039338
       3103.9760     0.084619435
       3104.6421     0.071493765
       3105.3081     0.073792536
       3105.9741     0.076023089
       3106.6402     0.085915995
       3107.3062     0.095948857
       3107.9722     0.067553410
       3108.6383     0.071455052
       3109.3043     0.093831081
       3109.9703     0.087756475
       3110.6363      0.11656191
       3111.3024      0.12691061
       3111.9684      0.10752456
       3112.6344     0.091310842
       3113.3005     0.096011204
       3113.9665      0.10278619
       3114.6325     0.095912223
       3115.2986     0.095241485
       3115.9646      0.10732550
       3116.6306     0.098661104
       3117.2966      0.11476804
       3117.9627     0.097581168
       3118.6287     0.097015267
       3119.2947     0.093867139
       3119.9608     0.081378986
       3120.6268     0.087779002
       3121.2928     0.095468107
       3121.9589     0.093646786
       3122.6249     0.091887486
       3123.2909     0.096955239
       3123.9569     0.081840413
       3124.6230      0.10621224
       3125.2890     0.096978357
       3125.9550     0.091226337
       3126.6211     0.073536102
       3127.2871     0.067825695
       3127.9531     0.081998551
       3128.6192     0.094972926
       3129.2852      0.10008988
       3129.9512     0.097737925
       3130.6172     0.093604643
       3131.2833     0.084198734
       3131.9493     0.099440622
       3132.6153     0.091892410
       3133.2814      0.10014710
       3133.9474     0.093520470
       3134.6134     0.088210093
       3135.2794     0.099887574
       3135.9455     0.090378588
       3136.6115     0.085826581
       3137.2775     0.080083809
       3137.9436     0.086892502
       3138.6096     0.087194019
       3139.2756     0.093540728
       3139.9417     0.091861501
       3140.6077     0.094126246
       3141.2737      0.10552809
       3141.9397     0.086200623
       3142.6058     0.094714735
       3143.2718     0.051314390
       3143.9378     0.081050470
       3144.6039      0.12924604
       3145.2699      0.10239394
       3145.9359     0.096966193
       3146.6020      0.10949301
       3147.2680      0.13545606
       3147.9340      0.10555682
       3148.6000     0.090268297
       3149.2661     0.071337081
       3149.9321      0.10355260
       3150.5981      0.11767313
       3151.2642      0.10488772
       3151.9302      0.14019392
       3152.5962      0.10828670
       3153.2623     0.098848039
       3153.9283      0.11359827
       3154.5943      0.10951918
       3155.2603      0.11084644
       3155.9264      0.11494542
       3156.5924      0.10798673
       3157.2584      0.11006429
       3157.9245     0.095893224
       3158.5905      0.10310339
       3159.2565     0.094135893
       3159.9225     0.095670716
       3160.5886     0.097829562
       3161.2546     0.084467728
       3161.9206     0.061873827
       3162.5867     0.071925620
       3163.2527     0.081581380
       3163.9187     0.078140212
       3164.5848     0.089328051
       3165.2508     0.089447733
       3165.9168      0.10668393
       3166.5828     0.086936853
       3167.2489     0.097014031
       3167.9149      0.12507329
       3168.5809      0.11446627
       3169.2470      0.10493233
       3169.9130      0.10162661
       3170.5790      0.10616534
       3171.2451      0.11677045
       3171.9111     0.088852062
       3172.5771     0.099279960
       3173.2431      0.11569886
       3173.9092      0.12163088
       3174.5752     0.096852272
       3175.2412      0.10005597
       3175.9073      0.11006490
       3176.5733     0.087952142
       3177.2393     0.093423676
       3177.9054     0.090401916
       3178.5714     0.097833130
       3179.2374      0.10703914
       3179.9034     0.093620284
       3180.5695      0.10676881
       3181.2355      0.11145821
       3181.9015      0.11278129
       3182.5676     0.085959620
       3183.2336     0.077947252
       3183.8996     0.077182146
       3184.5656     0.088792952
       3185.2317     0.094849800
       3185.8977     0.066462891
       3186.5637     0.081483470
       3187.2298      0.12352949
       3187.8958      0.11800377
       3188.5618      0.11465959
       3189.2279      0.13109504
       3189.8939      0.12130432
       3190.5599      0.11253128
       3191.2259      0.10566202
       3191.8920     0.093652556
       3192.5580      0.10787271
       3193.2240      0.11163007
       3193.8901     0.097420674
       3194.5561      0.10456495
       3195.2221      0.10626431
       3195.8882     0.098368688
       3196.5542      0.10657150
       3197.2202      0.10966292
       3197.8862     0.069448947
       3198.5523     0.086186017
       3199.2183      0.12754116
       3199.8843      0.12957094
       3200.5504      0.11129983
       3201.2164      0.12434392
       3201.8824      0.12995980
       3202.5485     0.093932228
       3203.2145     0.081755653
       3203.8805     0.086532478
       3204.5465     0.094454560
       3205.2126     0.092385834
       3205.8786     0.096382880
       3206.5446     0.099093118
       3207.2107     0.092841677
       3207.8767      0.10633084
       3208.5427      0.11927377
       3209.2088     0.092337324
       3209.8748      0.10593537
       3210.5408     0.099891341
       3211.2068      0.10659815
       3211.8729      0.10851768
       3212.5389      0.10077534
       3213.2049     0.096763651
       3213.8710     0.094193424
       3214.5370     0.091605333
       3215.2030      0.10568323
       3215.8690     0.095621202
       3216.5351     0.092250617
       3217.2011     0.092530146
       3217.8671     0.092957703
       3218.5332      0.10093660
       3219.1992     0.093061506
       3219.8652     0.074769282
       3220.5313     0.064287490
       3221.1973     0.076325954
       3221.8633     0.090429887
       3222.5293      0.10626051
       3223.1954      0.10058880
       3223.8614     0.074955323
       3224.5274     0.093524184
       3225.1935     0.076435684
       3225.8595     0.096719456
       3226.5255      0.11314568
       3227.1916      0.11567137
       3227.8576      0.11092938
       3228.5236     0.077939665
       3229.1896     0.092177600
       3229.8557      0.13050821
       3230.5217      0.10884496
       3231.1877      0.11024812
       3231.8538      0.13604461
       3232.5198      0.10102271
       3233.1858      0.10062914
       3233.8519      0.11446106
       3234.5179      0.11921200
       3235.1839      0.12283756
       3235.8499     0.094387837
       3236.5160     0.075303018
       3237.1820      0.11008801
       3237.8480      0.13059999
       3238.5141      0.11323884
       3239.1801     0.079901551
       3239.8461     0.086838359
       3240.5121     0.097184160
       3241.1782     0.096834145
       3241.8442      0.11186143
       3242.5102      0.10582401
       3243.1763      0.12997447
       3243.8423      0.10911986
       3244.5083      0.10355322
       3245.1744      0.11831229
       3245.8404      0.10949752
       3246.5064      0.11991101
       3247.1724      0.10694705
       3247.8385     0.085318483
       3248.5045     0.084233707
       3249.1705     0.075172321
       3249.8366     0.091726021
       3250.5026      0.11660821
       3251.1686      0.10850494
       3251.8347     0.097904739
       3252.5007      0.12359011
       3253.1667      0.13270648
       3253.8327      0.12627241
       3254.4988      0.11604145
       3255.1648      0.10191423
       3255.8308      0.12239508
       3256.4969     0.096952422
       3257.1629     0.082846972
       3257.8289     0.080064601
       3258.4950      0.10992822
       3259.1610     0.073313795
       3259.8270     0.089348154
       3260.4930      0.10826773
       3261.1591     0.095433999
       3261.8251      0.10240409
       3262.4911     0.085798640
       3263.1572     0.066538032
       3263.8232      0.10204644
       3264.4892      0.11442860
       3265.1552      0.12692419
       3265.8213      0.13719687
       3266.4873      0.12364787
       3267.1533      0.10573514
       3267.8194     0.087596135
       3268.4854     0.084854550
       3269.1514     0.080479425
       3269.8175      0.13854351
       3617.1270      0.85083372
       3617.8727      0.96360901
       3618.6184       1.0414132
       3619.3641      0.95311142
       3620.1097      0.94312764
       3620.8554      0.88820898
       3621.6011       1.0685377
       3622.3467       1.0786118
       3623.0924       1.0437610
       3623.8381       1.0126711
       3624.5837      0.98586309
       3625.3294       1.0441436
       3626.0751       1.0544481
       3626.8207      0.93018990
       3627.5664       1.1113369
       3628.3121       1.3188680
       3629.0577      0.83128649
       3629.8034      0.93164001
       3630.5491      0.97742444
       3631.2947      0.88043649
       3632.0404      0.98411011
       3632.7861      0.97572350
       3633.5317      0.89845057
       3634.2774      0.77945910
       3635.0231      0.90985245
       3635.7688      0.89750316
       3636.5144      0.94770336
       3637.2601      0.78052964
       3638.0058      0.92820979
       3638.7514       1.0384516
       3639.4971       1.0905873
       3640.2428      0.94471758
       3640.9884       1.0202250
       3641.7341       1.0495004
       3642.4798       1.0931806
       3643.2254      0.96048891
       3643.9711      0.61728294
       3644.7168      0.76293269
       3645.4624      0.73904901
       3646.2081      0.78198894
       3646.9538      0.80880211
       3647.6994      0.77051631
       3648.4451      0.73270516
       3649.1908      0.88564794
       3649.9364      0.71569623
       3650.6821      0.78409651
       3651.4278      0.63364293
       3652.1734      0.59379486
       3652.9191      0.72031358
       3653.6648      0.84412008
       3654.4105      0.78035959
       3655.1561      0.86486706
       3655.9018       1.0019278
       3656.6475       1.0418803
       3657.3931       1.0281008
       3658.1388       1.0363085
       3658.8845      0.82963437
       3659.6301      0.47652341
       3660.3758      0.56048777
       3661.1215      0.65607741
       3661.8671      0.90046886
       3662.6128      0.89439346
       3663.3585      0.86580812
       3664.1041      0.89449621
       3664.8498       1.1398296
       3665.5955      0.87168392
       3666.3411      0.86543147
       3667.0868      0.91111591
       3667.8325      0.89635929
       3668.5781      0.91214067
       3669.3238      0.85004917
       3670.0695      0.56216037
       3670.8152      0.75721962
       3671.5608       1.0122603
       3672.3065       1.0623902
       3673.0522       1.0596268
       3673.7978      0.88479719
       3674.5435      0.96077186
       3675.2892      0.93232493
       3676.0348      0.75148267
       3676.7805      0.71847063
       3677.5262      0.99176261
       3678.2718       1.0270421
       3679.0175      0.91736548
       3679.7632      0.83333912
       3680.5088      0.94113435
       3681.2545      0.80240936
       3682.0002      0.76011493
       3682.7458      0.91812359
       3683.4915      0.79202264
       3684.2372      0.86221286
       3684.9828      0.98551409
       3685.7285      0.92982951
       3686.4742      0.75557539
       3687.2198      0.84707317
       3687.9655      0.88243670
       3688.7112      0.89462036
       3689.4569      0.89745060
       3690.2025      0.81248261
       3690.9482      0.88065868
       3691.6939      0.97637443
       3692.4395      0.95115268
       3693.1852      0.88983381
       3693.9309      0.90789149
       3694.6765      0.85301286
       3695.4222      0.84547249
       3696.1679      0.94064123
       3696.9135      0.95118285
       3697.6592      0.88252711
       3698.4049      0.85451333
       3699.1505      0.88210344
       3699.8962      0.76290182
       3700.6419      0.73867836
       3701.3875      0.61093656
       3702.1332      0.69605837
       3702.8789      0.80263478
       3703.6245      0.83288790
       3704.3702      0.88343269
       3705.1159      0.89999122
       3705.8616      0.87957218
       3706.6072      0.78693861
       3707.3529      0.85220032
       3708.0986      0.71195456
       3708.8442      0.74624929
       3709.5899      0.86872608
       3710.3356      0.76737734
       3711.0812      0.79623783
       3711.8269      0.76654059
       3712.5726      0.86928358
       3713.3182      0.87671134
       3714.0639      0.80721447
       3714.8096      0.92040859
       3715.5552      0.90844372
       3716.3009      0.83835394
       3717.0466      0.91154174
       3717.7922      0.88219534
       3718.5379      0.88760263
       3719.2836      0.98748498
       3720.0292       1.0497453
       3720.7749       1.0001697
       3721.5206       1.2346882
       3722.2662       1.4522557
       3723.0119       2.1730100
       3723.7576       2.8641837
       3724.5033       3.7483039
       3725.2489       4.6966523
       3725.9946       5.4447515
       3726.7403       6.1405560
       3727.4859       6.4503597
       3728.2316       6.2215050
       3728.9773       5.9510093
       3729.7229       5.0384400
       3730.4686       4.0384510
       3731.2143       3.2996854
       3731.9599       2.4199742
       3732.7056       1.7081948
       3733.4513       1.2945710
       3734.1969      0.98660438
       3734.9426      0.88300720
       3735.6883      0.83940099
       3736.4339      0.67622023
       3737.1796      0.90478620
       3737.9253      0.92971031
       3738.6709      0.91949761
       3739.4166      0.98472936
       3740.1623      0.90328809
       3740.9080      0.83404630
       3741.6536      0.85637459
       3742.3993      0.95630806
       3743.1450      0.87545379
       3743.8906      0.99769790
       3744.6363       1.0456726
       3745.3820       1.0656190
       3746.1276      0.91392065
       3746.8733      0.85783180
       3747.6190      0.78846207
       3748.3646      0.75164505
       3749.1103      0.85827878
       3749.8560      0.81849878
       3750.6016      0.73789933
       3751.3473      0.80075589
       3752.0930      0.82873511
       3752.8386      0.76071861
       3753.5843       1.0199253
       3754.3300       1.0475677
       3755.0756      0.95306934
       3755.8213       1.0792185
       3756.5670       1.0291256
       3757.3126       1.0528936
       3758.0583       1.0883972
       3758.8040       1.1282524
       3759.5497      0.95025493
       3760.2953       1.0091696
       3761.0410       1.0895906
       3761.7867       1.0393449
       3762.5323       1.0551124
       3763.2780       1.0328521
       3764.0237      0.98771697
       3764.7693       1.0739359
       3765.5150       1.1460506
       3766.2607      0.99720326
       3767.0063      0.90247094
       3767.7520      0.80492232
       3768.4977      0.84599664
       3769.2433       1.0820180
       3769.9890       1.0286974
       3770.7347      0.86634120
       3771.4803      0.93438770
       3772.2260      0.94784946
       3772.9717      0.77617701
       3773.7173      0.81328964
       3774.4630      0.92949898
       3775.2087      0.89333138
       3775.9544      0.89664714
       3776.7000      0.85742700
       3777.4457      0.94081372
       3778.1914       1.0999908
       3778.9370       1.0129932
       3779.6827       1.1104702
       3780.4284       1.2047940
       3781.1740       1.2793038
       3781.9197       1.3033224
       3782.6654       1.3013950
       3783.4110       1.3815781
       3784.1567       1.2926897
       3784.9024       1.2781980
       3785.6480       1.3322296
       3786.3937       1.2858820
       3787.1394       1.3110156
       3787.8850       1.3357510
       3788.6307       1.2370702
       3789.3764       1.1195982
       3790.1220       1.1528314
       3790.8677       1.2506651
       3791.6134       1.0354281
       3792.3590       1.0481363
       3793.1047      0.98363290
       3793.8504       1.0386447
       3794.5961       1.0614290
       3795.3417      0.90759749
       3796.0874      0.89281283
       3796.8331       1.0919485
       3797.5787      0.98650923
       3798.3244       1.0227578
       3799.0701       1.0188319
       3799.8157      0.84155574
       3800.5614      0.84225446
       3801.3071      0.96650188
       3802.0527      0.91051661
       3802.7984       1.0006319
       3803.5441       1.0647219
       3804.2897       1.0392480
       3805.0354       1.0306685
       3805.7811       1.0437483
       3806.5267       1.0411391
       3807.2724       1.1277096
       3808.0181       1.1788956
       3808.7637       1.1700108
       3809.5094       1.2990868
       3810.2551       1.3691773
       3811.0008       1.1575350
       3811.7464       1.2497615
       3812.4921       1.1512813
       3813.2378       1.2182142
       3813.9834       1.3306325
       3814.7291       1.2665033
       3815.4748       1.3403869
       3816.2204       1.0955088
       3816.9661       1.2278222
       3817.7118       1.2994312
       3818.4574       1.0739860
       3819.2031       1.1408529
       3819.9488       1.2568161
       3820.6944       1.2598176
       3821.4401       1.1779286
       3822.1858       1.2109932
       3822.9314       1.1744514
       3823.6771       1.1191588
       3824.4228       1.2009696
       3825.1684       1.1839545
       3825.9141       1.2639013
       3826.6598       1.2665113
       3827.4054       1.3743009
       3828.1511       1.2498004
       3828.8968       1.2097901
       3829.6425       1.0524576
       3830.3881      0.99522357
       3831.1338       1.1126002
       3831.8795       1.2472496
       3832.6251       1.2267579
       3833.3708       1.0457044
       3834.1165       1.0987193
       3834.8621       1.0992361
       3835.6078       1.1352736
       3836.3535       1.1183710
       3837.0991       1.0240660
       3837.8448      0.89510202
       3838.5905       1.1649720
       3839.3361      0.97494502
       3840.0818      0.97335037
       3840.8275      0.97017472
       3841.5731       1.1186146
       3842.3188       1.1144131
       3843.0645       1.1004382
       3843.8101       1.1053115
       3844.5558       1.0532627
       3845.3015       1.0286992
       3846.0472       1.1437125
       3846.7928       1.1909921
       3847.5385       1.2821619
       3848.2842       1.1798499
       3849.0298       1.4686718
       3849.7755       1.3691922
       3850.5212       1.3447729
       3851.2668       1.3835088
       3852.0125       1.4976403
       3852.7582       1.4950400
       3853.5038       1.3823668
       3854.2495       1.3606151
       3854.9952       1.4648185
       3855.7408       1.4248040
       3856.4865       1.4400244
       3857.2322       1.4607643
       3857.9778       1.2781096
       3858.7235       1.4096719
       3859.4692       1.1821524
       3860.2148       1.2997536
       3860.9605       1.3846733
       3861.7062       1.2977208
       3862.4518       1.3579175
       3863.1975       1.5517889
       3863.9432       1.4549825
       3864.6889       1.2593124
       3865.4345       1.4725043
       3866.1802       1.4321584
       3866.9259       1.5450831
       3867.6715       1.4912412
       3868.4172       1.4536747
       3869.1629       1.5053020
       3869.9085       1.5115894
       3870.6542       1.5150735
       3871.3999       1.5509240
       3872.1455       1.5530034
       3872.8912       1.4942241
       3873.6369       1.5233818
       3874.3825       1.4783601
       3875.1282       1.3346120
       3875.8739       1.3316816
       3876.6195       1.2926937
       3877.3652       1.4389667
       3878.1109       1.1036420
       3878.8565       1.1332668
       3879.6022       1.1947952
       3880.3479       1.0853010
       3881.0935       1.3804539
       3881.8392       1.4185230
       3882.5849       1.1856618
       3883.3306       1.1305246
       3884.0762       1.1528087
       3884.8219       1.1386273
       3885.5676       1.1594420
       3886.3132       1.3076370
       3887.0589       1.2165768
       3887.8046       1.2920527
       3888.5502       1.3523113
       3889.2959       1.2805218
       3890.0416       1.4680251
       3890.7872       1.6183680
       3891.5329       1.6624799
       3892.2786       1.5279045
       3893.0242       1.3460643
       3893.7699       1.2662703
       3894.5156      0.98438788
       3895.2612      0.92499069
       3896.0069       1.1024698
       3896.7526      0.96317204
       3897.4982       1.1376779
       3898.2439       1.1871480
       3898.9896       1.1454491
       3899.7353       1.1953587
       3900.4809       1.2308928
       3901.2266       1.1605976
       3901.9723       1.2950466
       3902.7179       1.1741763
       3903.4636       1.1957135
       3904.2093       1.3399844
       3904.9549       1.2929483
       3905.7006       1.2268703
       3906.4463       1.2210969
       3907.1919       1.3118894
       3907.9376       1.3219364
       3908.6833       1.2809058
       3909.4289       1.3209297
       3910.1746       1.3934003
       3910.9203       1.1895316
       3911.6659       1.3124240
       3912.4116       1.3474424
       3913.1573       1.3902560
       3913.9029       1.3804673
       3914.6486       1.4514655
       3915.3943       1.1904596
       3916.1399      0.87050179
       3916.8856      0.12643909
       3917.6313      0.81282943
       3918.3770       1.4984456
       3919.1226      0.97574495
       3919.8683      0.65768676
       3920.6140       1.0311829
       3921.3596       1.3666944
       3922.1053       1.4276484
       3922.8510       1.4670250
       3923.5966       1.2382985
       3924.3423       1.0972063
       3925.0880       1.2722715
       3925.8336       1.2809726
       3926.5793       1.2701103
       3927.3250       1.3897909
       3928.0706       1.3274622
       3928.8163       1.2826648
       3929.5620       1.2941116
       3930.3076       1.2735466
       3931.0533       1.2271087
       3931.7990       1.2362743
       3932.5446       1.3059370
       3933.2903       1.2894737
       3934.0360       1.2476242
       3934.7817       1.1313061
       3935.5273       1.2568010
       3936.2730       1.0751791
       3937.0187       1.0992771
       3937.7643       1.0738319
       3938.5100       1.0566373
       3939.2557      0.99313828
       3940.0013       1.0259353
       3940.7470       1.2029554
       3941.4927       1.2758048
       3942.2383       1.2572779
       3942.9840       1.4281510
       3943.7297       1.3740133
       3944.4753       1.4015859
       3945.2210       1.3571492
       3945.9667       1.3105379
       3946.7123       1.4004410
       3947.4580       1.3870295
       3948.2037       1.4092126
       3948.9493       1.4389775
       3949.6950       1.5034314
       3950.4407       1.2826691
       3951.1863       1.1997395
       3951.9320       1.2257827
       3952.6777       1.4308790
       3953.4234       1.3801039
       3954.1690       1.3052863
       3954.9147       1.5747849
       3955.6604       1.4488069
       3956.4060       1.2259337
       3957.1517       1.2559418
       3957.8974       1.0903926
       3958.6430       1.1999651
       3959.3887       1.2806458
       3960.1344       1.1176183
       3960.8800       1.5185686
       3961.6257       1.6930985
       3962.3714       1.4073038
       3963.1170       1.2819103
       3963.8627       1.1991432
       3964.6084       1.2457282
       3965.3540       1.2821819
       3966.0997       1.0832229
       3966.8454       1.1726048
       3967.5910       1.1285719
       3968.3367       1.1969909
       3969.0824       1.1727935
       3969.8281      0.89220922
       3970.5737       1.1315104
       3971.3194       1.3015933
       3972.0651       1.2352297
       3972.8107       1.4070477
       3973.5564       1.3041906
       3974.3021       1.2860211
       3975.0477       1.2851809
       3975.7934       1.2238541
       3976.5391       1.3287746
       3977.2847       1.2978297
       3978.0304       1.1277954
       3978.7761       1.0923069
       3979.5217       1.1296979
       3980.2674       1.2291059
       3981.0131       1.2464879
       3981.7587       1.2795127
       3982.5044       1.2156127
       3983.2501       1.1802840
       3983.9957       1.2102716
       3984.7414       1.3131594
       3985.4871       1.3617856
       3986.2327       1.4319668
       3986.9784       1.5128713
       3987.7241       1.4127325
       3988.4698       1.2775229
       3989.2154       1.3206722
       3989.9611       1.3220805
       3990.7068       1.2774536
       3991.4524       1.3183071
       3992.1981       1.3794175
       3992.9438       1.4479512
       3993.6894       1.4327084
       3994.4351       1.4043762
       3995.1808       1.3733865
       3995.9264       1.3856273
       3996.6721       1.4439134
       3997.4178       1.4712694
       3998.1634       1.4123915
       3998.9091       1.2606355
       3999.6548       1.2254682
       4000.4004       1.4541803
       4001.1461       1.4630170
       4001.8918       1.3731397
       4002.6374       1.3943796
       4003.3831       1.3170414
       4004.1288       1.5002850
       4004.8745       1.4909834
       4005.6201       1.3326152
       4006.3658       1.4058924
       4007.1115       1.4313794
       4007.8571       1.3080570
       4008.6028       1.4480161
       4009.3485       1.4614105
       4010.0941       1.2880236
       4010.8398       1.3683002
       4011.5855       1.2666253
       4012.3311       1.2154090
       4013.0768       1.2693373
       4013.8225       1.4750660
       4014.5681       1.4336510
       4015.3138       1.3054814
       4016.0595       1.2159624
       4016.8051       1.3419460
       4017.5508       1.3152959
       4018.2965       1.2800659
       4019.0421       1.3882009
       4019.7878       1.5042347
       4020.5335       1.6264110
       4021.2791       1.4898008
       4022.0248       1.3866189
       4022.7705       1.3382942
       4023.5162       1.3475360
       4024.2618       1.3857414
       4025.0075       1.4244825
       4025.7532       1.3317251
       4026.4988       1.4612215
       4027.2445       1.1649542
       4027.9902       1.1637357
       4028.7358       1.4146072
       4029.4815       1.2965090
       4030.2272       1.2623455
       4030.9728       1.3275606
       4031.7185       1.2626066
       4032.4642       1.2116543
       4033.2098       1.3385306
       4033.9555       1.2389256
       4034.7012       1.3286601
       4035.4468       1.5054110
       4036.1925       1.3757302
       4036.9382       1.3244014
       4037.6838       1.2346307
       4038.4295       1.2399260
       4039.1752       1.3790210
       4039.9209       1.4115476
       4040.6665       1.4597232
       4041.4122       1.5341247
       4042.1579       1.2710645
       4042.9035       1.2603458
       4043.6492       1.4308061
       4044.3949       1.2486797
       4045.1405       1.3473156
       4045.8862       1.8061919
       4046.6319       1.6047308
       4047.3775       1.5490310
       4048.1232       1.3163114
       4048.8689       1.0258257
       4049.6145       1.1340923
       4050.3602       1.3568243
       4051.1059       1.3923081
       4051.8515       1.3536458
       4052.5972       1.4123979
       4053.3429       1.2909549
       4054.0885       1.4311912
       4054.8342       1.5461795
       4055.5799       1.6079397
       4056.3255       1.5529868
       4057.0712       1.3915340
       4057.8169       1.4353932
       4058.5626       1.3815348
       4059.3082       1.2594862
       4060.0539       1.4094962
       4060.7996       1.5084406
       4061.5452       1.3780419
       4062.2909       1.4490764
       4063.0366       1.3915276
       4063.7822       1.4025974
       4064.5279       1.3041463
       4065.2736       1.4118195
       4066.0192       1.3655710
       4066.7649       1.4022423
       4067.5106       1.3680211
       4068.2562       1.3243442
       4069.0019       1.4259524
       4069.7476       1.4490297
       4070.4932       1.5027037
       4071.2389       1.4544573
       4071.9846       1.3987919
       4072.7302       1.4395355
       4073.4759       1.4572493
       4074.2216       1.4106653
       4074.9673       1.2607770
       4075.7129       1.3774013
       4076.4586       1.3605016
       4077.2043       1.3829782
       4077.9499       1.3360867
       4078.6956       1.3201474
       4079.4413       1.3033383
       4080.1869       1.3289671
       4080.9326       1.4135377
       4081.6783       1.1959546
       4082.4239       1.3009691
       4083.1696       1.3396951
       4083.9153       1.2434326
       4084.6609       1.3877003
       4085.4066       1.3481229
       4086.1523       1.2149092
       4086.8979       1.2935197
       4087.6436       1.2778921
       4088.3893       1.3206942
       4089.1349       1.3229991
       4089.8806       1.2586372
       4090.6263       1.1298095
       4091.3719       1.1885735
       4092.1176       1.1552029
       4092.8633       1.2216886
       4093.6090       1.3776687
       4094.3546       1.2314194
       4095.1003       1.1589397
       4095.8460       1.2479470
       4096.5916       1.2864522
       4097.3373       1.2133852
       4098.0830       1.3035508
       4098.8286       1.1941581
       4099.5743       1.1118434
       4100.3200       1.0716430
       4101.0656       1.0388445
       4101.8113       1.2387885
       4102.5570       1.1717992
       4103.3026       1.0705007
       4104.0483       1.1578991
       4104.7940       1.5472048
       4105.5396       1.6020867
       4106.2853       1.6859821
       4107.0310       1.6756353
       4107.7766       1.6366671
       4108.5223       1.6689380
       4109.2680       1.4275426
       4110.0136       1.2249284
       4110.7593       1.1799927
       4111.5050       1.2745402
       4112.2507       1.2114153
       4112.9963       1.1692725
       4113.7420       1.1255492
       4114.4877       1.1308126
       4115.2333       1.1207996
       4115.9790       1.2011571
       4116.7247       1.2026665
       4117.4703       1.2633507
       4118.2160       1.3254231
       4118.9617       1.2963930
       4119.7073       1.2258017
       4120.4530       1.1852715
       4121.1987       1.1668799
       4121.9443       1.3905896
       4122.6900       1.2886633
       4123.4357       1.3603935
       4124.1813       1.2861297
       4124.9270       1.2287982
       4125.6727       1.3371028
       4126.4183       1.3937446
       4127.1640       1.3170500
       4127.9097       1.3163360
       4128.6554       1.2975548
       4129.4010       1.3855954
       4130.1467       1.3386816
       4130.8924       1.3602628
       4131.6380       1.2769413
       4132.3837       1.2763374
       4133.1294       1.2105502
       4133.8750       1.2991548
       4134.6207       1.3513882
       4135.3664       1.1569714
       4136.1120       1.1548953
       4136.8577       1.3343627
       4137.6034       1.1688382
       4138.3490       1.1658559
       4139.0947       1.3191289
       4139.8404       1.3417353
       4140.5860       1.3559060
       4141.3317       1.2945343
       4142.0774       1.2775118
       4142.8230       1.3828040
       4143.5687       1.4877127
       4144.3144       1.3768554
       4145.0600       1.4049904
       4145.8057       1.3471466
       4146.5514       1.3422700
       4147.2971       1.3368406
       4148.0427       1.2545525
       4148.7884       1.2118412
       4149.5341       1.2521991
       4150.2797       1.2575523
       4151.0254       1.2165218
       4151.7711       1.1998401
       4152.5167       1.3218699
       4153.2624       1.2723353
       4154.0081       1.3430324
       4154.7537       1.2982015
       4155.4994       1.1920674
       4156.2451       1.2267209
       4156.9907       1.3053231
       4157.7364       1.3610467
       4158.4821       1.2980009
       4159.2277       1.2756519
       4159.9734       1.4634165
       4160.7191       1.3836581
       4161.4647       1.3199429
       4162.2104       1.4085991
       4162.9561       1.5101820
       4163.7018       1.4745459
       4164.4474       1.3446799
       4165.1931       1.4056328
       4165.9388       1.3347779
       4166.6844       1.2871587
       4167.4301       1.2197574
       4168.1758       1.2910875
       4168.9214       1.3896687
       4169.6671       1.4593980
       4170.4128       1.3771986
       4171.1584       1.2576780
       4171.9041       1.3060753
       4172.6498       1.2070232
       4173.3954       1.2345586
       4174.1411       1.2084849
       4174.8868       1.3098206
       4175.6324       1.3235766
       4176.3781       1.2635682
       4177.1238       1.2110844
       4177.8694       1.1881086
       4178.6151       1.2297210
       4179.3608       1.2270730
       4180.1064       1.2591358
       4180.8521       1.2322699
       4181.5978       1.1960561
       4182.3435       1.3051403
       4183.0891       1.2843414
       4183.8348       1.3553131
       4184.5805       1.3970710
       4185.3261       1.2369524
       4186.0718       1.2201561
       4186.8175       1.2062453
       4187.5631       1.2336578
       4188.3088       1.3859241
       4189.0545       1.3630985
       4189.8001       1.3337698
       4190.5458       1.4442507
       4191.2915       1.4300190
       4192.0371       1.3201252
       4192.7828       1.3674887
       4193.5285       1.3864454
       4194.2741       1.3806629
       4195.0198       1.3951733
       4195.7655       1.3238867
       4196.5111       1.4007288
       4197.2568       1.3206146
       4198.0025       1.3981893
       4198.7482       1.3191376
       4199.4938       1.4377687
       4200.2395       1.5108777
       4200.9852       1.4426378
       4201.7308       1.2758773
       4202.4765       1.3040990
       4203.2222       1.3503258
       4203.9678       1.3032137
       4204.7135       1.3437346
       4205.4592       1.3867480
       4206.2048       1.2916498
       4206.9505       1.2528835
       4207.6962       1.3102015
       4208.4418       1.3010744
       4209.1875       1.2998394
       4209.9332       1.2472851
       4210.6788       1.2549209
       4211.4245       1.3509162
       4212.1702       1.2852054
       4212.9158       1.3638961
       4213.6615       1.3689586
       4214.4072       1.3994121
       4215.1528       1.3720015
       4215.8985       1.4324714
       4216.6442       1.3163628
       4217.3899       1.4109793
       4218.1355       1.4488088
       4218.8812       1.3328665
       4219.6269       1.4275024
       4220.3725       1.5046199
       4221.1182       1.3698667
       4221.8639       1.4349581
       4222.6095       1.3345870
       4223.3552       1.3537367
       4224.1009       1.3906861
       4224.8465       1.4253538
       4225.5922       1.5016283
       4226.3379       1.3813132
       4227.0835       1.3458574
       4227.8292       1.4904209
       4228.5749       1.4310634
       4229.3205       1.3613426
       4230.0662       1.2760717
       4230.8119       1.3136020
       4231.5575       1.3470983
       4232.3032       1.3633851
       4233.0489       1.3245405
       4233.7946       1.2059956
       4234.5402       1.2072130
       4235.2859       1.3305672
       4236.0316       1.3645296
       4236.7772       1.4482395
       4237.5229       1.4379805
       4238.2686       1.3461472
       4239.0142       1.4253422
       4239.7599       1.3323657
       4240.5056       1.3024616
       4241.2512       1.4216882
       4241.9969       1.2826650
       4242.7426       1.3336605
       4243.4882       1.3118069
       4244.2339       1.3244816
       4244.9796       1.2282533
       4245.7252       1.1891391
       4246.4709       1.3285365
       4247.2166       1.3385416
       4247.9622       1.3458746
       4248.7079       1.3870395
       4249.4536       1.4535711
       4250.1992       1.3135798
       4250.9449       1.1824718
       4251.6906       1.2107119
       4252.4363       1.4107217
       4253.1819       1.4718773
       4253.9276       1.3526148
       4254.6733       1.2590942
       4255.4189       1.5195326
       4256.1646       1.4135360
       4256.9103       1.3663852
       4257.6559       1.2969911
       4258.4016       1.3412034
       4259.1473       1.3268403
       4259.8929       1.2735067
       4260.6386       1.2802029
       4261.3843       1.2718683
       4262.1299       1.3963056
       4262.8756       1.3581203
       4263.6213       1.4084731
       4264.3669       1.3330369
       4265.1126       1.3411237
       4265.8583       1.3846855
       4266.6039       1.3931029
       4267.3496       1.3863629
       4268.0953       1.3688753
       4268.8410       1.3781199
       4269.5866       1.2433249
       4270.3323       1.2478539
       4271.0780       1.3338419
       4271.8236       1.3851973
       4272.5693       1.3432029
       4273.3150       1.3999730
       4274.0606       1.3483916
       4274.8063       1.2288266
       4275.5520       1.2548186
       4276.2976       1.1559106
       4277.0433       1.0554108
       4277.7890      0.95184530
       4278.5346      0.98545030
       4279.2803      0.99235011
       4280.0260       1.1696400
       4280.7716       1.1693610
       4281.5173       1.1066580
       4282.2630       1.2073033
       4283.0086       1.3248077
       4283.7543       1.3393394
       4284.5000       1.3698595
       4285.2456       1.3453523
       4285.9913       1.1689959
       4286.7370       1.2875686
       4287.4827       1.1413867
       4288.2283       1.1970529
       4288.9740       1.2351772
       4289.7197       1.0851568
       4290.4653       1.1039675
       4291.2110       1.1637339
       4291.9567       1.2851010
       4292.7023       1.1845487
       4293.4480       1.1903878
       4294.1937       1.2375509
       4294.9393       1.2829066
       4295.6850       1.2717915
       4296.4307       1.2690319
       4297.1763       1.2930425
       4297.9220       1.3090350
       4298.6677       1.2363917
       4299.4133       1.2406325
       4300.1590       1.2081678
       4300.9047       1.3020000
       4301.6503       1.2664183
       4302.3960       1.2419244
       4303.1417       1.3115569
       4303.8874       1.3350538
       4304.6330       1.3122350
       4305.3787       1.1678512
       4306.1244       1.1580274
       4306.8700       1.0483879
       4307.6157       1.2054363
       4308.3614       1.3768930
       4309.1070       1.1691911
       4309.8527       1.1476460
       4310.5984       1.1781297
       4311.3440       1.3653164
       4312.0897       1.1708120
       4312.8354       1.2535702
       4313.5810       1.1752212
       4314.3267       1.2572572
       4315.0724       1.2735909
       4315.8180       1.2054818
       4316.5637       1.2850960
       4317.3094       1.3606853
       4318.0550       1.3195954
       4318.8007       1.3684063
       4319.5464       1.3514019
       4320.2920       1.2369425
       4321.0377       1.1138726
       4321.7834       1.0514075
       4322.5291       1.1453461
       4323.2747       1.1487207
       4324.0204       1.1290258
       4324.7661       1.1684362
       4325.5117       1.2478279
       4326.2574       1.0860332
       4327.0031       1.1120665
       4327.7487       1.0620333
       4328.4944       1.2056311
       4329.2401       1.2911207
       4329.9857       1.3278127
       4330.7314       1.2352328
       4331.4771       1.1761843
       4332.2227       1.3513559
       4332.9684       1.3005125
       4333.7141       1.1984851
       4334.4597       1.1102867
       4335.2054       1.2016431
       4335.9511       1.3269300
       4336.6967       1.2576974
       4337.4424       1.1556070
       4338.1881       1.1960549
       4338.9337       1.1095335
       4339.6794      0.98715034
       4340.4251      0.91573129
       4341.1708       1.0792446
       4341.9164       1.1387286
       4342.6621       1.2143844
       4343.4078       1.3917928
       4344.1534       1.6652553
       4344.8991       2.0512432
       4345.6448       2.5126435
       4346.3904       2.6757671
       4347.1361       2.3676294
       4347.8818       2.3276559
       4348.6274       2.1526212
       4349.3731       2.0593193
       4350.1188       1.8077480
       4350.8644       1.3880808
       4351.6101       1.2182320
       4352.3558       1.1880334
       4353.1014       1.2079593
       4353.8471       1.0578543
       4354.5928       1.0184792
       4355.3384       1.1757508
       4356.0841       1.2789884
       4356.8298       1.3447638
       4357.5755       1.2167184
       4358.3211       1.0770576
       4359.0668       1.1577090
       4359.8125       1.3037005
       4360.5581       1.3182702
       4361.3038       1.1833237
       4362.0495       1.2955660
       4362.7951       1.2019759
       4363.5408       1.3689852
       4364.2865       1.4035027
       4365.0321       1.3961328
       4365.7778       1.3653501
       4366.5235       1.4138840
       4367.2691       1.4529981
       4368.0148       1.4386532
       4368.7605       1.5060138
       4369.5061       1.3286585
       4370.2518       1.3193980
       4370.9975       1.2127494
       4371.7431       1.3906873
       4372.4888       1.4462014
       4373.2345       1.3060616
       4373.9801       1.2371823
       4374.7258       1.3637991
       4375.4715       1.2668795
       4376.2172       1.3532545
       4376.9628       1.3833636
       4377.7085       1.2458551
       4378.4542       1.3883255
       4379.1998       1.4378471
       4379.9455       1.4420839
       4380.6912       1.3867365
       4381.4368       1.3042077
       4382.1825       1.3406892
       4382.9282       1.2282280
       4383.6738       1.1910233
       4384.4195       1.3160836
       4385.1652       1.4079845
       4385.9108       1.3989883
       4386.6565       1.2917892
       4387.4022       1.3923966
       4388.1478       1.3909448
       4388.8935       1.2569528
       4389.6392       1.2535125
       4390.3848       1.3536395
       4391.1305       1.3876657
       4391.8762       1.2981677
       4392.6219       1.1732152
       4393.3675       1.3511360
       4394.1132       1.2830782
       4394.8589       1.3271505
       4395.6045       1.3011591
       4396.3502       1.2818904
       4397.0959       1.4248321
       4397.8415       1.2221905
       4398.5872       1.3716772
       4399.3329       1.3978088
       4400.0785       1.3907105
       4400.8242       1.4328172
       4401.5699       1.4165409
       4402.3155       1.3941767
       4403.0612       1.3365136
       4403.8069       1.3485178
       4404.5525       1.2749688
       4405.2982       1.3902946
       4406.0439       1.4056661
       4406.7895       1.2526885
       4407.5352       1.2700438
       4408.2809       1.3141241
       4409.0265       1.3242919
       4409.7722       1.1863809
       4410.5179       1.1689775
       4411.2636       1.2946722
       4412.0092       1.3584756
       4412.7549       1.4392572
       4413.5006       1.4009298
       4414.2462       1.3672839
       4414.9919       1.3217642
       4415.7376       1.4670233
       4416.4832       1.4189283
       4417.2289       1.2678794
       4417.9746       1.3639692
       4418.7202       1.3848880
       4419.4659       1.4020874
       4420.2116       1.3360776
       4420.9572       1.4337012
       4421.7029       1.4712299
       4422.4486       1.4679452
       4423.1942       1.4260474
       4423.9399       1.2650184
       4424.6856       1.3787035
       4425.4312       1.3784323
       4426.1769       1.3369865
       4426.9226       1.3710468
       4427.6683       1.3744006
       4428.4139       1.4291376
       4429.1596       1.4383063
       4429.9053       1.3425214
       4430.6509       1.3588121
       4431.3966       1.4131774
       4432.1423       1.3832766
       4432.8879       1.4676999
       4433.6336       1.3699740
       4434.3793       1.3428936
       4435.1249       1.3811821
       4435.8706       1.4926326
       4436.6163       1.3525925
       4437.3619       1.4374895
       4438.1076       1.2704097
       4438.8533       1.3706250
       4439.5989       1.4062565
       4440.3446       1.4034128
       4441.0903       1.3205367
       4441.8359       1.1457588
       4442.5816       1.2557227
       4443.3273       1.3392716
       4444.0729       1.4024905
       4444.8186       1.5017221
       4445.5643       1.3640297
       4446.3100       1.3480478
       4447.0556       1.3470336
       4447.8013       1.3807702
       4448.5470       1.3666156
       4449.2926       1.4070024
       4450.0383       1.3616848
       4450.7840       1.4309276
       4451.5296       1.3808637
       4452.2753       1.3486392
       4453.0210       1.4462696
       4453.7666       1.4443792
       4454.5123       1.4764534
       4455.2580       1.4853086
       4456.0036       1.3962149
       4456.7493       1.4212428
       4457.4950       1.4240737
       4458.2406       1.3649067
       4458.9863       1.3597836
       4459.7320       1.4236302
       4460.4776       1.2902589
       4461.2233       1.3193541
       4461.9690       1.3629718
       4462.7147       1.3947899
       4463.4603       1.4178179
       4464.2060       1.3217372
       4464.9517       1.4148780
       4465.6973       1.4054480
       4466.4430       1.2513775
       4467.1887       1.3452856
       4467.9343       1.2795286
       4468.6800       1.2686944
       4469.4257       1.3602191
       4470.1713       1.2357815
       4470.9170       1.4067080
       4471.6627       1.3139254
       4472.4083       1.2809451
       4473.1540       1.1843469
       4473.8997       1.2126081
       4474.6453       1.0959147
       4475.3910       1.2517851
       4476.1367       1.4909102
       4476.8823       1.3943866
       4477.6280       1.3898185
       4478.3737       1.4480288
       4479.1193       1.5203900
       4479.8650       1.3933032
       4480.6107       1.4381671
       4481.3564       1.4032534
       4482.1020       1.2566483
       4482.8477       1.4167432
       4483.5934       1.4483611
       4484.3390       1.4435798
       4485.0847       1.3561189
       4485.8304       1.3349834
       4486.5760       1.3702264
       4487.3217       1.4116862
       4488.0674       1.3710038
       4488.8130       1.3904044
       4489.5587       1.3966682
       4490.3044       1.3441149
       4491.0500       1.5054741
       4491.7957       1.3838021
       4492.5414       1.4163560
       4493.2870       1.3847517
       4494.0327       1.3927949
       4494.7784       1.3976026
       4495.5240       1.4666811
       4496.2697       1.4567341
       4497.0154       1.4416193
       4497.7611       1.4595775
       4498.5067       1.3969225
       4499.2524       1.4403349
       4499.9981       1.3319986
       4500.7437       1.3694597
       4501.4894       1.3360888
       4502.2351       1.4780967
       4502.9807       1.4922205
       4503.7264       1.3340872
       4504.4721       1.2573021
       4505.2177       1.3568084
       4505.9634       1.3908537
       4506.7091       1.0874546
       4507.4547       1.1932140
       4508.2004       1.3482441
       4508.9461       1.4749906
       4509.6917       1.6041852
       4510.4374       1.3362094
       4511.1831       1.4626996
       4511.9287       1.3903812
       4512.6744       1.6628571
       4513.4201       1.4896877
       4514.1657       1.4021023
       4514.9114       1.6759141
       4515.6571       1.3999431
       4516.4028       1.4463391
       4517.1484       1.4815267
       4517.8941       1.3231433
       4518.6398       1.2278748
       4519.3854       1.4237095
       4520.1311       1.3823558
       4520.8768       1.4238879
       4521.6224       1.3528534
       4522.3681       1.3928585
       4523.1138       1.5647523
       4523.8594       1.5263501
       4524.6051       1.4290655
       4525.3508       1.3854041
       4526.0964       1.1369732
       4526.8421      0.67064289
       4527.5878      0.77856208
       4528.3334      0.83030213
       4529.0791       1.3105814
       4529.8248       1.2561823
       4530.5704      0.90212507
       4531.3161      0.84844547
       4532.0618       1.3339869
       4532.8075       1.0590563
       4533.5531       1.0685948
       4534.2988       1.3900182
       4535.0445       1.5333115
       4535.7901       1.4559813
       4536.5358       1.1937942
       4537.2815       1.1132332
       4538.0271       1.3734537
       4538.7728       1.1053804
       4539.5185       1.2998603
       4540.2641       1.3063778
       4541.0098       1.2933914
       4541.7555       1.1917885
       4542.5011       1.4900933
       4543.2468       1.6425352
       4543.9925       1.6275226
       4544.7381       1.6915666
       4545.4838       1.5287701
       4546.2295       1.5106355
       4546.9751       1.5380156
       4547.7208       1.5073801
       4548.4665       1.2056379
       4549.2121       1.2588937
       4549.9578       1.3039791
       4550.7035       1.4172163
       4551.4492       1.4300480
       4552.1948       1.4023076
       4552.9405       1.4948455
       4553.6862       1.3148864
       4554.4318       1.2142592
       4555.1775       1.0943878
       4555.9232       1.2113362
       4556.6688       1.3217275
       4557.4145       1.4117540
       4558.1602       1.3320412
       4558.9058       1.4540268
       4559.6515       1.3291557
       4560.3972       1.3302684
       4561.1428       1.4525574
       4561.8885       1.3849856
       4562.6342       1.1269699
       4563.3798       1.4739364
       4564.1255       1.5707551
       4564.8712       1.0349254
       4565.6168       1.1904796
       4566.3625       1.6087231
       4567.1082       1.5878907
       4567.8538       1.6494113
       4568.5995       1.7443568
       4569.3452       1.4612433
       4570.0909       1.2423879
       4570.8365      0.23509080
       4571.5822     -0.32448501
       4572.3279      0.23353538
       4573.0735       1.0248785
       4573.8192       1.4307308
       4574.5649       1.3896612
       4575.3105       1.4163578
       4576.0562       1.3808834
       4576.8019       1.4343295
       4577.5475       1.4219331
       4578.2932       1.5094009
       4579.0389       1.3346340
       4579.7845       1.6250481
       4580.5302       1.4227779
       4581.2759       1.3423490
       4582.0215       1.3388212
       4582.7672       1.6093736
       4583.5129       1.3052262
       4584.2585       1.3663245
       4585.0042       1.2338391
       4585.7499       1.3764325
       4586.4956       1.2856157
       4587.2412       1.2204196
       4587.9869       1.4726463
       4588.7326       1.3936017
       4589.4782       1.2744973
       4590.2239       1.3706405
       4590.9696       1.4111531
       4591.7152       1.4261263
       4592.4609       1.3095864
       4593.2066       1.4641280
       4593.9522       1.3788402
       4594.6979       1.4871212
       4595.4436       1.4627471
       4596.1892       1.5723800
       4596.9349       1.4368085
       4597.6806       1.3930394
       4598.4262       1.5278689
       4599.1719       1.3611948
       4599.9176       1.6748028
       4600.6632       1.4654543
       4601.4089       1.3893952
       4602.1546       1.5002995
       4602.9002       1.2277016
       4603.6459       1.4700042
       4604.3916       1.3681176
       4605.1373       1.6217133
       4605.8829       1.2841591
       4606.6286       1.4347577
       4607.3743       1.5866353
       4608.1199       1.2694684
       4608.8656       1.3624574
       4609.6113       1.4766460
       4610.3569       1.6646008
       4611.1026       1.7559803
       4611.8483       1.6733183
       4612.5939       1.4964462
       4613.3396       1.5404241
       4614.0853       1.4570768
       4614.8309       1.6253966
       4615.5766       1.5574822
       4616.3223       1.4613889
       4617.0679       1.5646105
       4617.8136       1.6574147
       4618.5593       1.5903747
       4619.3049       1.6551788
       4620.0506       1.5130980
       4620.7963       1.4751873
       4621.5420       1.5658946
       4622.2876       1.5942653
       4623.0333       1.6374731
       4623.7790       1.4719948
       4624.5246       1.5423796
       4625.2703       1.4980046
       4626.0160       1.3978890
       4626.7616       1.6148180
       4627.5073       1.5027358
       4628.2530       1.4882901
       4628.9986       1.5648516
       4629.7443       1.4427785
       4630.4900       1.5624132
       4631.2356       1.3372214
       4631.9813       1.3481265
       4632.7270       1.4946649
       4633.4726       1.6019701
       4634.2183       1.6113016
       4634.9640       1.5243668
       4635.7096       1.6619977
       4636.4553       1.5822525
       4637.2010       1.5285733
       4637.9466       1.4303027
       4638.6923       1.4562078
       4639.4380       1.5585967
       4640.1837       1.5536782
       4640.9293       1.5225214
       4641.6750       1.6096889
       4642.4207       1.4708933
       4643.1663       1.4464997
       4643.9120       1.3946350
       4644.6577       1.6417755
       4645.4033       1.4445338
       4646.1490       1.4720845
       4646.8947       1.5005420
       4647.6403       1.5913689
       4648.3860       1.4468298
       4649.1317       1.3541387
       4649.8773       1.4716876
       4650.6230       1.3681346
       4651.3687       1.5841356
       4652.1143       1.4602562
       4652.8600       1.4780530
       4653.6057       1.6003648
       4654.3513       1.4897182
       4655.0970       1.4763442
       4655.8427       1.5787517
       4656.5884       1.5666960
       4657.3340       1.7652687
       4658.0797       1.5788800
       4658.8254       1.3957843
       4659.5710       1.4494199
       4660.3167       1.2838063
       4661.0624       1.5590444
       4661.8080       1.5488758
       4662.5537       1.5881996
       4663.2994       1.4872266
       4664.0450       1.4039673
       4664.7907       1.5463042
       4665.5364       1.5002537
       4666.2820       1.5035984
       4667.0277       1.4504203
       4667.7734       1.4961990
       4668.5190       1.6154176
       4669.2647       1.4749212
       4670.0104       1.6608125
       4670.7560       1.6248339
       4671.5017       1.6327981
       4672.2474       1.5878701
       4672.9930       1.5276277
       4673.7387       1.5578359
       4674.4844       1.5246681
       4675.2301       1.4335762
       4675.9757       1.4482042
       4676.7214       1.5815545
       4677.4671       1.5431527
       4678.2127       1.5111460
       4678.9584       1.4650117
       4679.7041       1.4652257
       4680.4497       1.5997922
       4681.1954       1.3897268
       4681.9411       1.5255809
       4682.6867       1.5807399
       4683.4324       1.4518867
       4684.1781       1.2565557
       4684.9237       1.3637069
       4685.6694       1.7286100
       4686.4151       1.7747277
       4687.1607       1.3526674
       4687.9064       1.1652949
       4688.6521       1.0860461
       4689.3977       1.3582302
       4690.1434       1.5119546
       4690.8891       1.5485630
       4691.6348       1.4599320
       4692.3804       1.5782474
       4693.1261       1.4548932
       4693.8718       1.4258701
       4694.6174       1.4376718
       4695.3631       1.5535168
       4696.1088       1.4490791
       4696.8544       1.4838540
       4697.6001       1.4360017
       4698.3458       1.4018179
       4699.0914       1.4729998
       4699.8371       1.5147820
       4700.5828       1.5188202
       4701.3284       1.4200273
       4702.0741       1.4997667
       4702.8198       1.6260526
       4703.5654       1.4286933
       4704.3111       1.3483503
       4705.0568       1.4065585
       4705.8024       1.4295050
       4706.5481       1.3610630
       4707.2938       1.3940179
       4708.0394       1.6632466
       4708.7851       1.5775670
       4709.5308       1.4160396
       4710.2765       1.5006209
       4711.0221       1.4506811
       4711.7678       1.3859219
       4712.5135       1.2709790
       4713.2591       1.2153733
       4714.0048       1.3254008
       4714.7505       1.5188638
       4715.4961       1.4062415
       4716.2418       1.3435514
       4716.9875       1.5952115
       4717.7331       1.6287945
       4718.4788       1.4506194
       4719.2245       1.4891898
       4719.9701       1.5751329
       4720.7158       1.4561355
       4721.4615       1.5519844
       4722.2071       1.5270984
       4722.9528       1.3895317
       4723.6985       1.5144207
       4724.4441       1.7120961
       4725.1898       1.5553384
       4725.9355       1.4345288
       4726.6812       1.3131440
       4727.4268       1.2019887
       4728.1725       1.0735359
       4728.9182      0.91564712
       4729.6638             NaN
       4730.4095             NaN
       4731.1552             NaN
       4731.9008             NaN
       4732.6465             NaN
       4733.3922             NaN
       4734.1378             NaN
       4734.8835             NaN
       4735.6292             NaN
       4736.3748             NaN
       4737.1205             NaN
       4737.8662             NaN
       4738.6118             NaN
       4739.3575             NaN
       4740.1032             NaN
       4740.8488             NaN
       4741.5945             NaN
       4742.3402             NaN
       4743.0858             NaN
       4743.8315             NaN
       4744.5772             NaN
       4745.3229             NaN
       4746.0685             NaN
       4746.8142             NaN
       4747.5599             NaN
       4748.3055             NaN
       4749.0512             NaN
       4749.7969             NaN
       4750.5425             NaN
       4751.2882             NaN
       4752.0339             NaN
       4752.7795             NaN
       4753.5252             NaN
       4754.2709             NaN
       4755.0165             NaN
       4755.7622             NaN
       4756.5079             NaN
       4757.2535             NaN
       4757.9992             NaN
       4758.7449             NaN
       4759.4905             NaN
       4760.2362             NaN
       4760.9819             NaN
       4761.7276             NaN
       4762.4732             NaN
       4763.2189             NaN
       4763.9646             NaN
       4764.7102             NaN
       4765.4559             NaN
       4766.2016             NaN
       4766.9472             NaN
       4767.6929             NaN
       4768.4386             NaN
       4769.1842             NaN
       4769.9299             NaN
       4770.6756             NaN
       4771.4212             NaN
       4772.1669             NaN
       4772.9126             NaN
       4773.6582             NaN
       4774.4039             NaN
       4775.1496             NaN
       4775.8952             NaN
       4776.6409             NaN
       4777.3866             NaN
       4778.1322             NaN
       4778.8779             NaN
       4779.6236             NaN
       4780.3693             NaN
       4781.1149             NaN
       4781.8606             NaN
       4782.6063             NaN
       4783.3519             NaN
       4784.0976             NaN
       4784.8433             NaN
       4785.5889             NaN
       4786.3346             NaN
       4787.0803             NaN
       4787.8259             NaN
       4788.5716             NaN
       4789.3173             NaN
       4790.0629             NaN
       4790.8086             NaN
       4791.5543             NaN
       4792.2999             NaN
       4793.0456             NaN
       4793.7913             NaN
       4794.5369             NaN
       4795.2826             NaN
       4796.0283       1.4250474
       4796.7739       1.4575912
       4797.5196       1.6336204
       4798.2653       1.6627780
       4799.0110       1.5150060
       4799.7566       1.2873937
       4800.5023       1.5602892
       4801.2480       1.5263862
       4801.9936       1.2311166
       4802.7393       1.6072531
       4803.4850       1.6628976
       4804.2306       1.5733212
       4804.9763       1.3588318
       4805.7220       1.5973610
       4806.4676       1.4639633
       4807.2133       1.3126072
       4807.9590       1.4339105
       4808.7046       1.6756549
       4809.4503       1.3474597
       4810.1960       1.4102019
       4810.9416       1.3784473
       4811.6873       1.4656518
       4812.4330       1.5081168
       4813.1786       1.5355259
       4813.9243       1.5897574
       4814.6700       1.5136211
       4815.4157       1.4808459
       4816.1613       1.2862538
       4816.9070       1.4281163
       4817.6527       1.4372741
       4818.3983       1.4632425
       4819.1440       1.5659951
       4819.8897       1.5973143
       4820.6353       1.4286520
       4821.3810       1.5596384
       4822.1267       1.6128239
       4822.8723       1.0095916
       4823.6180       1.0733744
       4824.3637       1.0248691
       4825.1093       1.0118389
       4825.8550       1.3555308
       4826.6007       1.6839707
       4827.3463       1.3530221
       4828.0920       1.6013192
       4828.8377       1.7651792
       4829.5833       1.2114980
       4830.3290       1.4057128
       4831.0747       1.6741606
       4831.8203       1.5230364
       4832.5660       1.4002409
       4833.3117       1.3885250
       4834.0574       1.5409576
       4834.8030       1.4544301
       4835.5487       1.3996602
       4836.2944       1.6021959
       4837.0400       1.6216943
       4837.7857       1.7087340
       4838.5314       1.4575824
       4839.2770       1.5103340
       4840.0227       1.3680984
       4840.7684       1.4144410
       4841.5140       1.4478565
       4842.2597       1.4529571
       4843.0054       1.5038517
       4843.7510       1.3723435
       4844.4967       1.5668897
       4845.2424       1.5390002
       4845.9880       1.5514416
       4846.7337       1.4307818
       4847.4794       1.4187191
       4848.2250       1.5843709
       4848.9707       1.6958964
       4849.7164       1.7106454
       4850.4621       1.4376343
       4851.2077       1.1613175
       4851.9534       1.1929588
       4852.6991       1.1076337
       4853.4447       1.5054667
       4854.1904       1.4937261
       4854.9361       1.4553080
       4855.6817       1.4310186
       4856.4274       1.5502266
       4857.1731       1.6366238
       4857.9187       1.3090903
       4858.6644       1.3287312
       4859.4101       1.5551727
       4860.1557       1.3260020
       4860.9014       1.3295100
       4861.6471       1.2158389
       4862.3927       1.4404998
       4863.1384       1.6815206
       4863.8841       2.2154894
       4864.6297       2.6689326
       4865.3754       3.8976284
       4866.1211       5.3294740
       4866.8667       6.0790445
       4867.6124       6.0020892
       4868.3581       5.9989442
       4869.1038       5.1916134
       4869.8494       4.9046914
       4870.5951       4.0391945
       4871.3408       3.2926192
       4872.0864       2.2761336
       4872.8321       1.9731428
       4873.5778       1.5194000
       4874.3234       1.2946141
       4875.0691       1.1356091
       4875.8148       1.4610693
       4876.5604       1.4002374
       4877.3061       1.3722950
       4878.0518       1.3194628
       4878.7974       1.2857392
       4879.5431       1.2782959
       4880.2888       1.4747624
       4881.0344       1.1767724
       4881.7801       1.3153745
       4882.5258       1.3351479
       4883.2714       1.4168389
       4884.0171       1.3871142
       4884.7628       1.6028406
       4885.5085       1.3148408
       4886.2541       1.5053021
       4886.9998       1.1901945
       4887.7455       1.3669894
       4888.4911       1.2963205
       4889.2368      0.97211820
       4889.9825       1.3890407
       4890.7281       1.6126051
       4891.4738       1.4301895
       4892.2195       1.3875227
       4892.9651       1.2891185
       4893.7108      0.98324519
       4894.4565       1.2961164
       4895.2021       1.3662716
       4895.9478       1.6187414
       4896.6935       1.7950374
       4897.4391       1.4618642
       4898.1848       1.3853638
       4898.9305       1.1346098
       4899.6761       1.5618674
       4900.4218       1.4365720
       4901.1675       1.5254336
       4901.9131       1.4720891
       4902.6588       1.3435904
       4903.4045       1.4422277
       4904.1502       1.2215368
       4904.8958       1.4883438
       4905.6415       1.4755898
       4906.3872       1.5597908
       4907.1328       1.4789863
       4907.8785       1.6352495
       4908.6242       1.4284720
       4909.3698       1.5842330
       4910.1155       1.3675422
       4910.8612       1.4995718
       4911.6068       1.2077429
       4912.3525       1.1377855
       4913.0982       1.4367386
       4913.8438       1.5178954
       4914.5895       1.4529053
       4915.3352       1.3920931
       4916.0808       1.2405916
       4916.8265       1.4569185
       4917.5722       1.3906840
       4918.3178       1.6768255
       4919.0635       1.6565937
       4919.8092       1.7140815
       4920.5549       1.7035767
       4921.3005       1.5486422
       4922.0462       1.3774504
       4922.7919      0.59386343
       4923.5375       1.2548546
       4924.2832       1.3708313
       4925.0289       1.4383611
       4925.7745       1.3561666
       4926.5202       1.3510553
       4927.2659       1.0028490
       4928.0115       1.7668431
       4928.7572       1.5530072
       4929.5029       1.3492462
       4930.2485       1.3315823
       4930.9942       1.5979215
       4931.7399       1.2082855
       4932.4855       1.6945658
       4933.2312       1.4789095
       4933.9769       1.6435919
       4934.7225       1.3806489
       4935.4682       1.3867790
       4936.2139       1.5124459
       4936.9595       1.5375174
       4937.7052       2.0801014
       4938.4509       2.2594592
       4939.1966       2.3395479
       4939.9422       1.6593501
       4940.6879       1.5580127
       4941.4336       1.4316699
       4942.1792       1.5054956
       4942.9249       1.5171697
       4943.6706       1.6132461
       4944.4162       1.5722143
       4945.1619       1.4020576
       4945.9076       1.4893562
       4946.6532       1.6612039
       4947.3989       1.2684857
       4948.1446       1.2867346
       4948.8902       1.2425369
       4949.6359       1.6337040
       4950.3816       1.6768231
       4951.1272       1.6052282
       4951.8729       1.3748326
       4952.6186       1.3546169
       4953.3642       1.4950028
       4954.1099       1.6105987
       4954.8556       1.6238124
       4955.6013       1.6124319
       4956.3469       1.6003246
       4957.0926      0.90977058
       4957.8383       1.6320573
       4958.5839       1.3663859
       4959.3296       1.7225923
       4960.0753       1.9429764
       4960.8209       1.7001624
       4961.5666       1.9328586
       4962.3123       2.1618411
       4963.0579       2.5635048
       4963.8036       2.8982155
       4964.5493       2.9149453
       4965.2949       2.5555429
       4966.0406       2.5475027
       4966.7863       2.5762739
       4967.5319       2.1836317
       4968.2776       1.8116003
       4969.0233       1.7080521
       4969.7689       1.7208290
       4970.5146       1.6054079
       4971.2603       1.5412376
       4972.0059      0.52745280
       4972.7516      0.52588497
       4973.4973       1.6687116
       4974.2430       1.1978942
       4974.9886       1.4249455
       4975.7343       1.6038539
       4976.4800       1.8779787
       4977.2256       2.1871758
       4977.9713       2.0732401
       4978.7170       1.8821675
       4979.4626       1.7040443
       4980.2083       1.5272082
       4980.9540       1.6627586
       4981.6996       1.4956667
       4982.4453       1.6278528
       4983.1910       1.5114166
       4983.9366       1.4904483
       4984.6823       1.5277862
       4985.4280       1.6887366
       4986.1736       1.4103808
       4986.9193       1.6446685
       4987.6650       1.3536514
       4988.4106       1.5000374
       4989.1563       1.4789969
       4989.9020       1.3151029
       4990.6477       1.5860104
       4991.3933       1.5383561
       4992.1390       1.4595117
       4992.8847       1.4315493
       4993.6303       1.5194501
       4994.3760       1.3336207
       4995.1217       1.5404255
       4995.8673       1.3706185
       4996.6130       1.5095543
       4997.3587       1.9774335
       4998.1043       1.6495907
       4998.8500       1.3958419
       4999.5957       1.5322849
       5000.3413       1.4091076
       5001.0870       1.3723291
       5001.8327       1.7199460
       5002.5783       1.5723451
       5003.3240       1.5345322
       5004.0697       1.5015525
       5004.8153       1.5102257
       5005.5610       1.4430333
       5006.3067       1.5125604
       5007.0523       1.5813535
       5007.7980       1.5814551
       5008.5437       2.0582890
       5009.2894       2.4823033
       5010.0350       3.2476022
       5010.7807       3.9094636
       5011.5264       4.9030283
       5012.2720       5.3318707
       5013.0177       5.3148293
       5013.7634       5.1195055
       5014.5090       4.4018818
       5015.2547       3.9553971
       5016.0004       3.5012279
       5016.7460       2.8756018
       5017.4917       1.7637673
       5018.2374       1.3985928
       5018.9830       1.4060112
       5019.7287       1.7200758
       5020.4744       1.6015324
       5021.2200       1.4241254
       5021.9657       1.6146386
       5022.7114       1.5156911
       5023.4570       1.4248406
       5024.2027       1.3934267
       5024.9484       1.3510564
       5025.6941       1.4769573
       5026.4397       1.3776056
       5027.1854       1.5933893
       5027.9311       1.2919272
       5028.6767       1.4490021
       5029.4224       1.3593224
       5030.1681       1.5073858
       5030.9137       1.4865144
       5031.6594       1.4023559
       5032.4051       1.5793550
       5033.1507       1.4937245
       5033.8964       1.4874642
       5034.6421       1.4997246
       5035.3877       1.5457210
       5036.1334       1.3912680
       5036.8791       1.4807002
       5037.6247       1.3955385
       5038.3704       1.4920644
       5039.1161       1.5760874
       5039.8617       1.4534522
       5040.6074       1.5202955
       5041.3531       1.4441411
       5042.0987       1.4919951
       5042.8444       1.1370331
       5043.5901       1.5847638
       5044.3358       1.6268987
       5045.0814       1.5336353
       5045.8271       1.4541693
       5046.5728       1.6067638
       5047.3184       1.5346011
       5048.0641       1.4550551
       5048.8098       1.5852518
       5049.5554       1.6638767
       5050.3011       1.6491648
       5051.0468       1.4367122
       5051.7924       1.4819502
       5052.5381       1.4807569
       5053.2838       1.5500049
       5054.0294       1.4361359
       5054.7751       1.5152783
       5055.5208       1.4842508
       5056.2664       1.4465184
       5057.0121       1.4787338
       5057.7578       1.2833251
       5058.5034       1.4245616
       5059.2491       1.5347635
       5059.9948       1.3673038
       5060.7404       1.4849551
       5061.4861       1.4650281
       5062.2318       1.5635084
       5062.9775       1.6325586
       5063.7231       1.3253764
       5064.4688       1.4295416
       5065.2145       1.5267590
       5065.9601       1.3750277
       5066.7058       1.3346429
       5067.4515       1.5398685
       5068.1971       1.5334358
       5068.9428       1.5192356
       5069.6885       1.5072725
       5070.4341       1.3672344
       5071.1798       1.4846445
       5071.9255       1.5085534
       5072.6711       1.4249244
       5073.4168       1.1987887
       5074.1625       1.4493656
       5074.9081       1.3091486
       5075.6538       1.4206349
       5076.3995       1.3350423
       5077.1451       1.3410788
       5077.8908       1.4373040
       5078.6365       1.3955179
       5079.3822       1.3454288
       5080.1278       1.2428556
       5080.8735       1.3576970
       5081.6192       1.2612769
       5082.3648       1.3055291
       5083.1105       1.3424843
       5083.8562       1.4719461
       5084.6018       1.4569749
       5085.3475       1.3574605
       5086.0932       1.5751138
       5086.8388       1.5939574
       5087.5845       1.2805606
       5088.3302       1.2142647
       5089.0758       1.2387399
       5089.8215       1.2543843
       5090.5672       1.3916958
       5091.3128       1.2425305
       5092.0585       1.3126704
       5092.8042       1.3894190
       5093.5498       1.5091668
       5094.2955       1.4085886
       5095.0412       1.4725360
       5095.7868       1.2952965
       5096.5325       1.3733382
       5097.2782       1.4539778
       5098.0239       1.4142811
       5098.7695       1.4285621
       5099.5152       1.2962037
       5100.2609       1.4558323
       5101.0065       1.4206215
       5101.7522       1.4546304
       5102.4979       1.3713544
       5103.2435       1.3354434
       5103.9892       1.4129321
       5104.7349       1.4516994
       5105.4805       1.3420782
       5106.2262       1.4525354
       5106.9719       1.5988212
       5107.7175       1.4483028
       5108.4632       1.4314597
       5109.2089       1.4709831
       5109.9545       1.4130858
       5110.7002       1.4440089
       5111.4459       1.4419528
       5112.1915       1.3824140
       5112.9372       1.6892288
       5113.6829       1.4294155
       5114.4286       1.3890229
       5115.1742       1.3466894
       5115.9199       1.4112590
       5116.6656       1.4184708
       5117.4112       1.5934139
       5118.1569       1.4945707
       5118.9026       1.3910865
       5119.6482       1.3988184
       5120.3939       1.3387843
       5121.1396       1.4236061
       5121.8852       1.4545707
       5122.6309       1.2594204
       5123.3766       1.2622332
       5124.1222       1.3704047
       5124.8679       1.4247951
       5125.6136       1.5748954
       5126.3592       1.2679493
       5127.1049       1.2935404
       5127.8506       1.3452504
       5128.5962       1.3409170
       5129.3419       1.4374638
       5130.0876       1.3856019
       5130.8332       1.4031173
       5131.5789       1.4251674
       5132.3246       1.4051407
       5133.0703       1.3647616
       5133.8159       1.4558549
       5134.5616       1.4069027
       5135.3073       1.5091233
       5136.0529       1.4192069
       5136.7986       1.3257972
       5137.5443       1.2694806
       5138.2899       1.4137410
       5139.0356       1.3439763
       5139.7813       1.3949115
       5140.5269       1.3403923
       5141.2726       1.4079962
       5142.0183       1.4562404
       5142.7639       1.5061593
       5143.5096       1.4137168
       5144.2553       1.5702363
       5145.0009       1.3853251
       5145.7466       1.4201094
       5146.4923       1.5367857
       5147.2379       1.3888712
       5147.9836       1.3278353
       5148.7293       1.2409875
       5149.4750       1.5106081
       5150.2206       1.3433279
       5150.9663       1.2589620
       5151.7120       1.5803058
       5152.4576       1.0704071
       5153.2033       1.1819595
       5153.9490       1.3239989
       5154.6946       1.3044808
       5155.4403       1.4747204
       5156.1860       1.3885976
       5156.9316       1.2512860
       5157.6773       1.5933721
       5158.4230       1.5139689
       5159.1686       1.6986558
       5159.9143       1.4157312
       5160.6600       1.4572261
       5161.4056       1.2657007
       5162.1513       1.5929098
       5162.8970       1.4548895
       5163.6426       1.2240294
       5164.3883     -0.11885132
       5165.1340       1.1915406
       5165.8796       1.1308834
       5166.6253       1.4748673
       5167.3710       1.3920753
       5168.1167       1.4946323
       5168.8623       1.3096437
       5169.6080       1.3610392
       5170.3537       1.2231649
       5171.0993       1.4518353
       5171.8450       1.4941211
       5172.5907       1.1183416
       5173.3363       1.1434207
       5174.0820       1.3645116
       5174.8277       1.2534661
       5175.5733       1.2458963
       5176.3190       1.4620498
       5177.0647       1.2691671
       5177.8103       1.2362374
       5178.5560       1.3922394
       5179.3017       1.2326380
       5180.0473       1.2317822
       5180.7930       1.3850903
       5181.5387       1.4004850
       5182.2843       1.4460055
       5183.0300       1.3405662
       5183.7757       1.4512803
       5184.5214       1.4102038
       5185.2670       1.5102766
       5186.0127       1.3997361
       5186.7584       1.3348275
       5187.5040       1.4043690
       5188.2497       1.4157535
       5188.9954       1.3894611
       5189.7410       1.4805560
       5190.4867       1.6784771
       5191.2324       1.7026448
       5191.9780       1.0564663
       5192.7237      0.90014896
       5193.4694       1.6332050
       5194.2150       1.2258325
       5194.9607       1.6410093
       5195.7064       6.1558104
       5196.4520       2.6222473
       5197.1977       1.8859124
       5197.9434       2.5290948
       5198.6890       2.2529658
       5199.4347      0.87517134
       5200.1804       1.2391375
       5200.9260       1.7233565
       5201.6717       1.6722728
       5202.4174       1.6490427
       5203.1631       1.4770549
       5203.9087       1.7575111
       5204.6544       1.2560484
       5205.4001       1.4930233
       5206.1457       1.3125063
       5206.8914       1.3446111
       5207.6371       1.7696219
       5208.3827       1.5311311
       5209.1284       1.4410056
       5209.8741       1.3751784
       5210.6197       1.3577127
       5211.3654       1.3566957
       5212.1111       1.3705932
       5212.8567       1.4162925
       5213.6024       1.4121687
       5214.3481      0.96894386
       5215.0937       1.1985620
       5215.8394       1.4483980
       5216.5851       1.3714464
       5217.3307       1.5261123
       5218.0764       1.3990635
       5218.8221       1.3444011
       5219.5678       1.4819593
       5220.3134       1.4974534
       5221.0591       1.1963139
       5221.8048       1.4822045
       5222.5504       1.3962176
       5223.2961       1.3665785
       5224.0418       1.0731558
       5224.7874       1.3940483
       5225.5331       1.4330684
       5226.2788       1.8491968
       5227.0244      0.66445263
       5227.7701      0.94409393
       5228.5158       1.4360730
       5229.2614       1.9255815
       5230.0071       1.8573231
       5230.7528       1.4525521
       5231.4984       1.5396187
       5232.2441       1.4342209
       5232.9898       1.3948226
       5233.7354       1.5016536
       5234.4811       1.4150073
       5235.2268       1.2620945
       5235.9724       1.4011728
       5236.7181       1.4481697
       5237.4638       1.3904423
       5238.2095       1.3499556
       5238.9551       1.1515264
       5239.7008       1.6877550
       5240.4465       1.4543179
       5241.1921       1.4053756
       5241.9378       1.4380652
       5242.6835       1.1401603
       5243.4291     -0.27807335
       5244.1748       1.4343254
       5244.9205      0.96091133
       5245.6661       1.2156021
       5246.4118       1.3069956
       5247.1575      0.65761994
       5247.9031       1.5253434
       5248.6488       1.8158069
       5249.3945       1.8147601
       5250.1401       1.4727465
       5250.8858       1.3958596
       5251.6315       1.4966695
       5252.3771       1.6062312
       5253.1228       1.4591977
       5253.8685       1.4297355
       5254.6142       1.4206360
       5255.3598       1.2024601
       5256.1055       1.4531520
       5256.8512       1.4595098
       5257.5968       1.6282006
       5258.3425       1.0431801
       5259.0882       1.5519860
       5259.8338       1.1377464
       5260.5795       1.1837263
       5261.3252       1.3932718
       5262.0708       1.4875323
       5262.8165       1.7526317
       5263.5622       1.5834970
       5264.3078       1.5920625
       5265.0535       1.4171543
       5265.7992       1.5229493
       5266.5448       1.5731049
       5267.2905       1.3770368
       5268.0362       1.0998734
       5268.7818       1.0276242
       5269.5275       1.3375882
       5270.2732       1.4887013
       5271.0188       1.5860184
       5271.7645       1.6633073
       5272.5102       1.3935871
       5273.2559       1.6479983
       5274.0015       1.3765506
       5274.7472       1.2421481
       5275.4929       1.3685761
       5276.2385       1.3797283
       5276.9842       1.5994405
       5277.7299       1.3149295
       5278.4755       1.4450736
       5279.2212       1.3723349
       5279.9669       1.4348402
       5280.7125       1.3902464
       5281.4582       1.4157752
       5282.2039       1.5092243
       5282.9495       1.3293127
       5283.6952       1.4057563
       5284.4409       1.5628939
       5285.1865       1.3470306
       5285.9322       1.3593487
       5286.6779       1.5335515
       5287.4235       1.3375659
       5288.1692       1.3545755
       5288.9149       1.4135195
       5289.6605       1.4423154
       5290.4062       1.1541384
       5291.1519       1.6031618
       5291.8976       1.6079099
       5292.6432       1.3541393
       5293.3889       1.4630451
       5294.1346       1.3792922
       5294.8802       1.6885206
       5295.6259       1.9014766
       5296.3716       1.5332308
       5297.1172       1.4478786
       5297.8629       1.6709511
       5298.6086       1.5372200
       5299.3542       1.6124746
       5300.0999       1.6493741
       5300.8456       1.4488531
       5301.5912       1.5379975
       5302.3369       1.3477797
       5303.0826       1.2769489
       5303.8282       1.2973519
       5304.5739       1.2677772
       5305.3196       1.2690834
       5306.0652       1.2478861
       5306.8109       1.2588709
       5307.5566       1.5336383
       5308.3023       1.4657793
       5309.0479       1.6967381
       5309.7936       1.5834422
       5310.5393       1.4622153
       5311.2849       1.5921853
       5312.0306       1.6781340
       5312.7763       1.3940004
       5313.5219       1.3694254
       5314.2676       1.5016488
       5315.0133       1.4007415
       5315.7589       1.3108757
       5316.5046       1.7305380
       5317.2503       1.6664201
       5317.9959       1.6021105
       5318.7416       1.4065779
       5319.4873       1.3944375
       5320.2329       1.6599703
       5320.9786       1.3687401
       5321.7243       1.4208306
       5322.4699       1.0998565
       5323.2156       1.3992833
       5323.9613       1.4077754
       5324.7069       1.4255109
       5325.4526       1.3102284
       5326.1983       1.4597742
       5326.9440       1.4458038
       5327.6896       1.4613050
       5328.4353       1.5239477
       5329.1810       1.4638222
       5329.9266       1.3241649
       5330.6723       1.5205773
       5331.4180       1.4119705
       5332.1636       1.4443507
       5332.9093       1.3071221
       5333.6550       1.5095937
       5334.4006       1.3422589
       5335.1463       1.3020800
       5335.8920       1.3249874
       5336.6376       1.4930349
       5337.3833       1.4436132
       5338.1290       1.3876578
       5338.8746       1.4617305
       5339.6203       1.3256123
       5340.3660       1.4056536
       5341.1116       1.3487700
       5341.8573       1.4247184
       5342.6030       1.3039174
       5343.3487       1.4195476
       5344.0943       1.4698630
       5344.8400       1.4348589
       5345.5857       1.3686646
       5346.3313       1.3118818
       5347.0770       1.4864028
       5347.8227       1.4495893
       5348.5683       1.5669028
       5349.3140       1.3215210
       5350.0597       1.3219776
       5350.8053       1.5686492
       5351.5510       1.5146104
       5352.2967       1.4702202
       5353.0423       1.5944335
       5353.7880       1.5592617
       5354.5337       1.6280253
       5355.2793       1.5225683
       5356.0250       1.4836888
       5356.7707       1.3727644
       5357.5163       1.3833557
       5358.2620       1.3566967
       5359.0077       1.5667717
       5359.7533       1.7009268
       5360.4990       1.5767515
       5361.2447       1.4176794
       5361.9904       1.3792240
       5362.7360       1.2607837
       5363.4817       1.4608227
       5364.2274       1.8120852
       5364.9730       1.5299590
       5365.7187       1.3872786
       5366.4644       1.4776350
       5367.2100       1.3516834
       5367.9557       1.4814509
       5368.7014       1.6034897
       5369.4470       1.8220941
       5370.1927       1.8269122
       5370.9384       1.3915566
       5371.6840       1.5115643
       5372.4297       1.8169469
       5373.1754       1.3664509
       5373.9210       1.4422790
       5374.6667       1.7556002
       5375.4124       1.2791221
       5376.1580       1.4372954
       5376.9037       1.3485515
       5377.6494       1.6281230
       5378.3951       1.4722433
       5379.1407       1.5777246
       5379.8864       1.5812785
       5380.6321       1.5856191
       5381.3777       1.8131144
       5382.1234       1.3880157
       5382.8691       1.5017706
       5383.6147       1.4516734
       5384.3604       1.9367901
       5385.1061       1.5331052
       5385.8517       1.5480561
       5386.5974       1.5532407
       5387.3431       1.7446212
       5388.0887       1.8278165
       5388.8344       1.2217363
       5389.5801       1.4260626
       5390.3257       1.4715740
       5391.0714       1.6174697
       5391.8171       1.5490143
       5392.5627       1.4439780
       5393.3084       1.4469517
       5394.0541       1.5290320
       5394.7997       1.3891404
       5395.5454       1.5970011
       5396.2911       1.7782456
       5397.0368       1.4874364
       5397.7824       1.5126991
       5398.5281       1.4406937
       5399.2738       1.4313115
       5400.0194       1.5315622
       5400.7651       1.6124151
       5401.5108       1.5084784
       5402.2564       1.5499556
       5403.0021       1.6084077
       5403.7478       1.5568437
       5404.4934       1.4461690
       5405.2391       1.3975436
       5405.9848       1.5496270
       5406.7304       1.5439714
       5407.4761       1.6617278
       5408.2218       1.5241615
       5408.9674       1.5060736
       5409.7131       1.5103393
       5410.4588       1.3546616
       5411.2044       1.4909695
       5411.9501       1.4211921
       5412.6958       1.6029785
       5413.4415       1.3621079
       5414.1871       1.4348031
       5414.9328       1.4486620
       5415.6785       1.5846557
       5416.4241       1.4585757
       5417.1698       1.5771670
       5417.9155       1.4899103
       5418.6611       1.3696313
       5419.4068       1.4621902
       5420.1525       1.4879527
       5420.8981       1.5145982
       5421.6438       1.5214448
       5422.3895       1.5249291
       5423.1351       1.7237326
       5423.8808       1.4726887
       5424.6265       1.4731354
       5425.3721       1.6075213
       5426.1178       1.5629686
       5426.8635       1.4723235
       5427.6091       1.6398132
       5428.3548       1.5194606
       5429.1005       1.3020712
       5429.8461       1.5661813
       5430.5918       1.5966311
       5431.3375       1.4342023
       5432.0832       1.3720196
       5432.8288       1.5206864
       5433.5745       1.6189809
       5434.3202       1.6016800
       5435.0658       1.3973176
       5435.8115       1.4732181
       5436.5572       1.5138708
       5437.3028       1.5024386
       5438.0485       1.4487408
       5438.7942       1.5345414
       5439.5398       1.4322783
       5440.2855       1.3688857
       5441.0312       1.5628367
       5441.7768       1.5065820
       5442.5225       1.2969512
       5443.2682       1.4876378
       5444.0138       1.3182559
       5444.7595       1.4922159
       5445.5052       1.4066693
       5446.2508       1.4002923
       5446.9965       1.6494502
       5447.7422       1.6973990
       5448.4879       1.3900538
       5449.2335       1.2953505
       5449.9792       1.8916689
       5450.7249       1.3624059
       5451.4705       1.6266651
       5452.2162       1.3928340
       5452.9619       1.0033594
       5453.7075       1.8001197
       5454.4532       1.3407908
       5455.1989       1.5384762
       5455.9445       1.1793645
       5456.6902      0.81205805
       5457.4359       1.7971069
       5458.1815       2.3440965
       5458.9272       1.5768862
       5459.6729       1.7456438
       5460.4185       1.4961378
       5461.1642       1.2389476
       5461.9099       1.5311817
       5462.6555      0.88643685
       5463.4012       1.3789013
       5464.1469       1.5821219
       5464.8925       2.2705683
       5465.6382       1.8176636
       5466.3839       1.5272342
       5467.1296       1.4077774
       5467.8752       1.4582052
       5468.6209       1.2606362
       5469.3666       1.3570488
       5470.1122       1.4635251
       5470.8579       1.2336221
       5471.6036       1.1172513
       5472.3492       1.3519171
       5473.0949       1.3190857
       5473.8406       1.5661415
       5474.5862       1.5775316
       5475.3319       1.5199050
       5476.0776       1.6265093
       5476.8232       1.5289496
       5477.5689       1.5048632
       5478.3146       1.6302719
       5479.0602       1.4758854
       5479.8059       1.5927571
       5480.5516       1.5125330
       5481.2972       1.6149698
       5482.0429       1.6636578
       5482.7886       1.4312137
       5483.5343       1.3703859
       5484.2799       1.2606315
       5485.0256       1.5194688
       5485.7713       1.5327886
       5486.5169       1.2792154
       5487.2626       1.5265294
       5488.0083       1.6108322
       5488.7539       1.4005090
       5489.4996       1.4271347
       5490.2453       1.8942770
       5490.9909       1.7605422
       5491.7366       1.6239059
       5492.4823       1.4335688
       5493.2279      0.79311993
       5493.9736      0.53870845
       5494.7193       1.2205504
       5495.4649       2.0442681
       5496.2106       1.2860290
       5496.9563       2.1970264
       5497.7019       1.5816091
       5498.4476     -0.15175822
       5499.1933     -0.23152959
       5499.9389      0.80688752
       5500.6846       1.5535164
       5501.4303       2.1075815
       5502.1760       1.6718278
       5502.9216       1.5631966
       5503.6673       1.6321944
       5504.4130       1.5110288
       5505.1586       1.3888428
       5505.9043       1.4801433
       5506.6500       1.5784861
       5507.3956       1.4696740
       5508.1413       1.2768783
       5508.8870       1.3382348
       5509.6326       1.6367506
       5510.3783       1.7358663
       5511.1240       1.6281194
       5511.8696       1.6560435
       5512.6153       1.4053752
       5513.3610       1.4168378
       5514.1066       1.5652082
       5514.8523       1.5401510
       5515.5980       1.5818595
       5516.3436       1.7156214
       5517.0893       1.7569772
       5517.8350       1.1965335
       5518.5806       1.1570059
       5519.3263       1.2778473
       5520.0720       1.3510063
       5520.8177       1.6198826
       5521.5633       1.9093288
       5522.3090       1.4378516
       5523.0547       1.5167374
       5523.8003       1.5214704
       5524.5460       1.6646982
       5525.2917       1.5782734
       5526.0373       1.5179580
       5526.7830       1.7063860
       5527.5287       1.6885469
       5528.2743      0.32600599
       5529.0200      0.94988336
       5529.7657      0.67235535
       5530.5113      0.66218849
       5531.2570       1.0400845
       5532.0027       1.8781516
       5532.7483       2.1293615
       5533.4940       1.4577606
       5534.2397       1.4780946
       5534.9853       1.5217878
       5535.7310       1.5630238
       5536.4767       1.5051307
       5537.2224       1.9481417
       5537.9680       1.4102937
       5538.7137       1.6375927
       5539.4594       1.8077186
       5540.2050       1.2998158
       5540.9507       1.0079223
       5541.6964       1.2766686
       5542.4420       1.6740156
       5543.1877       1.7748406
       5543.9334       1.4742869
       5544.6790       1.6938080
       5545.4247       1.5197120
       5546.1704       1.4642413
       5546.9160       1.6981851
       5547.6617       1.5069522
       5548.4074       1.7378253
       5549.1530       1.4408451
       5549.8987      0.78022106
       5550.6444      0.48239642
       5551.3900      0.73075157
       5552.1357       1.1538290
       5552.8814       2.3279082
       5553.6270       2.4464239
       5554.3727       1.6891415
       5555.1184       1.5650397
       5555.8641       1.5155346
       5556.6097       1.7197425
       5557.3554       1.6457935
       5558.1011       1.5881175
       5558.8467       1.4733830
       5559.5924       1.4904590
       5560.3381       1.7203065
       5561.0837       1.6296788
       5561.8294       1.4840629
       5562.5751       1.4834799
       5563.3207       1.4615054
       5564.0664       1.4990373
       5564.8121       1.0552679
       5565.5577       1.3404195
       5566.3034      0.80551986
       5567.0491       1.0004527
       5567.7947       1.5401568
       5568.5404       1.7815040
       5569.2861       1.7569846
       5570.0317       1.4958294
       5570.7774       1.6848771
       5571.5231       1.7252298
       5572.2688       1.5232094
       5573.0144       1.9116223
       5573.7601       1.9694703
       5574.5058      0.11152794
       5575.2514      0.28968652
       5575.9971      -2.5619769
       5576.7428       2.8908089
       5577.4884       6.0729839
       5578.2341       4.0240615
       5578.9798       1.9816122
       5579.7254       1.4947863
       5580.4711       1.5036196
       5581.2168       1.4421861
       5581.9624       1.4987985
       5582.7081       1.4510951
       5583.4538       1.3057654
       5584.1994       1.6094766
       5584.9451       1.4209287
       5585.6908       1.5325870
       5586.4364       1.5009590
       5587.1821       1.7087849
       5587.9278       1.3306393
       5588.6734       1.4085673
       5589.4191       1.4866111
       5590.1648       1.4591716
       5590.9105       1.5949454
       5591.6561       1.7708006
       5592.4018       1.3907792
       5593.1475       1.2887236
       5593.8931      0.99858043
       5594.6388      0.96222390
       5595.3845       1.0880177
       5596.1301       1.3677066
       5596.8758       1.4047723
       5597.6215       1.4099142
       5598.3671       1.4996382
       5599.1128       1.4466688
       5599.8585       1.5943118
       5600.6041       1.3264754
       5601.3498      0.61179565
       5602.0955      0.43642721
       5602.8411       1.3514731
       5603.5868       1.7524449
       5604.3325       2.0313061
       5605.0781       1.6202820
       5605.8238       1.4204009
       5606.5695       1.4959548
       5607.3152       1.3808125
       5608.0608       1.3772910
       5608.8065       1.4041187
       5609.5522       1.2899178
       5610.2978       1.3604297
       5611.0435       1.3649030
       5611.7892       1.4209802
       5612.5348       1.2584747
       5613.2805       1.3440070
       5614.0262       1.3860893
       5614.7718       1.4073752
       5615.5175       1.4697534
       5616.2632       1.3546734
       5617.0088       1.5621006
       5617.7545       1.5746357
       5618.5002       1.5097171
       5619.2458       1.3598764
       5619.9915       1.5252073
       5620.7372       1.6200454
       5621.4828       1.4722803
       5622.2285       1.6903607
       5622.9742       1.4209517
       5623.7198       1.4609259
       5624.4655       1.4512113
       5625.2112       1.6301184
       5625.9569       1.2997530
       5626.7025       1.6377613
       5627.4482       1.6220834
       5628.1939       1.5583925
       5628.9395       1.7782478
       5629.6852       1.3092280
       5630.4309       1.8691588
       5631.1765       1.3102033
       5631.9222       1.3578258
       5632.6679       1.1052849
       5633.4135       1.4502706
       5634.1592       1.9136138
       5634.9049       1.6734405
       5635.6505       1.5510487
       5636.3962       1.7429829
       5637.1419       1.6029364
       5637.8875       1.5892761
       5638.6332       1.6398168
       5639.3789       1.5514148
       5640.1245       1.5121701
       5640.8702       1.6274389
       5641.6159       1.6073924
       5642.3616       1.5188724
       5643.1072       1.5297947
       5643.8529       1.5047876
       5644.5986       1.4688768
       5645.3442       1.5117335
       5646.0899       1.4201023
       5646.8356       1.5586065
       5647.5812       1.6069379
       5648.3269       1.4899543
       5649.0726       1.5921973
       5649.8182       1.4663800
       5650.5639       1.3551410
       5651.3096       1.5473965
       5652.0552       1.5377719
       5652.8009       1.3791231
       5653.5466       1.4275974
       5654.2922       1.5078713
       5655.0379       1.5381343
       5655.7836       1.7139983
       5656.5292       1.6121403
       5657.2749       1.5173536
       5658.0206       1.5522797
       5658.7662       1.4864729
       5659.5119       1.4776767
       5660.2576       1.6741806
       5661.0033       1.7043415
       5661.7489       1.6603489
       5662.4946       1.5548940
       5663.2403       1.6823704
       5663.9859       1.6026249
       5664.7316       1.4950219
       5665.4773       1.3449573
       5666.2229       1.5153304
       5666.9686       1.5229687
       5667.7143       1.5498276
       5668.4599       1.5809836
       5669.2056       1.5825071
       5669.9513       1.4112612
       5670.6969       1.4636624
       5671.4426       1.6935035
       5672.1883       1.6654241
       5672.9339       1.6325225
       5673.6796       1.5441985
       5674.4253       1.4619979
       5675.1709       1.4392983
       5675.9166       1.5574655
       5676.6623       1.6480999
       5677.4080       1.5920153
       5678.1536       1.6908519
       5678.8993       1.5489446
       5679.6450       1.6347981
       5680.3906       1.4987553
       5681.1363       1.6222240
       5681.8820       1.5039602
       5682.6276       1.5345640
       5683.3733       1.6244882
       5684.1190       1.4904455
       5684.8646       1.5649930
       5685.6103       1.5037978
       5686.3560       1.5584016
       5687.1016       1.4413176
       5687.8473       1.4901690
       5688.5930       1.5830383
       5689.3386       1.6462131
       5690.0843       1.5420349
       5690.8300       1.7622870
       5691.5756       1.6536756
       5692.3213       1.8401408
       5693.0670       1.8502933
       5693.8126       1.7842207
       5694.5583       1.6449236
       5695.3040       1.5332327
       5696.0497       1.6926460
       5696.7953       1.5233442
       5697.5410       1.3481085
       5698.2867       1.2914701
       5699.0323       1.7064796
       5699.7780       1.5976438
       5700.5237       1.6195247
       5701.2693       1.5539433
       5702.0150       1.6645941
       5702.7607       1.8389395
       5703.5063       1.6655576
       5704.2520       1.4418478
       5704.9977       1.5651152
       5705.7433       1.6235404
       5706.4890       1.5402243
       5707.2347       1.4677761
       5707.9803       1.6771701
       5708.7260       1.4433548
       5709.4717       1.4776774
       5710.2173       1.3961490
       5710.9630       1.3956170
       5711.7087       1.3937830
       5712.4544       1.5346370
       5713.2000       1.5926427
       5713.9457       1.6470632
       5714.6914       1.6941941
       5715.4370       1.6240586
       5716.1827       1.5200945
       5716.9284       1.4170152
       5717.6740       1.4890213
       5718.4197       1.4939150
       5719.1654       1.8165401
       5719.9110       1.5628581
       5720.6567       1.5021086
       5721.4024       1.6484884
       5722.1480       1.6331218
       5722.8937       1.6660363
       5723.6394       1.6099443
       5724.3850       1.8809860
       5725.1307       1.6968281
       5725.8764       1.7172909
       5726.6220       1.8637458
       5727.3677       1.9196270
       5728.1134       1.8316260
       5728.8590       1.8753288
       5729.6047       1.8559937
       5730.3504       1.7867075
       5731.0961       1.8948466
       5731.8417       1.8192262
       5732.5874       1.7605283
       5733.3331       1.8805122
       5734.0787       1.6301665
       5734.8244       1.6995545
       5735.5701       1.6577178
       5736.3157       1.6385106
       5737.0614       1.5326276
       5737.8071       1.6023931
       5738.5527       1.6467455
       5739.2984       1.5440912
       5740.0441       1.7786891
       5740.7897       1.6849636
       5741.5354       1.3124407
       5742.2811       1.4054123
       5743.0267       1.6665072
       5743.7724       1.7457141
       5744.5181       1.7864266
       5745.2637       1.6160951
       5746.0094       1.5856481
       5746.7551       1.6133406
       5747.5007       1.4855683
       5748.2464       1.6699894
       5748.9921       1.7018086
       5749.7378       1.6076090
       5750.4834       1.6601420
       5751.2291       1.8607832
       5751.9748       1.7321526
       5752.7204       1.7965897
       5753.4661       1.8180260
       5754.2118       1.8825746
       5754.9574       2.0594587
       5755.7031       1.7529926
       5756.4488       1.6687243
       5757.1944       1.7087158
       5757.9401       1.8124665
       5758.6858       1.9292676
       5759.4314       1.9138642
       5760.1771       1.6850540
       5760.9228       1.8242818
       5761.6684       1.6960288
       5762.4141       1.8311286
       5763.1598       1.8526205
       5763.9054       1.5630969
       5764.6511       1.7934881
       5765.3968       1.6446097
       5766.1425       1.5635330
       5766.8881       1.7395236
       5767.6338       1.8158155
       5768.3795       1.6907183
       5769.1251       1.6613694
       5769.8708       1.6385111
       5770.6165       1.5218161
       5771.3621       1.7362048
       5772.1078       1.6778459
       5772.8535       1.5363430
       5773.5991       1.6140757
       5774.3448       1.5719464
       5775.0905       1.6096274
       5775.8361       1.5304753
       5776.5818       1.4969134
       5777.3275       1.5944725
       5778.0731       1.6899223
       5778.8188       1.6325107
       5779.5645       1.7047178
       5780.3101       1.6464483
       5781.0558       1.4419660
       5781.8015       1.7725200
       5782.5471       1.5821573
       5783.2928       1.5719436
       5784.0385       1.7646679
       5784.7842       1.3950869
       5785.5298       1.5618291
       5786.2755       1.2861264
       5787.0212       1.3867603
       5787.7668       1.4562761
       5788.5125       1.6025200
       5789.2582       1.5561633
       5790.0038       1.4636980
       5790.7495       1.5728059
       5791.4952       1.6057249
       5792.2408       1.5372485
       5792.9865      0.65233533
       5793.7322       1.8059935
       5794.4778       1.2676119
       5795.2235       1.2133671
       5795.9692       1.5500664
       5796.7148      0.53657034
       5797.4605      0.72478545
       5798.2062      0.93774065
       5798.9518       1.3097005
       5799.6975       1.8334649
       5800.4432       1.4196797
       5801.1889       1.6035121
       5801.9345      0.92323608
       5802.6802       1.3465510
       5803.4259      0.69018565
       5804.1715      0.66500527
       5804.9172       1.9424065
       5805.6629       1.7159745
       5806.4085       1.8552195
       5807.1542       1.6950593
       5807.8999       1.3032868
       5808.6455       1.1528288
       5809.3912       1.3748265
       5810.1369       1.2049352
       5810.8825      0.97251093
       5811.6282       1.1526116
       5812.3739      0.80550728
       5813.1195      0.67649941
       5813.8652       1.1932485
       5814.6109       1.3892268
       5815.3565      0.78330376
       5816.1022      0.88223348
       5816.8479      0.86835544
       5817.5935       1.1050288
       5818.3392       1.1755589
       5819.0849       1.5156397
       5819.8306       1.4163623
       5820.5762       1.5249653
       5821.3219       1.2659297
       5822.0676       1.0862245
       5822.8132       1.0704764
       5823.5589      0.99644326
       5824.3046       1.0372123
       5825.0502       1.0222359
       5825.7959       1.2418328
       5826.5416       1.2000567
       5827.2872       1.3179805
       5828.0329       1.3829806
       5828.7786       1.5101946
       5829.5242       1.4757487
       5830.2699       1.4063541
       5831.0156       1.2374966
       5831.7612       1.8365023
       5832.5069       2.8566756
       5833.2526      0.62578495
       5833.9982      0.66256906
       5834.7439       1.0755847
       5835.4896     -0.23109689
       5836.2353     -0.89917470
       5836.9809     -0.56994581
       5837.7266      -1.5008359
       5838.4723       1.5032494
       5839.2179      -1.3246166
       5839.9636      0.86528260
       5840.7093       1.0786442
       5841.4549       1.2570343
       5842.2006       1.1171728
       5842.9463       1.2119514
       5843.6919       1.3015256
       5844.4376       1.3665047
       5845.1833       1.6210795
       5845.9289       1.4865608
       5846.6746       1.5955318
       5847.4203       1.8130742
       5848.1659       1.6569421
       5848.9116       1.6242487
       5849.6573       1.6543418
       5850.4029       1.6634108
       5851.1486       1.3596662
       5851.8943       1.6996997
       5852.6399       1.3643599
       5853.3856      0.98630209
       5854.1313       1.2847300
       5854.8770       1.6173861
       5855.6226       1.7972450
       5856.3683       1.3785876
       5857.1140       1.4921247
       5857.8596       1.4735050
       5858.6053       1.3843761
       5859.3510       1.5425470
       5860.0966       1.5989976
       5860.8423       1.6961991
       5861.5880       1.6631166
       5862.3336       1.6215125
       5863.0793       1.3779919
       5863.8250       1.2436030
       5864.5706       1.1719846
       5865.3163       1.6331028
       5866.0620       2.1630236
       5866.8076       1.8862740
       5867.5533       1.4493484
       5868.2990       1.2936609
       5869.0446       1.2054933
       5869.7903       1.0239398
       5870.5360       1.2303868
       5871.2817       1.3597117
       5872.0273       1.3515047
       5872.7730       1.2358696
       5873.5187       2.0789736
       5874.2643       1.3305098
       5875.0100      0.69314331
       5875.7557       1.0152456
       5876.5013     0.014406660
       5877.2470     0.030234540
       5877.9927       1.9590401
       5878.7383       2.2191886
       5879.4840       2.0543627
       5880.2297       1.8066164
       5880.9753       1.6443759
       5881.7210       2.0398886
       5882.4667       2.2483551
       5883.2123       2.2820769
       5883.9580       2.0375219
       5884.7037       2.2307163
       5885.4493       1.7734622
       5886.1950       1.7559493
       5886.9407       1.1400003
       5887.6863       1.4438017
       5888.4320       1.1315882
       5889.1777      0.50691623
       5889.9234      0.93509281
       5890.6690       1.4971578
       5891.4147       1.5484415
       5892.1604       1.3559199
       5892.9060       1.2656497
       5893.6517       1.4343839
       5894.3974       1.1728019
       5895.1430       1.1103349
       5895.8887       1.1247863
       5896.6344      0.85334240
       5897.3800       1.6379192
       5898.1257       1.3627275
       5898.8714     0.083017232
       5899.6170     -0.44721628
       5900.3627      -3.4822166
       5901.1084      -2.4475725
       5901.8540      -1.1704218
       5902.5997       2.4503279
       5903.3454       2.1945443
       5904.0910       1.4310501
       5904.8367       1.1036410
       5905.5824       1.6144414
       5906.3281       1.5120254
       5907.0737       1.7023146
       5907.8194       1.5983991
       5908.5651       1.5049677
       5909.3107       1.3331321
       5910.0564       1.2463811
       5910.8021       1.0881336
       5911.5477       1.1210990
       5912.2934       1.1594955
       5913.0391       1.4331246
       5913.7847      0.84351444
       5914.5304      0.96978706
       5915.2761       1.2258125
       5916.0217      0.89983194
       5916.7674      0.99686051
       5917.5131       1.5254799
       5918.2587       1.8901665
       5919.0044       2.4870232
       5919.7501       1.8476259
       5920.4957       1.6467826
       5921.2414       1.8074167
       5921.9871       1.6051236
       5922.7327       1.8131480
       5923.4784       1.6847930
       5924.2241       1.4915575
       5924.9698      0.97135590
       5925.7154     -0.43914746
       5926.4611     -0.95114519
       5927.2068      -1.3948096
       5927.9524       2.3857138
       5928.6981       2.9776473
       5929.4438       2.3410897
       5930.1894       1.4409967
       5930.9351       1.2314277
       5931.6808       1.3711649
       5932.4264       1.4312448
       5933.1721       1.6796275
       5933.9178       1.4571959
       5934.6634       1.5640170
       5935.4091       1.3394669
       5936.1548       1.6551394
       5936.9004       1.4577452
       5937.6461       1.3335986
       5938.3918       1.5588372
       5939.1374       1.4256221
       5939.8831       1.6677916
       5940.6288       1.5444128
       5941.3745       1.4646643
       5942.1201       1.4404139
       5942.8658       1.2879172
       5943.6115       1.4317473
       5944.3571       1.3911139
       5945.1028       1.5193114
       5945.8485       1.4816724
       5946.5941       1.3814033
       5947.3398       1.0992674
       5948.0855      0.99599237
       5948.8311       1.0660891
       5949.5768       1.3485788
       5950.3225       1.5857412
       5951.0681       1.5773278
       5951.8138       1.4654189
       5952.5595       1.5155711
       5953.3051       3.3568295
       5954.0508       4.7991764
       5954.7965       2.7945860
       5955.5421       1.0395256
       5956.2878       1.0886431
       5957.0335      0.62105385
       5957.7791       1.3750141
       5958.5248       1.3676104
       5959.2705       1.8488230
       5960.0162       1.8677359
       5960.7618       1.5457555
       5961.5075       1.5989759
       5962.2532       1.7372739
       5962.9988       1.6709040
       5963.7445       1.5126621
       5964.4902       1.6041967
       5965.2358       1.4189470
       5965.9815       1.3003146
       5966.7272       1.3984290
       5967.4728       1.5074264
       5968.2185       1.5430090
       5968.9642       1.4421004
       5969.7098       1.4861565
       5970.4555       1.3976371
       5971.2012       1.3510309
       5971.9468       1.1011623
       5972.6925       1.2893485
       5973.4382       1.3567966
       5974.1838       1.2746373
       5974.9295       1.4831508
       5975.6752       1.5182605
       5976.4208       1.4910185
       5977.1665       1.5227030
       5977.9122       1.5172524
       5978.6579       1.5195056
       5979.4035       1.4349206
       5980.1492       1.3807084
       5980.8949       1.2074462
       5981.6405       1.1433816
       5982.3862      0.74984596
       5983.1319       1.0510765
       5983.8775       1.0502719
       5984.6232       1.1526860
       5985.3689       1.3635663
       5986.1145       1.3493566
       5986.8602       1.6054906
       5987.6059       1.4036039
       5988.3515      0.89611152
       5989.0972      0.96150820
       5989.8429      0.71306954
       5990.5885       1.3243820
       5991.3342      0.89951871
       5992.0799       1.0527478
       5992.8255       1.0744991
       5993.5712       1.1075099
       5994.3169       1.4285754
       5995.0626       1.8876926
       5995.8082       1.2745964
       5996.5539       2.3264863
