# wavelength flux
       1929.7414     0.058679246
       1930.3902    0.0036232307
       1931.0390     0.026615696
       1931.6877     0.036943370
       1932.3365     0.035807964
       1932.9852     0.075197101
       1933.6340     0.038105941
       1934.2828     0.025129424
       1934.9315   -0.0048670436
       1935.5803     0.021360600
       1936.2291    0.0063047202
       1936.8778     0.071614834
       1937.5266     0.044961668
       1938.1753     0.070748648
       1938.8241     0.040296432
       1939.4729    -0.030412860
       1940.1216     0.078511134
       1940.7704    0.0056383283
       1941.4192    -0.032921050
       1942.0679     0.032218713
       1942.7167     0.056752431
       1943.3654    -0.017641395
       1944.0142     0.030518588
       1944.6630     0.064773500
       1945.3117   0.00096629371
       1945.9605     0.061397076
       1946.6093     0.074684205
       1947.2580     0.018082255
       1947.9068   -0.0065669287
       1948.5555    -0.020955215
       1949.2043     0.087245062
       1949.8531     0.065328533
       1950.5018   -0.0034077082
       1951.1506    -0.015185369
       1951.7994     0.095649826
       1952.4481     0.072655600
       1953.0969    0.0036722648
       1953.7456     0.037128749
       1954.3944     0.019219083
       1955.0432     0.067640508
       1955.6919    0.0031575869
       1956.3407    -0.022459951
       1956.9895     0.044664754
       1957.6382    0.0083059567
       1958.2870    -0.046414711
       1958.9357     0.047562345
       1959.5845   -0.0082615052
       1960.2333     0.022542067
       1960.8820    -0.019305658
       1961.5308     0.021207028
       1962.1796     0.017983292
       1962.8283     0.014916149
       1963.4771     0.039976291
       1964.1258     0.043640653
       1964.7746     0.043038891
       1965.4234     0.029696262
       1966.0721    0.0056033371
       1966.7209    0.0038291955
       1967.3697    -0.026655198
       1968.0184     0.012660966
       1968.6672     0.042611727
       1969.3159     0.059072841
       1969.9647    -0.035372699
       1970.6135     0.066904674
       1971.2622     0.019974732
       1971.9110     0.048975198
       1972.5598    0.0042245012
       1973.2085     0.041658545
       1973.8573     0.082585437
       1974.5060     0.091138692
       1975.1548     0.047612896
       1975.8036   -0.0085245864
       1976.4523    0.0054782967
       1977.1011     0.043058822
       1977.7499   -0.0041265007
       1978.3986   -0.0036436441
       1979.0474     0.023798314
       1979.6961     0.023264710
       1980.3449   -0.0057710242
       1980.9937     0.035285962
       1981.6424     0.027178071
       1982.2912     0.050359590
       1982.9400     0.022688790
       1983.5887     0.021564470
       1984.2375   -0.0045067372
       1984.8862     0.021430985
       1985.5350     0.024091240
       1986.1838     0.043829926
       1986.8325     0.015724096
       1987.4813     0.030254945
       1988.1301     0.047191811
       1988.7788    -0.022199377
       1989.4276    -0.018223072
       1990.0763   -0.0041500479
       1990.7251     0.035942281
       1991.3739  -0.00047631596
       1992.0226     0.040158543
       1992.6714    0.0020090782
       1993.3202     0.060107067
       1993.9689     0.018365037
       1994.6177     0.043429596
       1995.2664     0.011001871
       1995.9152    -0.022814222
       1996.5640    -0.043662683
       1997.2127    -0.017752727
       1997.8615     0.037410304
       1998.5103     0.020317445
       1999.1590     0.013151825
       1999.8078     0.017088832
       2000.4565    -0.011357279
       2001.1053    0.0094596289
       2001.7541    0.0069076442
       2002.4028     0.015253664
       2003.0516     0.024060440
       2003.7004     0.010329983
       2004.3491     0.011203041
       2004.9979     0.057003272
       2005.6467     0.015144237
       2006.2954    0.0027602015
       2006.9442     0.028376840
       2007.5929   -0.0033249667
       2008.2417   0.00030802148
       2008.8905     0.030747639
       2009.5392    -0.025422532
       2010.1880    0.0063615025
       2010.8368     0.053496398
       2011.4855    0.0041728564
       2012.1343     0.030205357
       2012.7830    -0.015340171
       2013.4318     0.013465279
       2014.0806   0.00047160789
       2014.7293    0.0013151854
       2015.3781     0.037332206
       2016.0269    0.0096556457
       2016.6756     0.078203147
       2017.3244     0.066491486
       2017.9731      0.12587123
       2018.6219      0.20853811
       2019.2707      0.20519447
       2019.9194      0.21034669
       2020.5682     0.057697717
       2021.2170      0.10876586
       2021.8657     0.038384014
       2022.5145     0.036335366
       2023.1632     0.058187602
       2023.8120     0.034851565
       2024.4608     0.028106906
       2025.1095    -0.039139863
       2025.7583    -0.023243821
       2026.4071     0.031803175
       2027.0558     0.042456369
       2027.7046     0.021956653
       2028.3533    -0.010884494
       2029.0021     0.074504120
       2029.6509   -0.0071453874
       2030.2996   -0.0080773286
       2030.9484    0.0063428593
       2031.5972   -0.0057392218
       2032.2459   -0.0031989882
       2032.8947     0.034693856
       2033.5434     0.063795451
       2034.1922     0.012748782
       2034.8410     0.042615548
       2035.4897   0.00073872645
       2036.1385     0.046815963
       2036.7873     0.062421277
       2037.4360     0.039417579
       2038.0848     0.011033584
       2038.7335   -0.0026533888
       2039.3823     0.011527599
       2040.0311    -0.026713276
       2040.6798     0.021323562
       2041.3286    0.0060129925
       2041.9774     0.028040042
       2042.6261     0.023978596
       2043.2749    0.0030596616
       2043.9236     0.043377132
       2044.5724    -0.014484118
       2045.2212     0.011614765
       2045.8699     0.021113607
       2046.5187     0.037988429
       2047.1675     0.010616942
       2047.8162     0.056323751
       2048.4650     0.022018598
       2049.1137     0.026663939
       2049.7625     0.062050371
       2050.4113     0.024773600
       2051.0600     0.024249560
       2051.7088     0.024713221
       2052.3576     0.044994093
       2053.0063     0.018805095
       2053.6551    -0.013128036
       2054.3038     0.015611045
       2054.9526     0.028977618
       2055.6014     0.017341387
       2056.2501     0.012733397
       2056.8989  -0.00055335951
       2057.5477     0.015745030
       2058.1964     0.046055447
       2058.8452     0.040013784
       2059.4939     0.032905223
       2060.1427    0.0047842594
       2060.7915     0.024547682
       2061.4402     0.022206095
       2062.0890     0.040118513
       2062.7378     0.032068844
       2063.3865     0.024112829
       2064.0353     0.025897247
       2064.6840     0.023611623
       2065.3328     0.020851518
       2065.9816     0.018915279
       2066.6303     0.043347645
       2067.2791     0.012797096
       2067.9279     0.021338011
       2068.5766     0.032543632
       2069.2254     0.017052532
       2069.8741     0.018459509
       2070.5229     0.039829203
       2071.1717     0.014095224
       2071.8204    0.0093990169
       2072.4692    -0.012200248
       2073.1180    -0.038541714
       2073.7667     0.064179452
       2074.4155     0.042828822
       2075.0642    0.0078796329
       2075.7130   -0.0051145186
       2076.3618     0.042446552
       2077.0105     0.044038069
       2077.6593     0.058805747
       2078.3081     0.039743356
       2078.9568     0.031681861
       2079.6056     0.036906426
       2080.2543     0.035831886
       2080.9031   -0.0047114260
       2081.5519     0.026272973
       2082.2006     0.015626152
       2082.8494    0.0021244387
       2083.4982     0.015958820
       2084.1469     0.035494459
       2084.7957     0.042228937
       2085.4444     0.023187492
       2086.0932   -0.0030182272
       2086.7420     0.025071643
       2087.3907     0.033587884
       2088.0395    0.0058217432
       2088.6883     0.048302804
       2089.3370     0.056248701
       2089.9858     0.046154081
       2090.6345     0.040885655
       2091.2833     0.029606994
       2091.9321     0.081243772
       2092.5808     0.075793879
       2093.2296     0.022068519
       2093.8784     0.039746321
       2094.5271     0.025306956
       2095.1759     0.019841428
       2095.8246     0.021783458
       2096.4734    -0.027511832
       2097.1222     0.022801369
       2097.7709     0.036172958
       2098.4197    0.0060757326
       2099.0685     0.077460852
       2099.7172     0.026350745
       2100.3660     0.034769708
       2101.0147     0.052634029
       2101.6635     0.014119733
       2102.3123  -0.00085909889
       2102.9610     0.025840630
       2103.6098   -0.0050415763
       2104.2586     0.052127307
       2104.9073    0.0073150232
       2105.5561    0.0076606024
       2106.2048    0.0095796024
       2106.8536     0.013444882
       2107.5024   -0.0035237075
       2108.1511    0.0073954872
       2108.7999     0.020289012
       2109.4487     0.041982991
       2110.0974  -7.8490275e-05
       2110.7462   -0.0042688213
       2111.3949     0.017351892
       2112.0437     0.027403886
       2112.6925     0.043077671
       2113.3412    -0.040457590
       2113.9900   -0.0023023150
       2114.6388     0.022619691
       2115.2875   -0.0082289645
       2115.9363     0.013827177
       2116.5850     0.030990500
       2117.2338     0.028636978
       2117.8826     0.034237898
       2118.5313     0.011984656
       2119.1801     0.018198095
       2119.8289   0.00032731670
       2120.4776     0.012921234
       2121.1264    0.0027360073
       2121.7751     0.018658865
       2122.4239     0.029867568
       2123.0727     0.045037775
       2123.7214     0.011798740
       2124.3702    0.0020592421
       2125.0190     0.049292790
       2125.6677     0.035994928
       2126.3165     0.056039079
       2126.9652     0.014299705
       2127.6140     0.011500419
       2128.2628     0.051076024
       2128.9115     0.058965464
       2129.5603     0.065587976
       2130.2091     0.022395366
       2130.8578     0.080362965
       2131.5066     0.030034712
       2132.1553     0.010680677
       2132.8041     0.033559326
       2133.4529      0.10936951
       2134.1016     0.041391077
       2134.7504     0.036499173
       2135.3992     0.022702560
       2136.0479     0.030429984
       2136.6967     0.036143586
       2137.3454    -0.024763367
       2137.9942     0.036499038
       2138.6430    0.0028409120
       2139.2917     0.050906592
       2139.9405     0.023104442
       2140.5893     0.046900897
       2141.2380     0.019359504
       2141.8868     0.037587923
       2142.5355     0.028457918
       2143.1843     0.019418328
       2143.8331     0.034053712
       2144.4818     0.043168308
       2145.1306    0.0016515536
       2145.7794    0.0020370393
       2146.4281     0.015346494
       2147.0769     0.032102059
       2147.7256     0.041864671
       2148.3744     0.062678446
       2149.0232     0.052591478
       2149.6719   -0.0059359055
       2150.3207    0.0074715667
       2150.9695     0.023491156
       2151.6182     0.019332301
       2152.2670   -0.0064965611
       2152.9157     0.038669964
       2153.5645     0.012019263
       2154.2133   -0.0013886969
       2154.8620   -0.0038207863
       2155.5108   -0.0043984637
       2156.1596     0.039290183
       2156.8083     0.025349601
       2157.4571     0.012979551
       2158.1058     0.016046733
       2158.7546     0.032956448
       2159.4034   -0.0086975338
       2160.0521    0.0086166830
       2160.7009     0.031567146
       2161.3497     0.046317538
       2161.9984     0.023816466
       2162.6472     0.036304647
       2163.2959   0.00046687082
       2163.9447    0.0013142427
       2164.5935    0.0079684721
       2165.2422     0.044083525
       2165.8910     0.040989667
       2166.5398     0.014458117
       2167.1885     0.065020528
       2167.8373     0.036780257
       2168.4860     0.031637852
       2169.1348   -0.0034397589
       2169.7836     0.045253385
       2170.4323   -0.0086746353
       2171.0811     0.017674658
       2171.7299   -0.0010740895
       2172.3786     0.032614970
       2173.0274     0.052851514
       2173.6761     0.015947362
       2174.3249     0.049935229
       2174.9737    0.0055033176
       2175.6224     0.046195504
       2176.2712     0.050272926
       2176.9200     0.051595815
       2177.5687     0.030976356
       2178.2175     0.028389569
       2178.8662     0.020990195
       2179.5150     0.036910812
       2180.1638     0.022285185
       2180.8125     0.032322410
       2181.4613     0.019596056
       2182.1101     0.027709213
       2182.7588     0.084684262
       2183.4076     0.015569839
       2184.0563     0.044514805
       2184.7051    -0.013337206
       2185.3539     0.021970402
       2186.0026     0.024040269
       2186.6514     0.056442832
       2187.3002     0.024849129
       2187.9489    0.0093863991
       2188.5977  -0.00043509185
       2189.2464     0.042387752
       2189.8952     0.059917849
       2190.5440     0.016868418
       2191.1927   -0.0050595828
       2191.8415     0.061303550
       2192.4903     0.013500276
       2193.1390    0.0061448720
       2193.7878  -0.00049446423
       2194.4365     0.017009501
       2195.0853     0.022437628
       2195.7341     0.012586058
       2196.3828     0.027203549
       2197.0316     0.032182793
       2197.6804     0.050306609
       2198.3291     0.021133699
       2198.9779    -0.010281418
       2199.6266   -0.0052085916
       2200.2754     0.057652539
       2200.9242   -0.0067183672
       2201.5729     0.030110745
       2202.2217   0.00011393235
       2202.8705     0.048123948
       2203.5192     0.027151047
       2204.1680     0.031432868
       2204.8167     0.019971313
       2205.4655     0.038219917
       2206.1143     0.019191815
       2206.7630     0.023773263
       2207.4118     0.017903390
       2208.0606     0.019032854
       2208.7093     0.018893947
       2209.3581   0.00057868110
       2210.0068     0.041920022
       2210.6556     0.027445365
       2211.3044     0.024926128
       2211.9531     0.012730964
       2212.6019     0.025289648
       2213.2507     0.058419121
       2213.8994     0.032841355
       2214.5482     0.022547214
       2215.1969   -0.0098877290
       2215.8457     0.062190787
       2216.4945     0.024433204
       2217.1432    0.0052184208
       2217.7920     0.024179915
       2218.4408     0.015023693
       2219.0895     0.031598835
       2219.7383     0.036684472
       2220.3870     0.045788760
       2221.0358     0.026606882
       2221.6846     0.045295003
       2222.3333     0.037092518
       2222.9821     0.041136116
       2223.6309     0.044293884
       2224.2796     0.075303947
       2224.9284     0.044993775
       2225.5771     0.050377254
       2226.2259     0.020409337
       2226.8747     0.028258424
       2227.5234     0.042621753
       2228.1722     0.036780392
       2228.8210     0.065588726
       2229.4697     0.057381725
       2230.1185     0.025343888
       2230.7672    -0.053442360
       2231.4160     0.012718892
       2232.0648     0.029684121
       2232.7135     0.027690995
       2233.3623     0.049170132
       2234.0111     0.021399199
       2234.6598    0.0088279101
       2235.3086     0.055767015
       2235.9573     0.021285418
       2236.6061    -0.011459475
       2237.2549   -0.0042796500
       2237.9036    0.0073666002
       2238.5524     0.021552911
       2239.2012    -0.039187234
       2239.8499     0.017806193
       2240.4987     0.031254642
       2241.1474   -0.0084786998
       2241.7962     0.033681328
       2242.4450     0.047183201
       2243.0937     0.012691440
       2243.7425     0.030946885
       2244.3913     0.034535320
       2245.0400     0.037005556
       2245.6888     0.040232906
       2246.3375     0.020377589
       2246.9863     0.059321259
       2247.6351     0.027521211
       2248.2838     0.026390755
       2248.9326     0.055201229
       2249.5814     0.056042495
       2250.2301     0.041041879
       2250.8789     0.031103372
       2251.5276     0.033091539
       2252.1764     0.043023933
       2252.8252     0.039369162
       2253.4739    0.0091875655
       2254.1227    -0.012993698
       2254.7715     0.011228859
       2255.4202    -0.013270319
       2256.0690     0.051507890
       2256.7177     0.012430684
       2257.3665     0.043585512
       2258.0153     0.048210511
       2258.6640    0.0031794412
       2259.3128   -0.0050302201
       2259.9616     0.024647864
       2260.6103     0.030769462
       2261.2591     0.033458983
       2261.9078     0.012991690
       2262.5566     0.033843571
       2263.2054     0.012600981
       2263.8541    0.0057053827
       2264.5029     0.020273417
       2265.1517     0.052854484
       2265.8004     0.022427279
       2266.4492     0.016474475
       2267.0979    0.0026791362
       2267.7467     0.026212709
       2268.3955    0.0098473997
       2269.0442     0.016343307
       2269.6930    0.0097225384
       2270.3418     0.036346309
       2270.9905     0.011803589
       2271.6393     0.025424889
       2272.2880     0.029075497
       2272.9368     0.034261662
       2273.5856     0.045534763
       2274.2343    0.0093983350
       2274.8831     0.031410968
       2275.5319     0.025104836
       2276.1806     0.020485060
       2276.8294     0.010815602
       2277.4781    0.0028014287
       2278.1269     0.042898961
       2278.7757     0.015068287
       2279.4244     0.016190049
       2280.0732     0.027891148
       2280.7220     0.045458889
       2281.3707     0.012312560
       2282.0195     0.066377591
       2282.6682   -0.0025048886
       2283.3170     0.055585587
       2283.9658     0.034747625
       2284.6145     0.021673638
       2285.2633     0.035386468
       2285.9121     0.034632025
       2286.5608   -0.0068121122
       2287.2096   -0.0041824406
       2287.8583     0.024818484
       2288.5071    -0.010431826
       2289.1559     0.016030518
       2289.8046     0.068452270
       2290.4534    -0.011794309
       2291.1022     0.024927420
       2291.7509    0.0075352749
       2292.3997     0.043984451
       2293.0484     0.045871538
       2293.6972     0.025494104
       2294.3460     0.041443376
       2294.9947     0.039858388
       2295.6435     0.031537242
       2296.2923     0.055358783
       2296.9410     0.013896882
       2297.5898     0.021551231
       2298.2385     0.041483202
       2298.8873    0.0083235219
       2299.5361    0.0035094266
       2300.1848     0.041376775
       2300.8336     0.021873931
       2301.4824     0.036595894
       2302.1311     0.013253636
       2302.7799     0.027120125
       2303.4286     0.032339769
       2304.0774     0.029866783
       2304.7262     0.025838254
       2305.3749     0.037545617
       2306.0237     0.035022073
       2306.6725    0.0049389236
       2307.3212     0.029485737
       2307.9700    0.0058635451
       2308.6187     0.036785283
       2309.2675     0.010631064
       2309.9163    0.0066986173
       2310.5650     0.049654103
       2311.2138    0.0092512615
       2311.8626   -0.0061682700
       2312.5113     0.047205952
       2313.1601    0.0087623151
       2313.8088    0.0069386510
       2314.4576     0.052623497
       2315.1064     0.036673619
       2315.7551     0.017391095
       2316.4039     0.035910624
       2317.0527     0.039056031
       2317.7014     0.038640080
       2318.3502     0.039694896
       2318.9989     0.029429645
       2319.6477     0.026987724
       2320.2965     0.010515916
       2320.9452     0.027479203
       2321.5940     0.029860488
       2322.2428     0.023680861
       2322.8915     0.019888193
       2323.5403     0.030952615
       2324.1890   -0.0034187350
       2324.8378    0.0095132552
       2325.4866     0.010819347
       2326.1353    0.0097234521
       2326.7841     0.011318664
       2327.4329    0.0085716574
       2328.0816     0.035110086
       2328.7304    0.0041461567
       2329.3791     0.011514491
       2330.0279     0.023858105
       2330.6767     0.012333266
       2331.3254    0.0025599821
       2331.9742     0.032920581
       2332.6230    -0.021849725
       2333.2717     0.040744983
       2333.9205     0.038361601
       2334.5692     0.014658512
       2335.2180     0.038910703
       2335.8668     0.018955179
       2336.5155     0.020348467
       2337.1643     0.023384440
       2337.8131     0.026547967
       2338.4618   -0.0058110689
       2339.1106     0.016815352
       2339.7593     0.039665279
       2340.4081     0.013348246
       2341.0569     0.013530046
       2341.7056    0.0089475438
       2342.3544     0.018943945
       2343.0032     0.039001998
       2343.6519     0.032245328
       2344.3007     0.023309796
       2344.9494     0.036251304
       2345.5982     0.042742803
       2346.2470     0.040822056
       2346.8957     0.028328475
       2347.5445     0.031233293
       2348.1933     0.037831568
       2348.8420     0.017322718
       2349.4908     0.015731521
       2350.1395     0.047898349
       2350.7883     0.031967459
       2351.4371     0.019543884
       2352.0858     0.017333212
       2352.7346     0.069227242
       2353.3834     0.036137436
       2354.0321     0.036543219
       2354.6809     0.035109999
       2355.3296    0.0085149181
       2355.9784     0.031076362
       2356.6272     0.028311885
       2357.2759     0.025591399
       2357.9247     0.030234341
       2358.5735     0.022763480
       2359.2222     0.024058926
       2359.8710    0.0075767042
       2360.5197     0.028223276
       2361.1685     0.012980326
       2361.8173     0.011372905
       2362.4660    0.0017823997
       2363.1148    0.0069263366
       2363.7636     0.017981771
       2364.4123     0.027633548
       2365.0611     0.029861263
       2365.7098     0.015252693
       2366.3586   0.00077564805
       2367.0074    -0.012916732
       2367.6561     0.022643012
       2368.3049    0.0034196413
       2368.9537   -0.0028054552
       2369.6024     0.024076841
       2370.2512     0.043784541
       2370.8999     0.039861011
       2371.5487     0.015852574
       2372.1975     0.036271763
       2372.8462     0.020253299
       2373.4950     0.028344023
       2374.1438     0.037251882
       2374.7925     0.038408382
       2375.4413     0.025017348
       2376.0900     0.049261138
       2376.7388     0.032022295
       2377.3876     0.026334360
       2378.0363    0.0056476396
       2378.6851     0.013098077
       2379.3339     0.013974207
       2379.9826     0.065438044
       2380.6314     0.046607156
       2381.2801     0.050670197
       2381.9289     0.021972961
       2382.5777     0.038452842
       2383.2264     0.029357933
       2383.8752    0.0059666385
       2384.5240    0.0094247532
       2385.1727     0.033597899
       2385.8215     0.010940594
       2386.4702     0.045248717
       2387.1190     0.017017834
       2387.7678     0.011750802
       2388.4165    0.0043546733
       2389.0653     0.014766178
       2389.7141    -0.024990731
       2390.3628     0.023761529
       2391.0116     0.013769879
       2391.6603    0.0031486819
       2392.3091     0.023260292
       2392.9579     0.027257925
       2393.6066    0.0097234041
       2394.2554     0.017205915
       2394.9042     0.023958926
       2395.5529     0.018748641
       2396.2017    0.0025533753
       2396.8504     0.046242533
       2397.4992     0.043050248
       2398.1480    -0.014830507
       2398.7967     0.037193100
       2399.4455     0.038302007
       2400.0943     0.038466187
       2400.7430     0.026221988
       2401.3918     0.027778772
       2402.0405     0.029139359
       2402.6893     0.044244330
       2403.3381     0.023027444
       2403.9868    0.0082199681
       2404.6356     0.024738083
       2405.2844    0.0070252335
       2405.9331     0.028412295
       2406.5819     0.015075180
       2407.2306     0.015803743
       2407.8794     0.021280099
       2408.5282     0.037760953
       2409.1769     0.036679692
       2409.8257   -0.0043778651
       2410.4745     0.038086066
       2411.1232     0.071573947
       2411.7720     0.021869476
       2412.4207     0.013306554
       2413.0695     0.012642161
       2413.7183     0.022540699
       2414.3670     0.015337841
       2415.0158     0.040261148
       2415.6646     0.040995312
       2416.3133     0.034113223
       2416.9621     0.045913556
       2417.6108     0.039838187
       2418.2596     0.025489812
       2418.9084     0.046133595
       2419.5571     0.050588400
       2420.2059     0.045950615
       2420.8547     0.022207328
       2421.5034     0.011911755
       2422.1522    0.0049443077
       2422.8009     0.013905305
       2423.4497     0.022569627
       2424.0985     0.014162121
       2424.7472     0.013392344
       2425.3960     0.017053694
       2426.0448   -0.0057759543
       2426.6935     0.016666135
       2427.3423     0.014788649
       2427.9910     0.032026483
       2428.6398     0.017651443
       2429.2886     0.036818487
       2429.9373    0.0083548114
       2430.5861     0.033941983
       2431.2349     0.036909174
       2431.8836     0.041899396
       2432.5324     0.022905649
       2433.1811     0.015368909
       2433.8299     0.049241650
       2434.4787     0.052952236
       2435.1274     0.016172712
       2435.7762     0.048833543
       2436.4250     0.026597076
       2437.0737     0.021490480
       2437.7225     0.038144371
       2438.3712     0.030060300
       2439.0200     0.027400295
       2439.6688     0.028975009
       2440.3175     0.032955488
       2440.9663     0.053374965
       2441.6151     0.019854912
       2442.2638     0.022333890
       2442.9126     0.010704476
       2443.5613     0.030269974
       2444.2101     0.043598932
       2444.8589     0.020199333
       2445.5076     0.039774475
       2446.1564     0.036974901
       2446.8052     0.022753462
       2447.4539     0.027137271
       2448.1027     0.031109226
       2448.7514     0.038130070
       2449.4002     0.038561560
       2450.0490     0.021765033
       2450.6977     0.024394008
       2451.3465     0.058194038
       2451.9953     0.025093722
       2452.6440  -2.4206953e-05
       2453.2928     0.046468278
       2453.9415     0.062950709
       2454.5903     0.037712485
       2455.2391     0.043742671
       2455.8878     0.027521252
       2456.5366     0.034209054
       2457.1854     0.028609655
       2457.8341     0.059264578
       2458.4829     0.020908526
       2459.1316     0.047154998
       2459.7804     0.062362109
       2460.4292     0.050587885
       2461.0779     0.031193834
       2461.7267     0.028367360
       2462.3755     0.035873272
       2463.0242    0.0040861148
       2463.6730     0.024782013
       2464.3217     0.035851249
       2464.9705     0.039550087
       2465.6193     0.036792145
       2466.2680     0.034384854
       2466.9168     0.043377104
       2467.5656     0.027005033
       2468.2143     0.043715792
       2468.8631     0.034065193
       2469.5118     0.028055085
       2470.1606     0.031339764
       2470.8094     0.045306392
       2471.4581     0.028584066
       2472.1069     0.055956673
       2472.7557     0.028666012
       2473.4044     0.032066195
       2474.0532     0.026677900
       2474.7019     0.030572434
       2475.3507    0.0097188917
       2475.9995     0.034783664
       2476.6482     0.050842024
       2477.2970     0.022248768
       2477.9458     0.040967727
       2478.5945     0.029420865
       2479.2433   -0.0048693061
       2479.8920     0.029720635
       2480.5408     0.031406715
       2481.1896     0.028681415
       2481.8383     0.034120280
       2482.4871     0.029623273
       2483.1359     0.038893849
       2483.7846     0.037446178
       2484.4334     0.035401165
       2485.0821     0.041658186
       2485.7309    0.0043285019
       2486.3797    0.0050065070
       2487.0284    0.0069144606
       2487.6772     0.011841362
       2488.3260   -0.0014989564
       2488.9747     0.027257417
       2489.6235     0.059262338
       2490.2722     0.011887963
       2490.9210     0.016749426
       2491.5698     0.022173693
       2492.2185    0.0083102416
       2492.8673     0.012142545
       2493.5161     0.011979791
       2494.1648   -0.0024926420
       2494.8136     0.018612433
       2495.4623     0.037985654
       2496.1111     0.041343454
       2496.7599     0.042296962
       2497.4086     0.026416549
       2498.0574     0.016788355
       2498.7062     0.025957895
       2499.3549     0.029898643
       2500.0037    0.0065387810
       2500.6524     0.019796633
       2501.3012     0.027984584
       2501.9500     0.039649256
       2502.5987     0.041649931
       2503.2475     0.022152817
       2503.8963     0.012038835
       2504.5450     0.029873528
       2505.1938     0.031741976
       2505.8425     0.054384185
       2506.4913     0.036582028
       2507.1401     0.040987328
       2507.7888     0.028787505
       2508.4376    0.0082986647
       2509.0864     0.046862249
       2509.7351     0.025179159
       2510.3839    0.0041855562
       2511.0326     0.025432774
       2511.6814     0.099958626
       2512.3302     0.049173010
       2512.9789     0.079284191
       2513.6277     0.048136335
       2514.2765     0.026147882
       2514.9252    0.0087400225
       2515.5740     0.012984289
       2516.2227     0.014970934
       2516.8715     0.034183189
       2517.5203     0.052570229
       2518.1690     0.039118904
       2518.8178     0.030262787
       2519.4666    0.0088694050
       2520.1153    0.0073544397
       2520.7641     0.029220542
       2521.4128     0.021209083
       2522.0616     0.052416981
       2522.7104     0.037749702
       2523.3591     0.031358219
       2524.0079    0.0037178553
       2524.6567     0.029909905
       2525.3054     0.041263943
       2525.9542    0.0090025901
       2526.6029     0.013280318
       2527.2517     0.013679458
       2527.9005     0.019426311
       2528.5492     0.023234620
       2529.1980     0.034397070
       2529.8468     0.035019644
       2530.4955     0.023634654
       2531.1443     0.054493196
       2531.7930     0.012576480
       2532.4418     0.033561979
       2533.0906     0.011394945
       2533.7393     0.033284164
       2534.3881     0.033379951
       2535.0369    0.0086535811
       2535.6856     0.037626315
       2536.3344     0.032667745
       2536.9831     0.027430032
       2537.6319     0.045376499
       2538.2807     0.015905045
       2538.9294     0.014748672
       2539.5782     0.022398452
       2540.2270     0.023517038
       2540.8757     0.022336964
       2541.5245     0.024440247
       2542.1732     0.046214570
       2542.8220     0.036696193
       2543.4708     0.044653185
       2544.1195     0.032651902
       2544.7683    -0.012058462
       2545.4171     0.019032205
       2546.0658     0.018976139
       2546.7146     0.016177158
       2547.3633     0.022329833
       2548.0121     0.018756753
       2548.6609     0.039588666
       2549.3096   -0.0051919544
       2549.9584     0.022650334
       2550.6072     0.041615873
       2551.2559     0.025091345
       2551.9047     0.068581246
       2552.5534     0.026016564
       2553.2022     0.031816428
       2553.8510     0.032937895
       2554.4997     0.019091670
       2555.1485     0.021677038
       2555.7973    0.0022069147
       2556.4460     0.040194279
       2557.0948     0.036394479
       2557.7435     0.028402111
       2558.3923     0.056411681
       2559.0411     0.015591402
       2559.6898     0.031288734
       2560.3386     0.020662675
       2560.9874     0.032156264
       2561.6361     0.034180480
       2562.2849     0.045244721
       2562.9336     0.027636090
       2563.5824     0.029725049
       2564.2312    0.0011944607
       2564.8799     0.024088729
       2565.5287     0.049742020
       2566.1775     0.083988886
       2566.8262     0.039067105
       2567.4750     0.024537759
       2568.1237     0.044290426
       2568.7725     0.038443129
       2569.4213     0.038629192
       2570.0700     0.065653261
       2570.7188     0.056303558
       2571.3676     0.031750292
       2572.0163     0.047346451
       2572.6651     0.020102817
       2573.3138     0.037689975
       2573.9626     0.032035408
       2574.6114     0.063823074
       2575.2601     0.010140928
       2575.9089     0.025408366
       2576.5577     0.049540255
       2577.2064     0.036285011
       2577.8552     0.017530151
       2578.5039     0.012901359
       2579.1527     0.027754546
       2579.8015     0.036841764
       2580.4502     0.021643981
       2581.0990     0.041248088
       2581.7478     0.045649196
       2582.3965     0.036275767
       2583.0453     0.038022119
       2583.6940     0.062723222
       2584.3428     0.013145096
       2584.9916   -0.0025459821
       2585.6403     0.056174349
       2586.2891     0.031497001
       2586.9379     0.028088229
       2587.5866     0.037178452
       2588.2354     0.025374186
       2588.8841     0.030213087
       2589.5329    0.0080617549
       2590.1817    0.0055357357
       2590.8304     0.066144532
       2591.4792     0.048555847
       2592.1280    0.0025295348
       2592.7767     0.056029181
       2593.4255     0.022581465
       2594.0742   -0.0022138822
       2594.7230     0.027156814
       2595.3718     0.044802891
       2596.0205     0.032380519
       2596.6693     0.048768959
       2597.3181     0.011418864
       2597.9668     0.010695117
       2598.6156     0.023104525
       2599.2643   -0.0087341595
       2599.9131   -0.0082196455
       2600.5619     0.015118952
       2601.2106     0.040380730
       2601.8594     0.030493005
       2602.5082     0.014568562
       2603.1569     0.031490101
       2603.8057     0.024914677
       2604.4544     0.012253948
       2605.1032     0.046293370
       2605.7520     0.064406656
       2606.4007     0.039718882
       2607.0495  -0.00061524689
       2607.6983     0.014521714
       2608.3470    0.0086482453
       2608.9958     0.049034328
       2609.6446     0.014728444
       2610.2933     0.025913159
       2610.9421   0.00077391583
       2611.5908     0.028614351
       2612.2396     0.021624696
       2612.8884     0.024696455
       2613.5371    -0.011645988
       2614.1859    0.0024716912
       2614.8347     0.020068363
       2615.4834   -0.0030143991
       2616.1322    0.0080204389
       2616.7809    0.0057317072
       2617.4297    0.0067669094
       2618.0785     0.043149296
       2618.7272   0.00075473099
       2619.3760     0.026736131
       2620.0248     0.036866316
       2620.6735     0.031789516
       2621.3223     0.028014299
       2621.9710     0.011920730
       2622.6198     0.014615233
       2623.2686     0.014663670
       2623.9173     0.038309189
       2624.5661     0.043333417
       2625.2149     0.033553574
       2625.8636     0.043160166
       2626.5124     0.033853165
       2627.1611     0.025851683
       2627.8099     0.041553335
       2628.4587     0.056956316
       2629.1074     0.039561774
       2629.7562     0.025403137
       2630.4050     0.018758240
       2631.0537     0.021324687
       2631.7025     0.029846869
       2632.3512     0.012948797
       2633.0000    0.0043587245
       2633.6488     0.032026241
       2634.2975    0.0063799158
       2634.9463    -0.017848220
       2635.5951     0.038876870
       2636.2438     0.025127984
       2636.8926     0.024194771
       2637.5413     0.028517158
       2638.1901     0.024498535
       2638.8389    0.0091193941
       2639.4876     0.033411679
       2640.1364     0.060142090
       2640.7852     0.088273314
       2641.4339     0.057427408
       2642.0827     0.033366097
       2642.7314     0.033765270
       2643.3802     0.014340008
       2644.0290     0.021709143
       2644.6777    0.0071065331
       2645.3265     0.038967422
       2645.9753     0.042526128
       2646.6240     0.044103724
       2647.2728     0.036463924
       2647.9215     0.065588292
       2648.5703     0.068593163
       2649.2191     0.060473574
       2649.8678     0.052707413
       2650.5166     0.031844851
       2651.1654     0.020251402
       2651.8141     0.051580131
       2652.4629     0.092551840
       2653.1116     0.010751389
       2653.7604     0.031057938
       2654.4092     0.056243690
       2655.0579     0.062174103
       2655.7067     0.036037276
       2656.3555     0.039320051
       2657.0042     0.040220243
       2657.6530     0.064005579
       2658.3017     0.032464557
       2658.9505     0.034540689
       2659.5993   0.00011187996
       2660.2480     0.036471841
       2660.8968     0.042215697
       2661.5456     0.035229609
       2662.1943     0.022744593
       2662.8431     0.025273663
       2663.4918     0.048674455
       2664.1406     0.064815679
       2664.7894  -0.00024394323
       2665.4381    0.0098679851
       2666.0869     0.059789717
       2666.7357     0.025465265
       2667.3844  -6.5933503e-05
       2668.0332     0.035444052
       2668.6819     0.061525868
       2669.3307     0.045648584
       2669.9795     0.038827435
       2670.6282     0.028710119
       2671.2770     0.033343000
       2671.9258     0.034877853
       2672.5745     0.061277765
       2673.2233     0.039797137
       2673.8720     0.066412703
       2674.5208     0.046769501
       2675.1696     0.035847261
       2675.8183     0.025484193
       2676.4671     0.028038813
       2677.1159   -0.0024984588
       2677.7646     0.013695533
       2678.4134     0.055192740
       2679.0621     0.038990696
       2679.7109     0.040164564
       2680.3597     0.056408381
       2681.0084     0.033693495
       2681.6572     0.045299773
       2682.3060     0.050215147
       2682.9547     0.021327793
       2683.6035    0.0080025340
       2684.2522     0.015344121
       2684.9010     0.029591324
       2685.5498     0.059877773
       2686.1985     0.045196459
       2686.8473     0.045548805
       2687.4961     0.044787241
       2688.1448     0.040788095
       2688.7936     0.025286147
       2689.4423     0.040115365
       2690.0911     0.016137794
       2690.7399     0.057632105
       2691.3886     0.017214128
       2692.0374     0.046881590
       2692.6862     0.043025695
       2693.3349     0.031716203
       2693.9837     0.036501749
       2694.6324    0.0043278763
       2695.2812   -0.0063685555
       2695.9300     0.053229079
       2696.5787     0.073451902
       2697.2275     0.048525747
       2697.8763    0.0073027172
       2698.5250     0.019053837
       2699.1738     0.043943847
       2699.8225     0.027633163
       2700.4713    0.0014191550
       2701.1201     0.058698189
       2701.7688     0.051488954
       2702.4176     0.021064447
       2703.0664    0.0015264905
       2703.7151     0.035666874
       2704.3639     0.025607077
       2705.0126     0.043780022
       2705.6614     0.060237516
       2706.3102     0.028740847
       2706.9589     0.029520132
       2707.6077     0.034243217
       2708.2565     0.045497661
       2708.9052  -0.00062981912
       2709.5540     0.040689081
       2710.2027     0.024175719
       2710.8515     0.025880068
       2711.5003     0.053899662
       2712.1490     0.045584314
       2712.7978     0.038464237
       2713.4466     0.059273425
       2714.0953   -0.0015337234
       2714.7441     0.024859063
       2715.3928     0.012648408
       2716.0416     0.025381056
       2716.6904     0.041463505
       2717.3391     0.034797859
       2717.9879     0.025396024
       2718.6367   -0.0086316506
       2719.2854     0.038222277
       2719.9342     0.031067047
       2720.5829     0.035714593
       2721.2317     0.026493994
       2721.8805     0.014084931
       2722.5292     0.036294317
       2723.1780     0.012901632
       2723.8268     0.017968390
       2724.4755     0.016621024
       2725.1243     0.015672248
       2725.7730     0.016858106
       2726.4218     0.029959089
       2727.0706     0.035791180
       2727.7193     0.051291241
       2728.3681     0.022649080
       2729.0169     0.042782861
       2729.6656     0.028434212
       2730.3144    0.0086024276
       2730.9631     0.062140682
       2731.6119     0.050375675
       2732.2607     0.029756116
       2732.9094     0.045785643
       2733.5582     0.060596385
       2734.2070     0.058216531
       2734.8557     0.047043241
       2735.5045     0.075659828
       2736.1532     0.054966387
       2736.8020     0.045519432
       2737.4508     0.041635623
       2738.0995     0.014495773
       2738.7483    0.0017355040
       2739.3971     0.037608599
       2740.0458     0.030978531
       2740.6946     0.045912081
       2741.3433     0.040429733
       2741.9921     0.012761058
       2742.6409     0.023210548
       2743.2896     0.024751484
       2743.9384     0.017379158
       2744.5872     0.025732642
       2745.2359     0.042337724
       2745.8847     0.026830000
       2746.5334     0.018995348
       2747.1822    0.0046522032
       2747.8310     0.049581252
       2748.4797     0.054376892
       2749.1285     0.058984723
       2749.7773     0.034274736
       2750.4260     0.016610799
       2751.0748     0.040899778
       2751.7235     0.031078178
       2752.3723     0.063936867
       2753.0211     0.042799259
       2753.6698     0.074148137
       2754.3186     0.039127014
       2754.9674     0.063489388
       2755.6161     0.050634323
       2756.2649     0.035570954
       2756.9136     0.051583467
       2757.5624     0.048649221
       2758.2112     0.060342581
       2758.8599     0.049609781
       2759.5087     0.023528478
       2760.1575     0.034222141
       2760.8062     0.061048312
       2761.4550     0.011415854
       2762.1037     0.022664237
       2762.7525     0.035870521
       2763.4013     0.022220353
       2764.0500     0.055455683
       2764.6988     0.059032167
       2765.3476     0.037550107
       2765.9963     0.051927412
       2766.6451     0.033726774
       2767.2938     0.042380620
       2767.9426     0.056179704
       2768.5914     0.017723394
       2769.2401     0.031808272
       2769.8889     0.032654002
       2770.5377     0.021786426
       2771.1864     0.053996103
       2771.8352     0.043932734
       2772.4839     0.039296319
       2773.1327     0.035187084
       2773.7815     0.051155558
       2774.4302     0.067899992
       2775.0790     0.066212974
       2775.7278     0.060711172
       2776.3765    0.0081230524
       2777.0253     0.024176044
       2777.6740     0.040367689
       2778.3228     0.062026686
       2778.9716     0.068474364
       2779.6203     0.058251252
       2780.2691     0.033574707
       2780.9179     0.056773529
       2781.5666     0.030937943
       2782.2154     0.043294524
       2782.8641     0.034679698
       2783.5129     0.023060657
       2784.1617     0.039545104
       2784.8104     0.021713265
       2785.4592     0.024331058
       2786.1080     0.026833388
       2786.7567     0.035470278
       2787.4055     0.045034139
       2788.0542     0.036802027
       2788.7030     0.033899029
       2789.3518     0.058292968
       2790.0005     0.067007191
       2790.6493     0.014957377
       2791.2981     0.013315287
       2791.9468     0.031237558
       2792.5956     0.029254321
       2793.2443     0.012758220
       2793.8931     0.064736858
       2794.5419     0.053418269
       2795.1906     0.022367221
       2795.8394     0.040598506
       2796.4882     0.047890411
       2797.1369     0.023442233
       2797.7857     0.029549837
       2798.4344     0.034848768
       2799.0832     0.035886432
       2799.7320     0.032710593
       2800.3807     0.013580790
       2801.0295     0.027622146
       2801.6783     0.039325509
       2802.3270    0.0065970296
       2802.9758     0.032306831
       2803.6245     0.060189831
       2804.2733     0.040471455
       2804.9221     0.016394425
       2805.5708     0.012933217
       2806.2196    0.0077807689
       2806.8684     0.029075420
       2807.5171    0.0024165166
       2808.1659   -0.0084032137
       2808.8146     0.011262580
       2809.4634    0.0070911006
       2810.1122     0.037086034
       2810.7609   0.00029751694
       2811.4097     0.024324194
       2812.0585     0.040682108
       2812.7072     0.011201028
       2813.3560     0.039750126
       2814.0047   -0.0028393191
       2814.6535     0.043050120
       2815.3023     0.057477855
       2815.9510     0.023973221
       2816.5998     0.016485153
       2817.2486     0.044885137
       2817.8973     0.049491854
       2818.5461     0.051729747
       2819.1948     0.046316915
       2819.8436     0.040175934
       2820.4924     0.059584761
       2821.1411     0.062697142
       2821.7899     0.036072326
       2822.4387     0.026870083
       2823.0874     0.010028216
       2823.7362     0.019225658
       2824.3849     0.037504895
       2825.0337     0.046544550
       2825.6825     0.024046812
       2826.3312     0.049866857
       2826.9800     0.041408168
       2827.6288     0.030641440
       2828.2775     0.046491451
       2828.9263     0.043921037
       2829.5750     0.031377802
       2830.2238     0.043188383
       2830.8726     0.015365507
       2831.5213     0.030771513
       2832.1701     0.022744804
       2832.8189     0.023471086
       2833.4676     0.033461950
       2834.1164     0.031809580
       2834.7651     0.031762623
       2835.4139     0.031791595
       2836.0627     0.031677988
       2836.7114     0.024084345
       2837.3602     0.030128225
       2838.0090     0.061285934
       2838.6577     0.043644496
       2839.3065     0.028620351
       2839.9552     0.034277447
       2840.6040     0.059462066
       2841.2528     0.027581997
       2841.9015     0.034376141
       2842.5503     0.031901821
       2843.1991     0.022724128
       2843.8478     0.050286382
       2844.4966     0.040565332
       2845.1453     0.017126324
       2845.7941     0.026467194
       2846.4429     0.035875491
       2847.0916     0.018697805
       2847.7404    0.0074336080
       2848.3892     0.044622014
       2849.0379     0.069782095
       2849.6867     0.044275453
       2850.3354     0.028090705
       2850.9842     0.032648213
       2851.6330     0.049279163
       2852.2817     0.041753029
       2852.9305     0.043471057
       2853.5793     0.028766245
       2854.2280     0.050960966
       2854.8768     0.054175504
       2855.5255     0.034298176
       2856.1743     0.013819009
       2856.8231     0.033186504
       2857.4718     0.033505873
       2858.1206     0.010340351
       2858.7694     0.041668857
       2859.4181     0.019562235
       2860.0669     0.020702624
       2860.7156     0.045409226
       2861.3644     0.039847185
       2862.0132   -0.0048790731
       2862.6619     0.035713553
       2863.3107     0.028411449
       2863.9595     0.039133853
       2864.6082     0.031674654
       2865.2570     0.017912776
       2865.9057     0.027451645
       2866.5545     0.050270578
       2867.2033     0.052177363
       2867.8520     0.042950649
       2868.5008     0.020718275
       2869.1496     0.031511660
       2869.7983     0.055508666
       2870.4471    0.0094956444
       2871.0958     0.038277703
       2871.7446     0.029685548
       2872.3934     0.019741261
       2873.0421   -0.0060614094
       2873.6909     0.017109048
       2874.3397     0.054863284
       2874.9884     0.058901060
       2875.6372     0.044577629
       2876.2859     0.017413041
       2876.9347     0.045736542
       2877.5835    0.0099668529
       2878.2322     0.033453260
       2878.8810     0.037501584
       2879.5298     0.043579716
       2880.1785     0.060071374
       2880.8273     0.051723110
       2881.4760     0.052227574
       2882.1248     0.015074176
       2882.7736     0.017365895
       2883.4223     0.039429938
       2884.0711     0.031693008
       2884.7199     0.028877547
       2885.3686     0.038691361
       2886.0174     0.022103287
       2886.6661     0.022220865
       2887.3149     0.014735010
       2887.9637     0.032240941
       2888.6124     0.054752971
       2889.2612     0.037161501
       2889.9100     0.048589798
       2890.5587     0.037911759
       2891.2075     0.015529626
       2891.8562     0.057964375
       2892.5050     0.058531117
       2893.1538     0.065289704
       2893.8025     0.046210311
       2894.4513     0.034663693
       2895.1001     0.045577044
       2895.7488     0.060620501
       2896.3976     0.069491277
       2897.0463     0.078976397
       2897.6951     0.045334518
       2898.3439     0.036452979
       2898.9926     0.058438236
       2899.6414     0.031766408
       2900.2902     0.028282891
       2900.9389     0.038979474
       2901.5877     0.046337169
       2902.2364     0.020405311
       2902.8852     0.048355561
       2903.5340     0.027795015
       2904.1827     0.026057016
       2904.8315     0.045180828
       2905.4803     0.033543350
       2906.1290     0.040347612
       2906.7778     0.039269957
       2907.4265     0.051127924
       2908.0753     0.071399736
       2908.7241     0.054401860
       2909.3728     0.033772026
       2910.0216     0.066193970
       2910.6704     0.033179301
       2911.3191     0.042127987
       2911.9679     0.035555400
       2912.6166     0.035741999
       2913.2654     0.019051041
       2913.9142     0.034381739
       2914.5629     0.028840337
       2915.2117     0.011630644
       2915.8605     0.015951879
       2916.5092     0.014091482
       2917.1580     0.053382967
       2917.8067     0.032542688
       2918.4555     0.045042426
       2919.1043     0.025824759
       2919.7530     0.033560005
       2920.4018     0.054869104
       2921.0506     0.056087516
       2921.6993     0.026514144
       2922.3481     0.014824315
       2922.9968     0.028407469
       2923.6456     0.066784470
       2924.2944     0.015484279
       2924.9431     0.051625484
       2925.5919     0.036964734
       2926.2407     0.053050119
       2926.8894     0.040781433
       2927.5382     0.042853935
       2928.1869     0.058364211
       2928.8357     0.059606066
       2929.4845     0.049941991
       2930.1332     0.094236680
       2930.7820     0.041467374
       2931.4308     0.023435146
       2932.0795     0.014998729
       2932.7283     0.031920593
       2933.3770     0.042515372
       2934.0258     0.011290836
       2934.6746    0.0081295017
       2935.3233     0.022193296
       2935.9721     0.042039239
       2936.6209     0.035746446
       2937.2696     0.037480506
       2937.9184     0.050723194
       2938.5671     0.030580770
       2939.2159     0.051168682
       2939.8647     0.054655209
       2940.5134     0.049431677
       2941.1622     0.023413037
       2941.8110     0.057245905
       2942.4597     0.031202777
       2943.1085     0.035665509
       2943.7572     0.053954601
       2944.4060     0.063416203
       2945.0548     0.050103718
       2945.7035     0.015296564
       2946.3523     0.024991448
       2947.0011     0.057806265
       2947.6498     0.020943022
       2948.2986     0.049373076
       2948.9473     0.026389936
       2949.5961     0.023076830
       2950.2449    0.0053874307
       2950.8936     0.051857020
       2951.5424     0.071053641
       2952.1912     0.035855691
       2952.8399     0.067904704
       2953.4887     0.036768587
       2954.1374     0.068697201
       2954.7862     0.040661594
       2955.4350     0.021637287
       2956.0837     0.037474925
       2956.7325     0.053796159
       2957.3813     0.029885337
       2958.0300     0.025104869
       2958.6788     0.042778633
       2959.3275     0.037002959
       2959.9763     0.039792649
       2960.6251     0.016902370
       2961.2738     0.024674464
       2961.9226     0.041827212
       2962.5714     0.064616262
       2963.2201     0.052615178
       2963.8689     0.040854326
       2964.5176     0.024633248
       2965.1664     0.027390541
       2965.8152     0.055445585
       2966.4639     0.069973857
       2967.1127     0.034782473
       2967.7615     0.018963592
       2968.4102     0.026488078
       2969.0590     0.052303775
       2969.7077     0.024062183
       2970.3565     0.025505265
       2971.0053     0.030410200
       2971.6540     0.039433385
       2972.3028     0.036834187
       2972.9516     0.039637955
       2973.6003     0.057686429
       2974.2491     0.053217341
       2974.8978     0.013497125
       2975.5466    0.0089286050
       2976.1954     0.061437760
       2976.8441     0.039985376
       2977.4929     0.043202088
       2978.1417     0.039050357
       2978.7904     0.028661271
       2979.4392     0.048071137
       2980.0879     0.026739106
       2980.7367     0.010025664
       2981.3855     0.029644614
       2982.0342    0.0095471810
       2982.6830     0.026985979
       2983.3318     0.027970450
       2983.9805     0.047933861
       2984.6293     0.046094912
       2985.2780    0.0088690645
       2985.9268     0.036689463
       2986.5756     0.016442097
       2987.2243     0.042996072
       2987.8731     0.038935087
       2988.5219     0.030360073
       2989.1706    0.0091338418
       2989.8194     0.017319355
       2990.4681     0.022385866
       2991.1169     0.025124555
       2991.7657     0.060789144
       2992.4144     0.056773900
       2993.0632     0.045951042
       2993.7120     0.026602951
       2994.3607     0.018268427
       2995.0095     0.024879423
       2995.6582     0.036878091
       2996.3070     0.042611079
       2996.9558     0.047283814
       2997.6045     0.049312240
       2998.2533     0.042588556
       2998.9021     0.021797292
       2999.5508     0.025001298
       3000.1996     0.034155563
       3000.8483     0.032387955
       3001.4971     0.018927963
       3002.1459     0.034478747
       3002.7946     0.048832310
       3003.4434     0.070141514
       3004.0922     0.048711340
       3004.7409     0.033598910
       3005.3897     0.018872263
       3006.0384     0.028585356
       3006.6872     0.031508611
       3007.3360     0.032343444
       3007.9847     0.030131796
       3008.6335     0.032533647
       3009.2823     0.017149600
       3009.9310    0.0097040995
       3010.5798     0.039252410
       3011.2285     0.058283104
       3011.8773     0.011128793
       3012.5261     0.018900561
       3013.1748     0.034071526
       3013.8236     0.035131662
       3014.4724     0.036415928
       3015.1211     0.027462192
       3015.7699     0.040457489
       3016.4186     0.035574223
       3017.0674     0.031810971
       3017.7162     0.048209121
       3018.3649     0.045421981
       3019.0137     0.048783734
       3019.6625     0.043648556
       3020.3112     0.030259657
       3020.9600     0.051871183
       3021.6087     0.057788104
       3022.2575     0.037350734
       3022.9063     0.041283095
       3023.5550     0.074186037
       3024.2038     0.058664011
       3024.8526     0.031811185
       3025.5013     0.044773546
       3026.1501     0.045171169
       3026.7988     0.057806432
       3027.4476     0.061151511
       3028.0964     0.061123793
       3028.7451     0.042295711
       3029.3939     0.043100725
       3030.0427     0.063852368
       3030.6914     0.039280579
       3031.3402     0.034892232
       3031.9889     0.028588727
       3032.6377     0.035826169
       3033.2865     0.030543898
       3033.9352     0.053325930
       3034.5840     0.054372917
       3035.2328     0.027207319
       3035.8815    0.0023227319
       3036.5303     0.044754938
       3037.1790     0.052545649
       3037.8278     0.059329379
       3038.4766    -0.010694654
       3039.1253    -0.017524569
       3039.7741     0.024597664
       3040.4229     0.036512870
       3041.0716     0.037389689
       3041.7204     0.028355727
       3042.3691     0.032321244
       3043.0179     0.034693943
       3043.6667     0.025093711
       3044.3154    0.0047226663
       3044.9642     0.034762464
       3045.6130     0.031436009
       3046.2617     0.033557193
       3046.9105     0.056077426
       3047.5592     0.051116909
       3048.2080     0.044679065
       3048.8568     0.086232561
       3049.5055     0.075694263
       3050.1543     0.039198042
       3050.8031     0.073253562
       3051.4518     0.070458970
       3052.1006     0.037179696
       3052.7493     0.015768898
       3053.3981     0.036989914
       3054.0469     0.017327673
       3054.6956     0.038166818
       3055.3444     0.048214996
       3055.9932     0.054100786
       3056.6419     0.045692241
       3057.2907     0.061195301
       3057.9394     0.034701253
       3058.5882     0.037898090
       3059.2370     0.033618021
       3059.8857     0.050339781
       3060.5345     0.078878347
       3061.1833     0.060757029
       3061.8320     0.037281746
       3062.4808     0.043955931
       3063.1295     0.035638982
       3063.7783     0.077485547
       3064.4271     0.041356779
       3065.0758     0.025136372
       3065.7246     0.035927274
       3066.3734     0.052997258
       3067.0221     0.034229746
       3067.6709     0.058361901
       3068.3196     0.050956365
       3068.9684     0.047968447
       3069.6172     0.081591828
       3070.2659     0.068886072
       3070.9147     0.041793211
       3071.5635     0.041726771
       3072.2122     0.013980834
       3072.8610    0.0068785540
       3073.5097     0.021721345
       3074.1585     0.051864723
       3074.8073     0.060174277
       3075.4560     0.048168455
       3076.1048     0.067239125
       3076.7536     0.051415186
       3077.4023     0.035529701
       3078.0511     0.022632269
       3078.6998     0.034193374
       3079.3486     0.020984422
       3079.9974    0.0061375500
       3080.6461     0.043886278
       3081.2949     0.047629286
       3081.9437     0.026541619
       3082.5924     0.023634248
       3083.2412     0.031133719
       3083.8899     0.021039575
       3084.5387     0.044357815
       3085.1875     0.077436207
       3085.8362     0.054568164
       3086.4850     0.060488254
       3087.1338     0.065625035
       3087.7825     0.040013766
       3088.4313     0.043023513
       3089.0800     0.041722009
       3089.7288    0.0050753565
       3090.3776     0.061481389
       3091.0263     0.047065937
       3091.6751     0.025909912
       3092.3239     0.017814507
       3092.9726     0.031933671
       3093.6214     0.032991878
       3094.2701     0.037179639
       3094.9189     0.059780581
       3095.5677     0.046905474
       3096.2164     0.039655965
       3096.8652     0.030314228
       3097.5140     0.028857473
       3098.1627     0.035468044
       3098.8115     0.025616001
       3099.4602     0.031306020
       3100.1090     0.073770899
       3100.7578     0.031120441
       3101.4065     0.037210814
       3102.0553     0.042794304
       3102.7041     0.050370395
       3103.3528     0.037445355
       3104.0016     0.024765087
       3104.6503     0.040127279
       3105.2991     0.044146488
       3105.9479     0.016551727
       3106.5966     0.035114236
       3107.2454     0.045726645
       3107.8942     0.042466340
       3108.5429     0.022683013
       3109.1917    0.0029499001
       3109.8404     0.028959204
       3110.4892     0.057353252
       3111.1380     0.044314241
       3111.7867     0.010243387
       3112.4355     0.042146895
       3113.0843     0.030726344
       3113.7330     0.025008947
       3114.3818     0.036466471
       3115.0305     0.032803658
       3115.6793     0.026730252
       3116.3281     0.036247292
       3116.9768     0.020247012
       3117.6256     0.035616136
       3118.2744     0.039589072
       3118.9231     0.034703892
       3119.5719     0.053780670
       3120.2206     0.023075122
       3120.8694     0.042526347
       3121.5182     0.023973278
       3122.1669     0.017197174
       3122.8157     0.061476512
       3123.4645     0.038530977
       3124.1132     0.032357250
       3124.7620     0.040017677
       3125.4107     0.069846715
       3126.0595     0.075034289
       3126.7083     0.045265922
       3127.3570     0.052847947
       3128.0058     0.053133306
       3128.6546     0.021249871
       3129.3033     0.025300325
       3129.9521     0.035087423
       3130.6008     0.040401043
       3131.2496     0.039973148
       3131.8984     0.039978809
       3132.5471     0.045879951
       3133.1959     0.059178959
       3133.8447     0.052234712
       3134.4934     0.051997617
       3135.1422     0.036841910
       3135.7909     0.046137108
       3136.4397     0.037340256
       3137.0885     0.049915845
       3137.7372     0.040114185
       3138.3860     0.020329806
       3139.0348     0.045141495
       3139.6835     0.063083111
       3140.3323     0.056652682
       3140.9810     0.046292234
       3141.6298     0.023230268
       3142.2786     0.019058936
       3142.9273     0.041296513
       3143.5761     0.044409881
       3144.2249     0.043073149
       3144.8736     0.037963723
       3145.5224     0.047229533
       3146.1711     0.014290782
       3146.8199     0.020220044
       3147.4687     0.028512255
       3148.1174     0.034638759
       3148.7662     0.058954316
       3149.4150     0.049612041
       3150.0637     0.026726916
       3150.7125     0.042328703
       3151.3612     0.057231282
       3152.0100     0.032243665
       3152.6588     0.061546240
       3153.3075     0.059669338
       3153.9563     0.035011624
       3154.6051     0.053746126
       3155.2538     0.056703043
       3155.9026     0.045517271
       3156.5513     0.030775677
       3157.2001     0.077199206
       3157.8489     0.073409743
       3158.4976     0.032783780
       3159.1464     0.039330246
       3159.7952     0.022626869
       3160.4439     0.035903530
       3161.0927     0.046217926
       3161.7414     0.045199302
       3162.3902     0.038241515
       3163.0390     0.047828701
       3163.6877     0.065817886
       3164.3365     0.089725373
       3164.9853     0.044544893
       3165.6340     0.050364444
       3166.2828     0.041358192
       3166.9315     0.016263303
       3167.5803     0.019062005
       3168.2291     0.033015024
       3168.8778     0.044654145
       3169.5266     0.041814822
       3170.1754     0.073099175
       3170.8241     0.051130453
       3171.4729     0.041420201
       3172.1216     0.055447589
       3172.7704     0.073121591
       3173.4192     0.069848293
       3174.0679     0.048854578
       3174.7167     0.031493174
       3175.3655     0.035728141
       3176.0142     0.038313374
       3176.6630     0.022319878
       3177.3117     0.049932984
       3177.9605     0.052053757
       3178.6093     0.084321146
       3179.2580     0.043852029
       3179.9068     0.025125482
       3180.5556     0.039282591
       3181.2043     0.049625449
       3181.8531     0.042480322
       3182.5018     0.052079029
       3183.1506     0.039957227
       3183.7994     0.036900939
       3184.4481     0.027454053
       3185.0969    0.0090216180
       3185.7457     0.015430052
       3186.3944     0.054773918
       3187.0432     0.031581722
       3187.6919   -0.0019807842
       3188.3407     0.031509354
       3188.9895     0.017743174
       3189.6382     0.039680513
       3190.2870     0.038414309
       3190.9358     0.034969663
       3191.5845     0.049705122
       3192.2333     0.038228794
       3192.8820     0.050508885
       3193.5308     0.055057220
       3194.1796     0.051987484
       3194.8283     0.043289263
       3195.4771     0.026704813
       3196.1259     0.055624764
       3196.7746     0.065732315
       3197.4234     0.058015191
       3198.0721     0.039538150
       3198.7209     0.037408043
       3199.3697     0.043324873
       3200.0184     0.042732483
       3200.6672     0.049768440
       3201.3160     0.040326380
       3201.9647     0.035063428
       3202.6135     0.044188960
       3203.2622     0.046172764
       3203.9110     0.046423574
       3204.5598     0.050249915
       3205.2085     0.028438080
       3205.8573    0.0088956368
       3206.5061     0.061207378
       3207.1548     0.037472869
       3207.8036     0.018687969
       3208.4524     0.060974863
       3209.1011     0.075951363
       3209.7499     0.060136330
       3210.3986     0.051278818
       3211.0474     0.033697798
       3211.6962     0.014752804
       3212.3449    0.0089279626
       3212.9937     0.034818535
       3213.6425     0.033950892
       3214.2912     0.029457390
       3214.9400     0.022014941
       3215.5887     0.037022221
       3216.2375     0.052290055
       3216.8863     0.069981140
       3217.5350     0.069513223
       3218.1838     0.063822746
       3218.8326     0.024259962
       3219.4813     0.038368577
       3220.1301     0.076723741
       3220.7788     0.086844141
       3221.4276     0.071342431
       3222.0764     0.066044433
       3222.7251     0.054394189
       3223.3739     0.040857861
       3224.0227     0.035924256
       3224.6714     0.046495892
       3225.3202     0.049802369
       3225.9689     0.061168596
       3226.6177     0.051826970
       3227.2665     0.032634832
       3227.9152     0.043824534
       3228.5640     0.053658073
       3229.2128     0.057840183
       3229.8615     0.083008623
       3230.5103     0.073870182
       3231.1590     0.023925938
       3231.8078    0.0078435872
       3232.4566     0.028489352
       3233.1053     0.045579449
       3233.7541     0.011622033
       3234.4029     0.057118030
       3235.0516     0.021238920
       3235.7004    -0.013422479
       3236.3491    0.0051603608
       3236.9979     0.048499778
       3237.6467     0.065109145
       3238.2954     0.059896930
       3238.9442     0.013397117
       3239.5930     0.014578334
       3240.2417     0.031473218
       3240.8905     0.041194536
       3241.5392     0.020974378
       3242.1880     0.022380499
       3242.8368     0.057045903
       3243.4855     0.069410232
       3244.1343     0.085642671
       3244.7831     0.068382776
       3245.4318     0.066485209
       3246.0806     0.059755287
       3246.7293     0.042793084
       3247.3781     0.020832588
       3248.0269     0.044957588
       3248.6756     0.087161716
       3249.3244     0.077388366
       3249.9732     0.065224348
       3250.6219     0.045827518
       3251.2707     0.059774109
       3251.9194     0.028292654
       3252.5682     0.026521941
       3253.2170     0.042467456
       3253.8657     0.063138109
       3254.5145     0.038124856
       3255.1633     0.028987324
       3255.8120     0.055505116
       3256.4608     0.042099192
       3257.1095     0.011698353
       3257.7583     0.016591264
       3258.4071     0.043785202
       3259.0558     0.061356947
       3259.7046     0.055656058
       3260.3534     0.057997234
       3261.0021     0.034315138
       3261.6509     0.050966304
       3262.2996     0.037915425
       3262.9484     0.027190325
       3263.5972     0.046470410
       3264.2459     0.030760500
       3264.8947     0.033186721
       3265.5435     0.046019665
       3266.1922     0.076368475
       3266.8410     0.068614861
       3267.4897     0.051296427
       3268.1385     0.028407150
       3268.7873     0.062857372
       3269.4360     0.047302012
       3270.0848     0.041701386
       3270.7336     0.054170364
       3271.3823     0.060775463
       3272.0311     0.046159104
       3272.6798     0.091601998
       3273.3286     0.093536798
       3273.9774      0.11401090
       3274.6261     0.093920205
       3275.2749     0.057113816
       3275.9237     0.042430456
       3276.5724     0.031244819
       3277.2212     0.028627729
       3277.8699     0.041368162
       3278.5187     0.023321541
       3279.1675     0.016640423
       3279.8162     0.041041690
       3280.4650     0.042522143
       3281.1138     0.050972888
       3281.7625     0.027704339
       3282.4113     0.060075615
       3283.0600     0.082804167
       3283.7088     0.064602318
       3284.3576     0.039443384
       3285.0063     0.029744826
       3285.6551     0.040114266
       3286.3039     0.051490688
       3286.9526     0.043684114
       3287.6014     0.042818406
       3288.2501     0.039367460
       3288.8989     0.041561020
       3289.5477     0.038783580
       3290.1964     0.022073175
       3290.8452     0.016318210
       3291.4940     0.029863631
       3292.1427     0.023670535
       3292.7915     0.073082617
       3293.4402     0.080167938
       3294.0890     0.085795176
       3294.7378     0.035986899
       3295.3865    -0.014786917
       3296.0353    0.0044477513
       3296.6841     0.054263602
       3297.3328     0.066420572
       3297.9816     0.054934503
       3298.6303     0.070235536
       3299.2791     0.044750594
       3299.9279     0.062139111
       3300.5766     0.066674316
       3301.2254     0.034496057
       3301.8742     0.016620012
       3302.5229     0.072237070
       3303.1717     0.054607604
       3303.8204     0.041850824
       3304.4692     0.095200196
       3464.7474     0.031531362
       3465.4622      0.24796501
       3466.1769     0.088635927
       3466.8916      0.21836044
       3467.6064      0.42850736
       3468.3211      0.14975563
       3469.0359      0.12475083
       3469.7506      0.13005730
       3470.4653     0.028040025
       3471.1801      0.17726709
       3471.8948     0.091676333
       3472.6096     0.061932001
       3473.3243      0.30029884
       3474.0391      0.24244885
       3474.7538      0.24434083
       3475.4685      0.14556722
       3476.1833     0.040289290
       3476.8980     0.041227461
       3477.6128      0.15963641
       3478.3275     0.086214037
       3479.0422      0.14368318
       3479.7570      0.15559259
       3480.4717     0.086012922
       3481.1865     0.077600854
       3481.9012      0.22256669
       3482.6160      0.18724769
       3483.3307      0.13717795
       3484.0454     0.076241127
       3484.7602      0.15922560
       3485.4749      0.11737209
       3486.1897      0.23532065
       3486.9044      0.24006166
       3487.6191      0.19553246
       3488.3339      0.21301044
       3489.0486     0.058606251
       3489.7634      0.10259733
       3490.4781      0.27410091
       3491.1928    -0.020932305
       3491.9076     0.047809411
       3492.6223      0.10188312
       3493.3371      0.27329428
       3494.0518      0.10023859
       3494.7666      0.15750765
       3495.4813      0.16032692
       3496.1960      0.16120907
       3496.9108      0.29149616
       3497.6255     0.043018179
       3498.3403     0.010747522
       3499.0550      0.16965266
       3499.7697      0.24391935
       3500.4845      0.18315566
       3501.1992      0.15353109
       3501.9140      0.26718484
       3502.6287      0.10802143
       3503.3435      0.17093112
       3504.0582      0.21402985
       3504.7729      0.15188438
       3505.4877      0.11557028
       3506.2024      0.14379813
       3506.9172      0.20343476
       3507.6319      0.11391143
       3508.3466      0.29173314
       3509.0614      0.21877085
       3509.7761      0.16910378
       3510.4909      0.11432644
       3511.2056      0.14942016
       3511.9204      0.30574367
       3512.6351      0.18105245
       3513.3498      0.13690659
       3514.0646      0.10862401
       3514.7793      0.17007340
       3515.4941      0.24128161
       3516.2088      0.23755429
       3516.9235     -0.15976859
       3517.6383    0.0088722705
       3518.3530      0.10764612
       3519.0678      0.17958028
       3519.7825      0.35298376
       3520.4972      0.24792797
       3521.2120      0.19887434
       3521.9267      0.38998161
       3522.6415      0.14061482
       3523.3562     0.045504123
       3524.0710      0.21235107
       3524.7857     0.088329706
       3525.5004      0.11434646
       3526.2152     0.065275652
       3526.9299      0.13644537
       3527.6447      0.20265005
       3528.3594      0.22996023
       3529.0741      0.13084703
       3529.7889     0.053194055
       3530.5036      0.20049386
       3531.2184      0.18994631
       3531.9331      0.20459975
       3532.6479      0.21342474
       3533.3626      0.15529152
       3534.0773     0.040629923
       3534.7921      0.13079689
       3535.5068     0.062379844
       3536.2216   -0.0026835134
       3536.9363    -0.031499772
       3537.6510     0.093907069
       3538.3658      0.14018941
       3539.0805      0.12633660
       3539.7953      0.10137547
       3540.5100      0.17721066
       3541.2247      0.12364166
       3541.9395     0.066964527
       3542.6542      0.18279497
       3543.3690      0.17760014
       3544.0837     0.080698999
       3544.7985      0.17765201
       3545.5132      0.18655764
       3546.2279      0.13405368
       3546.9427      0.14446285
       3547.6574      0.22153477
       3548.3722     0.025148063
       3549.0869      0.12100111
       3549.8016      0.10010280
       3550.5164     0.099543365
       3551.2311      0.18174656
       3551.9459      0.20235979
       3552.6606      0.10927893
       3553.3754      0.25330560
       3554.0901      0.13596001
       3554.8048      0.20067823
       3555.5196      0.13168499
       3556.2343      0.17607879
       3556.9491      0.12265453
       3557.6638     0.064108879
       3558.3785     0.084807006
       3559.0933     0.094708669
       3559.8080     0.091664062
       3560.5228      0.22027895
       3561.2375    -0.015503704
       3561.9523      0.13622229
       3562.6670     0.085479109
       3563.3817      0.14831512
       3564.0965      0.25152306
       3564.8112      0.22811837
       3565.5260      0.14842718
       3566.2407     0.062963308
       3566.9554      0.12698066
       3567.6702      0.12820476
       3568.3849     0.042402444
       3569.0997      0.11427052
       3569.8144     0.067218313
       3570.5291      0.13373984
       3571.2439      0.10234891
       3571.9586      0.21067777
       3572.6734     0.092840322
       3573.3881      0.14556585
       3574.1029      0.13359177
       3574.8176      0.17036907
       3575.5323     0.077382555
       3576.2471      0.10497116
       3576.9618      0.17096232
       3577.6766      0.18320096
       3578.3913      0.12494064
       3579.1060     0.057224953
       3579.8208     0.093690552
       3580.5355      0.13864471
       3581.2503      0.11844049
       3581.9650     -0.10028641
       3582.6798      0.19166666
       3583.3945      0.16738211
       3584.1092     0.082176242
       3584.8240     0.031505215
       3585.5387      0.17460111
       3586.2535      0.18549933
       3586.9682      0.15413733
       3587.6829      0.14308994
       3588.3977      0.17374925
       3589.1124      0.17677099
       3589.8272     0.054586226
       3590.5419     0.073065856
       3591.2566      0.10937037
       3591.9714     0.065516537
       3592.6861      0.17523392
       3593.4009      0.30308236
       3594.1156      0.18189326
       3594.8304     0.056240693
       3595.5451     0.072328773
       3596.2598     0.022014976
       3596.9746     0.060439743
       3597.6893     0.039410905
       3598.4041     0.086781433
       3599.1188     0.067215558
       3599.8335      0.14774994
       3600.5483      0.10606072
       3601.2630      0.12577905
       3601.9778     0.070884585
       3602.6925      0.14762342
       3603.4073      0.25090325
       3604.1220      0.11461575
       3604.8367      0.14037569
       3605.5515      0.20682995
       3606.2662      0.12237040
       3606.9810      0.11492437
       3607.6957      0.16569664
       3608.4104     0.066345915
       3609.1252      0.22689275
       3609.8399      0.24731353
       3610.5547      0.15718939
       3611.2694      0.19009460
       3611.9842      0.17934199
       3612.6989     0.091013883
       3613.4136      0.18951837
       3614.1284      0.24399546
       3614.8431      0.21894628
       3615.5579      0.18054346
       3616.2726      0.14999968
       3616.9873      0.10862999
       3617.7021     0.063154775
       3618.4168      0.11160933
       3619.1316      0.12109596
       3619.8463      0.16762663
       3620.5610     0.051551841
       3621.2758      0.15436785
       3621.9905      0.25149308
       3622.7053      0.25165607
       3623.4200      0.16612797
       3624.1348      0.18567541
       3624.8495      0.22717509
       3625.5642      0.17580698
       3626.2790     0.034583036
       3626.9937      0.13420770
       3627.7085      0.19689057
       3628.4232     0.064494607
       3629.1379     0.026475444
       3629.8527      0.17294369
       3630.5674     0.067626565
       3631.2822      0.14989283
       3631.9969      0.20211164
       3632.7117      0.15077005
       3633.4264      0.13157907
       3634.1411      0.27461068
       3634.8559      0.21634672
       3635.5706      0.15649444
       3636.2854      0.13332260
       3637.0001     0.064677478
       3637.7148     0.078733166
       3638.4296      0.14599975
       3639.1443      0.14414009
       3639.8591     0.048453504
       3640.5738     0.024975105
       3641.2885      0.16066579
       3642.0033      0.20739036
       3642.7180      0.22042508
       3643.4328      0.25336731
       3644.1475      0.23793712
       3644.8623      0.15780878
       3645.5770      0.12236339
       3646.2917      0.17769153
       3647.0065      0.19081248
       3647.7212      0.21457091
       3648.4360      0.21514057
       3649.1507      0.14210314
       3649.8654      0.13026250
       3650.5802     0.074953643
       3651.2949      0.11313791
       3652.0097      0.11330877
       3652.7244     0.096860172
       3653.4392      0.16251422
       3654.1539      0.22878582
       3654.8686      0.19965573
       3655.5834      0.30204490
       3656.2981      0.21348563
       3657.0129      0.16566631
       3657.7276      0.19851883
       3658.4423      0.21485478
       3659.1571      0.25020605
       3659.8718      0.20289005
       3660.5866     0.081802369
       3661.3013     0.096899046
       3662.0160      0.11289714
       3662.7308     0.088512171
       3663.4455      0.14570569
       3664.1603      0.22127209
       3664.8750      0.17428495
       3665.5898      0.17193050
       3666.3045      0.19627231
       3667.0192      0.22034406
       3667.7340      0.14263656
       3668.4487      0.16801121
       3669.1635     0.068143760
       3669.8782     0.098741319
       3670.5929     0.058614324
       3671.3077      0.12080130
       3672.0224     0.080813214
       3672.7372      0.14464198
       3673.4519      0.23080620
       3674.1667      0.16981613
       3674.8814      0.23388686
       3675.5961      0.21032018
       3676.3109      0.20733945
       3677.0256      0.17096677
       3677.7404     0.097927932
       3678.4551      0.20834512
       3679.1698      0.17118780
       3679.8846      0.10792838
       3680.5993   0.00026604256
       3681.3141     0.099054449
       3682.0288     0.088653643
       3682.7436      0.14201559
       3683.4583      0.16190462
       3684.1730      0.10750262
       3684.8878      0.11097881
       3685.6025      0.24182977
       3686.3173      0.30796054
       3687.0320      0.19489065
       3687.7467      0.11012140
       3688.4615      0.12021031
       3689.1762      0.11494892
       3689.8910      0.13950975
       3690.6057      0.23719734
       3691.3204      0.10876728
       3692.0352      0.11584625
       3692.7499      0.18530761
       3693.4647      0.14525836
       3694.1794     0.087821413
       3694.8942     0.047070126
       3695.6089     0.072844003
       3696.3236      0.12021210
       3697.0384      0.16912170
       3697.7531      0.12904365
       3698.4679      0.15664291
       3699.1826      0.25952287
       3699.8973      0.14058879
       3700.6121      0.21744441
       3701.3268      0.24443555
       3702.0416      0.30298852
       3702.7563      0.20767048
       3703.4711      0.19493094
       3704.1858      0.20779736
       3704.9005      0.14109855
       3705.6153      0.15218913
       3706.3300      0.17567842
       3707.0448      0.14476271
       3707.7595      0.23072123
       3708.4742      0.27624595
       3709.1890      0.18605444
       3709.9037     0.076598479
       3710.6185     0.062744952
       3711.3332      0.12565624
       3712.0479      0.16565601
       3712.7627      0.11165072
       3713.4774      0.29579535
       3714.1922      0.21262332
       3714.9069     0.074652523
       3715.6217      0.19914071
       3716.3364      0.23647208
       3717.0511      0.19214910
       3717.7659      0.15035698
       3718.4806      0.16336958
       3719.1954     0.037857212
       3719.9101      0.11344812
       3720.6248      0.15007686
       3721.3396      0.12876835
       3722.0543     0.017827598
       3722.7691     0.056011249
       3723.4838      0.14468621
       3724.1986      0.27777567
       3724.9133      0.47522811
       3725.6280      0.55360066
       3726.3428      0.66418574
       3727.0575      0.73132525
       3727.7723      0.68913459
       3728.4870      0.68972984
       3729.2017      0.58585363
       3729.9165      0.47155038
       3730.6312      0.46476373
       3731.3460      0.33970319
       3732.0607      0.33341651
       3732.7755      0.33783840
       3733.4902      0.18785720
       3734.2049      0.13671444
       3734.9197      0.26761326
       3735.6344      0.18598753
       3736.3492      0.25457159
       3737.0639      0.30944253
       3737.7786      0.18169824
       3738.4934      0.17497008
       3739.2081      0.12613078
       3739.9229     0.069424255
       3740.6376      0.17011947
       3741.3523      0.19927039
       3742.0671      0.10993074
       3742.7818      0.14660708
       3743.4966      0.14391998
       3744.2113      0.17547290
       3744.9261      0.17582415
       3745.6408     0.069823034
       3746.3555      0.10513641
       3747.0703      0.18528590
       3747.7850      0.21794195
       3748.4998      0.15813015
       3749.2145     0.071726996
       3749.9292     0.036198693
       3750.6440     0.092381096
       3751.3587      0.13662388
       3752.0735      0.22061443
       3752.7882      0.21177028
       3753.5030      0.23024957
       3754.2177      0.27027402
       3754.9324      0.13618252
       3755.6472      0.12959134
       3756.3619      0.16815379
       3757.0767      0.12680293
       3757.7914     0.049332998
       3758.5061     0.044626252
       3759.2209      0.19394654
       3759.9356      0.21575036
       3760.6504      0.28976624
       3761.3651      0.42581920
       3762.0798      0.28285523
       3762.7946      0.24885949
       3763.5093      0.14901161
       3764.2241      0.18028365
       3764.9388      0.23274051
       3765.6536      0.25039564
       3766.3683      0.28346680
       3767.0830      0.22130043
       3767.7978      0.24801447
       3768.5125      0.22019726
       3769.2273      0.23056411
       3769.9420      0.16442607
       3770.6567      0.11566048
       3771.3715      0.12768537
       3772.0862     0.077242492
       3772.8010      0.24157630
       3773.5157      0.55214890
       3774.2305      0.72155379
       3774.9452      0.37029431
       3775.6599      0.13907117
       3776.3747    -0.039394235
       3777.0894     0.093383013
       3777.8042     0.053617358
       3778.5189     0.077863723
       3779.2336      0.20468509
       3779.9484      0.24069104
       3780.6631      0.18784988
       3781.3779      0.21562657
       3782.0926      0.29858015
       3782.8074      0.19482175
       3783.5221      0.20335730
       3784.2368      0.17187193
       3784.9516      0.24945157
       3785.6663      0.25014929
       3786.3811      0.19045358
       3787.0958      0.20119122
       3787.8105      0.20305611
       3788.5253      0.17499394
       3789.2400      0.28576987
       3789.9548      0.23783418
       3790.6695      0.27636635
       3791.3842      0.30340869
       3792.0990      0.26495856
       3792.8137      0.22282649
       3793.5285      0.25314253
       3794.2432      0.17284510
       3794.9580      0.22874601
       3795.6727      0.20135594
       3796.3874      0.15073924
       3797.1022      0.12667508
       3797.8169      0.16410441
       3798.5317      0.14512922
       3799.2464      0.14055832
       3799.9611      0.17783047
       3800.6759      0.10757574
       3801.3906     0.058702887
       3802.1054      0.16957526
       3802.8201     0.095677496
       3803.5349      0.10837215
       3804.2496      0.18399084
       3804.9643      0.20917556
       3805.6791      0.25579135
       3806.3938      0.19611182
       3807.1086      0.19992453
       3807.8233      0.23744596
       3808.5380      0.20768853
       3809.2528      0.23818649
       3809.9675      0.30446089
       3810.6823      0.31359969
       3811.3970      0.18181073
       3812.1117     0.066970732
       3812.8265      0.28302317
       3813.5412      0.35222476
       3814.2560      0.10802627
       3814.9707     0.081423298
       3815.6855      0.12544858
       3816.4002      0.16564340
       3817.1149     0.063704254
       3817.8297      0.27342982
       3818.5444      0.31838304
       3819.2592      0.20490113
       3819.9739      0.25931159
       3820.6886      0.27777171
       3821.4034      0.19046894
       3822.1181      0.27045229
       3822.8329      0.29248232
       3823.5476      0.19449412
       3824.2624      0.19937523
       3824.9771      0.17723112
       3825.6918      0.13557462
       3826.4066      0.20222560
       3827.1213      0.13965311
       3827.8361      0.15870136
       3828.5508      0.15707230
       3829.2655      0.23491516
       3829.9803      0.16501525
       3830.6950      0.16769701
       3831.4098      0.16914045
       3832.1245      0.15532567
       3832.8392      0.19943603
       3833.5540      0.22187029
       3834.2687      0.26935308
       3834.9835      0.24770352
       3835.6982      0.12849824
       3836.4130     0.082580257
       3837.1277      0.14494102
       3837.8424      0.16625314
       3838.5572      0.22941874
       3839.2719      0.22774867
       3839.9867      0.20604519
       3840.7014      0.22394676
       3841.4161      0.17077959
       3842.1309      0.20623086
       3842.8456      0.17822244
       3843.5604      0.16956535
       3844.2751      0.18826868
       3844.9899      0.17835083
       3845.7046      0.24807123
       3846.4193      0.28602090
       3847.1341      0.31682078
       3847.8488      0.28374770
       3848.5636      0.21727594
       3849.2783      0.24249945
       3849.9930      0.26488101
       3850.7078      0.19986221
       3851.4225      0.20759163
       3852.1373      0.14944624
       3852.8520      0.17721331
       3853.5668      0.24742946
       3854.2815      0.29214102
       3854.9962      0.19308880
       3855.7110      0.23711042
       3856.4257      0.26466319
       3857.1405      0.25007146
       3857.8552      0.27934871
       3858.5699      0.22922726
       3859.2847      0.28219745
       3859.9994      0.28805856
       3860.7142      0.33105377
       3861.4289      0.35697106
       3862.1436      0.35035368
       3862.8584      0.27115953
       3863.5731      0.19618046
       3864.2879      0.29235311
       3865.0026      0.25775316
       3865.7174      0.20549808
       3866.4321      0.20559263
       3867.1468      0.22592334
       3867.8616      0.34716359
       3868.5763      0.28076458
       3869.2911      0.27636874
       3870.0058      0.28673150
       3870.7205      0.25444270
       3871.4353      0.22160549
       3872.1500      0.20886100
       3872.8648      0.21713697
       3873.5795      0.27093728
       3874.2943      0.28352189
       3875.0090      0.25081169
       3875.7237      0.26239898
       3876.4385      0.28019816
       3877.1532      0.23667600
       3877.8680      0.23721802
       3878.5827      0.23774632
       3879.2974      0.35698679
       3880.0122      0.37255233
       3880.7269      0.27878293
       3881.4417      0.24251271
       3882.1564      0.20069624
       3882.8711      0.24350066
       3883.5859      0.16458516
       3884.3006      0.15684810
       3885.0154      0.19628570
       3885.7301      0.17520470
       3886.4449      0.19655354
       3887.1596      0.24884758
       3887.8743      0.25946748
       3888.5891      0.13586845
       3889.3038      0.12927533
       3890.0186    0.0043504183
       3890.7333     0.052013368
       3891.4480      0.22898694
       3892.1628      0.24779101
       3892.8775      0.24646460
       3893.5923      0.24255727
       3894.3070     0.063203515
       3895.0218     0.088295699
       3895.7365      0.16711644
       3896.4512      0.23185047
       3897.1660      0.28554896
       3897.8807      0.25505806
       3898.5955      0.19478622
       3899.3102      0.14688710
       3900.0249      0.15652873
       3900.7397      0.16763294
       3901.4544      0.17023059
       3902.1692      0.23786742
       3902.8839      0.26015302
       3903.5987      0.14469826
       3904.3134      0.20243409
       3905.0281      0.22218543
       3905.7429      0.33241045
       3906.4576      0.29356830
       3907.1724      0.29353798
       3907.8871      0.28990861
       3908.6018      0.27924338
       3909.3166      0.24286252
       3910.0313      0.26701660
       3910.7461      0.31387704
       3911.4608      0.29259448
       3912.1755      0.19162241
       3912.8903      0.20802819
       3913.6050      0.20739641
       3914.3198      0.27523784
       3915.0345      0.27040262
       3915.7493      0.21296010
       3916.4640      0.20211202
       3917.1787      0.33353816
       3917.8935      0.26177669
       3918.6082      0.27696085
       3919.3230      0.32196723
       3920.0377      0.37555917
       3920.7524      0.30610413
       3921.4672      0.26668497
       3922.1819      0.24239671
       3922.8967      0.29804448
       3923.6114      0.34470055
       3924.3262      0.31747596
       3925.0409      0.24861992
       3925.7556      0.25922063
       3926.4704      0.29195479
       3927.1851      0.28993899
       3927.8999      0.25038196
       3928.6146      0.31004457
       3929.3293      0.23590232
       3930.0441      0.22599550
       3930.7588      0.28662892
       3931.4736      0.26137793
       3932.1883      0.22243555
       3932.9030      0.22079052
       3933.6178      0.28681717
       3934.3325      0.26264130
       3935.0473      0.22853606
       3935.7620      0.15826189
       3936.4768     0.090057873
       3937.1915     0.079283890
       3937.9062     0.071222484
       3938.6210      0.16583036
       3939.3357      0.18877347
       3940.0505      0.13008811
       3940.7652     0.041290866
       3941.4799      0.12162846
       3942.1947      0.20859169
       3942.9094      0.19827159
       3943.6242     0.084999322
       3944.3389      0.21214241
       3945.0537      0.34682488
       3945.7684      0.23988524
       3946.4831      0.26367523
       3947.1979      0.33471316
       3947.9126      0.14472348
       3948.6274      0.15792122
       3949.3421      0.22754181
       3950.0568      0.27607296
       3950.7716      0.28821730
       3951.4863      0.31262192
       3952.2011      0.28194283
       3952.9158      0.26405207
       3953.6306      0.21698255
       3954.3453      0.21757215
       3955.0600      0.23157416
       3955.7748      0.29364353
       3956.4895      0.35062967
       3957.2043      0.24735522
       3957.9190      0.16072808
       3958.6337      0.20913096
       3959.3485      0.16786050
       3960.0632      0.19270958
       3960.7780      0.26604413
       3961.4927      0.27484431
       3962.2074      0.27352206
       3962.9222      0.17868106
       3963.6369      0.20213640
       3964.3517      0.31266773
       3965.0664      0.29003246
       3965.7812      0.26209309
       3966.4959      0.22335164
       3967.2106      0.16868658
       3967.9254      0.25221494
       3968.6401      0.26992850
       3969.3549      0.19423620
       3970.0696      0.16020884
       3970.7843      0.19462899
       3971.4991      0.20144227
       3972.2138      0.23578642
       3972.9286      0.18732677
       3973.6433      0.18143782
       3974.3581      0.12472414
       3975.0728      0.16126560
       3975.7875     0.094606826
       3976.5023     0.099170348
       3977.2170     0.046154911
       3977.9318      0.13101094
       3978.6465      0.22555075
       3979.3612      0.25957806
       3980.0760      0.13469362
       3980.7907      0.19219247
       3981.5055      0.19580286
       3982.2202      0.20818908
       3982.9349      0.12632206
       3983.6497      0.25232071
       3984.3644      0.23833901
       3985.0792      0.19114476
       3985.7939      0.20596438
       3986.5087      0.29512760
       3987.2234      0.29220692
       3987.9381      0.24521112
       3988.6529      0.22354286
       3989.3676      0.26231102
       3990.0824      0.30206394
       3990.7971      0.29813280
       3991.5118      0.27852871
       3992.2266      0.29954093
       3992.9413      0.33665718
       3993.6561      0.28742307
       3994.3708      0.25094526
       3995.0856      0.22149900
       3995.8003      0.37592455
       3996.5150      0.30455925
       3997.2298      0.29665601
       3997.9445      0.33765159
       3998.6593      0.32309286
       3999.3740      0.22049181
       4000.0887      0.20079406
       4000.8035      0.31988759
       4001.5182      0.27169697
       4002.2330      0.27213854
       4002.9477      0.25057439
       4003.6624      0.28113635
       4004.3772      0.25191885
       4005.0919      0.28488112
       4005.8067      0.31778870
       4006.5214      0.23348376
       4007.2362      0.27196103
       4007.9509      0.22923338
       4008.6656      0.19854825
       4009.3804      0.31598512
       4010.0951      0.21357114
       4010.8099      0.32050375
       4011.5246      0.26648447
       4012.2393      0.28819787
       4012.9541      0.31074164
       4013.6688      0.34838345
       4014.3836      0.29884818
       4015.0983      0.21345773
       4015.8131      0.26134164
       4016.5278      0.31854442
       4017.2425      0.28636583
       4017.9573      0.38233592
       4018.6720      0.23493863
       4019.3868      0.20917459
       4020.1015      0.27005554
       4020.8162      0.24738093
       4021.5310      0.19305561
       4022.2457      0.12895550
       4022.9605      0.14720045
       4023.6752      0.28856555
       4024.3900      0.39607368
       4025.1047      0.35013806
       4025.8194      0.36261578
       4026.5342      0.33118348
       4027.2489      0.22131410
       4027.9637      0.25165596
       4028.6784      0.28733229
       4029.3931      0.31487583
       4030.1079      0.27065764
       4030.8226      0.27244540
       4031.5374      0.32237916
       4032.2521      0.30192232
       4032.9668      0.24883061
       4033.6816      0.27169267
       4034.3963      0.31053248
       4035.1111      0.31028317
       4035.8258      0.26063243
       4036.5406      0.28218921
       4037.2553      0.26237350
       4037.9700      0.29867439
       4038.6848      0.37535126
       4039.3995      0.33203264
       4040.1143      0.26829874
       4040.8290      0.22847013
       4041.5437      0.32528096
       4042.2585      0.36086874
       4042.9732      0.28125265
       4043.6880      0.35185313
       4044.4027      0.43713445
       4045.1175      0.37390806
       4045.8322      0.30186271
       4046.5469      0.21464887
       4047.2617      0.25988658
       4047.9764      0.27282066
       4048.6912      0.26996938
       4049.4059      0.30674057
       4050.1206      0.37513868
       4050.8354      0.36855281
       4051.5501      0.32543723
       4052.2649      0.31672599
       4052.9796      0.33492157
       4053.6943      0.30934995
       4054.4091      0.25176364
       4055.1238      0.28033625
       4055.8386      0.26365969
       4056.5533      0.34149022
       4057.2681      0.26977197
       4057.9828      0.29454360
       4058.6975      0.40533254
       4059.4123      0.39652970
       4060.1270      0.31605204
       4060.8418      0.33546560
       4061.5565      0.33281538
       4062.2712      0.28355166
       4062.9860      0.22765822
       4063.7007      0.26191163
       4064.4155      0.33692635
       4065.1302      0.32263822
       4065.8450      0.34119583
       4066.5597      0.28385236
       4067.2744      0.32589637
       4067.9892      0.33507077
       4068.7039      0.18664076
       4069.4187      0.27154975
       4070.1334      0.30926462
       4070.8481      0.18143797
       4071.5629      0.28426215
       4072.2776      0.29424103
       4072.9924      0.26051642
       4073.7071      0.30629692
       4074.4219      0.34107376
       4075.1366      0.26655433
       4075.8513      0.33473993
       4076.5661      0.29137426
       4077.2808      0.27930927
       4077.9956      0.24858677
       4078.7103      0.25946438
       4079.4250      0.29070462
       4080.1398      0.26655534
       4080.8545      0.26526500
       4081.5693      0.29424210
       4082.2840      0.24964114
       4082.9987      0.22304409
       4083.7135      0.28413409
       4084.4282      0.37375742
       4085.1430      0.35513202
       4085.8577      0.35121438
       4086.5725      0.26512303
       4087.2872      0.23703137
       4088.0019      0.23775005
       4088.7167      0.24346560
       4089.4314      0.22249932
       4090.1462      0.14659742
       4090.8609      0.19888423
       4091.5756      0.24565879
       4092.2904      0.34432302
       4093.0051      0.29462185
       4093.7199      0.34233839
       4094.4346      0.30152373
       4095.1494      0.22554451
       4095.8641      0.12755692
       4096.5788      0.22577260
       4097.2936      0.26592668
       4098.0083      0.19899354
       4098.7231      0.35968325
       4099.4378      0.32510525
       4100.1525      0.28529452
       4100.8673      0.27216310
       4101.5820      0.28394171
       4102.2968      0.30422783
       4103.0115      0.32250771
       4103.7262      0.34953058
       4104.4410      0.24645616
       4105.1557      0.16758385
       4105.8705      0.32237726
       4106.5852      0.37627440
       4107.3000      0.14615200
       4108.0147      0.15897570
       4108.7294     0.074221705
       4109.4442      0.17784577
       4110.1589      0.23013163
       4110.8737      0.15076079
       4111.5884      0.19653251
       4112.3031      0.23703304
       4113.0179      0.28025732
       4113.7326      0.26481541
       4114.4474      0.25947817
       4115.1621      0.28891661
       4115.8769      0.23929740
       4116.5916      0.13373188
       4117.3063      0.18333996
       4118.0211      0.22858405
       4118.7358      0.22464558
       4119.4506      0.26275652
       4120.1653      0.27392817
       4120.8800      0.27460973
       4121.5948      0.21893607
       4122.3095      0.24860573
       4123.0243      0.20422058
       4123.7390      0.23391333
       4124.4538      0.15776050
       4125.1685      0.17392629
       4125.8832      0.23546984
       4126.5980      0.30578149
       4127.3127      0.18494431
       4128.0275      0.24134969
       4128.7422      0.22320615
       4129.4569      0.25130846
       4130.1717      0.20977122
       4130.8864      0.16903757
       4131.6012      0.19198193
       4132.3159      0.34884663
       4133.0306      0.29475350
       4133.7454      0.25576247
       4134.4601      0.29695027
       4135.1749      0.26333274
       4135.8896      0.19074535
       4136.6044      0.34021504
       4137.3191      0.36892902
       4138.0338      0.27719530
       4138.7486      0.21074851
       4139.4633      0.25474173
       4140.1781      0.29636309
       4140.8928      0.25636347
       4141.6075      0.14599402
       4142.3223      0.20869094
       4143.0370      0.31328767
       4143.7518      0.31704687
       4144.4665      0.36423732
       4145.1813      0.39311299
       4145.8960      0.31535321
       4146.6107      0.30766118
       4147.3255      0.31009652
       4148.0402      0.29813833
       4148.7550      0.27165206
       4149.4697      0.28308287
       4150.1844      0.28325226
       4150.8992      0.30380584
       4151.6139      0.32309761
       4152.3287      0.36370493
       4153.0434      0.37018851
       4153.7581      0.29913891
       4154.4729      0.24715783
       4155.1876      0.18805547
       4155.9024      0.15266406
       4156.6171      0.27885589
       4157.3319      0.39728636
       4158.0466      0.33241800
       4158.7613      0.12801746
       4159.4761      0.31636481
       4160.1908      0.18191071
       4160.9056      0.37261034
       4161.6203      0.35223655
       4162.3350      0.29870441
       4163.0498      0.25559670
       4163.7645      0.21388147
       4164.4793      0.28278854
       4165.1940      0.28746894
       4165.9088      0.32536920
       4166.6235      0.30526009
       4167.3382      0.27440449
       4168.0530      0.29690536
       4168.7677      0.34661152
       4169.4825      0.28468768
       4170.1972      0.32526399
       4170.9119      0.36277898
       4171.6267      0.26388834
       4172.3414      0.25522967
       4173.0562      0.28965404
       4173.7709      0.40285246
       4174.4856      0.31781259
       4175.2004      0.31362121
       4175.9151      0.42004441
       4176.6299      0.32036317
       4177.3446      0.31998176
       4178.0594      0.30534445
       4178.7741      0.32548731
       4179.4888      0.33286143
       4180.2036      0.37472684
       4180.9183      0.35422209
       4181.6331      0.32599569
       4182.3478      0.26896961
       4183.0625      0.28634249
       4183.7773      0.25250307
       4184.4920      0.26731250
       4185.2068      0.20705518
       4185.9215      0.27988495
       4186.6363      0.28604941
       4187.3510      0.25853662
       4188.0657      0.35329320
       4188.7805      0.38143217
       4189.4952      0.41283900
       4190.2100      0.39778383
       4190.9247      0.39038837
       4191.6394      0.37507082
       4192.3542      0.38331147
       4193.0689      0.37003210
       4193.7837      0.29160874
       4194.4984      0.34980068
       4195.2132      0.28377977
       4195.9279      0.42241308
       4196.6426      0.40792439
       4197.3574      0.31499321
       4198.0721      0.30046331
       4198.7869      0.32366384
       4199.5016      0.31853829
       4200.2163      0.32283488
       4200.9311      0.31980516
       4201.6458      0.32586930
       4202.3606      0.15187320
       4203.0753      0.23590490
       4203.7900      0.22216598
       4204.5048      0.26217205
       4205.2195      0.38571551
       4205.9343      0.35561310
       4206.6490      0.31552180
       4207.3638      0.41669409
       4208.0785      0.26247921
       4208.7932      0.31736635
       4209.5080      0.28133769
       4210.2227      0.22823001
       4210.9375      0.18816246
       4211.6522      0.19947888
       4212.3669      0.22644735
       4213.0817      0.21163037
       4213.7964      0.32761326
       4214.5112      0.22568210
       4215.2259      0.24674906
       4215.9407      0.22128051
       4216.6554      0.29510007
       4217.3701      0.31480628
       4218.0849      0.36925068
       4218.7996      0.35704527
       4219.5144      0.31053905
       4220.2291      0.35589061
       4220.9438      0.39001007
       4221.6586      0.39946404
       4222.3733      0.42226619
       4223.0881      0.39794137
       4223.8028      0.35490758
       4224.5175      0.41816898
       4225.2323      0.32243711
       4225.9470      0.26955948
       4226.6618      0.36623777
       4227.3765      0.38618535
       4228.0913      0.37509258
       4228.8060      0.27760136
       4229.5207      0.25757020
       4230.2355      0.29036859
       4230.9502      0.26918414
       4231.6650      0.30255851
       4232.3797      0.30427749
       4233.0944      0.40462591
       4233.8092      0.29365965
       4234.5239      0.27898676
       4235.2387      0.36910556
       4235.9534      0.32626952
       4236.6682      0.34868571
       4237.3829      0.30320872
       4238.0976      0.35663196
       4238.8124      0.30827869
       4239.5271      0.30506599
       4240.2419      0.25928625
       4240.9566      0.28332143
       4241.6713      0.37034256
       4242.3861      0.31460075
       4243.1008      0.26302805
       4243.8156      0.25415472
       4244.5303      0.36843415
       4245.2451      0.32623079
       4245.9598      0.31301348
       4246.6745      0.39764532
       4247.3893      0.24651164
       4248.1040      0.24792203
       4248.8188      0.27443617
       4249.5335      0.41023043
       4250.2482      0.27804052
       4250.9630      0.31151985
       4251.6777      0.41584252
       4252.3925      0.40192003
       4253.1072      0.37117656
       4253.8219      0.38919744
       4254.5367      0.26411072
       4255.2514      0.29497146
       4255.9662      0.24627831
       4256.6809      0.30174199
       4257.3957      0.30605335
       4258.1104      0.34320901
       4258.8251      0.32395477
       4259.5399      0.30422352
       4260.2546      0.31582900
       4260.9694      0.33062206
       4261.6841      0.17539076
       4262.3988      0.28729240
       4263.1136      0.28363397
       4263.8283      0.29887995
       4264.5431      0.35628704
       4265.2578      0.27945660
       4265.9726      0.22206288
       4266.6873      0.34070560
       4267.4020      0.30553481
       4268.1168      0.24207921
       4268.8315      0.37615679
       4269.5463      0.27412380
       4270.2610      0.31795978
       4270.9757      0.29914745
       4271.6905      0.26995042
       4272.4052      0.31648952
       4273.1200      0.35144744
       4273.8347      0.35474371
       4274.5494      0.35812979
       4275.2642      0.42159759
       4275.9789      0.37434474
       4276.6937      0.40422122
       4277.4084      0.33966744
       4278.1232      0.31633509
       4278.8379      0.32607458
       4279.5526      0.37026716
       4280.2674      0.45492546
       4280.9821      0.35905763
       4281.6969      0.28352232
       4282.4116      0.38472329
       4283.1263      0.36643526
       4283.8411      0.37061900
       4284.5558      0.42455232
       4285.2706      0.31716933
       4285.9853      0.38161233
       4286.7001      0.23705995
       4287.4148      0.34202892
       4288.1295      0.35604496
       4288.8443      0.27395496
       4289.5590      0.27778828
       4290.2738      0.28205018
       4290.9885      0.44856198
       4291.7032      0.31933070
       4292.4180      0.38562634
       4293.1327      0.37470384
       4293.8475      0.28339678
       4294.5622      0.36171381
       4295.2770      0.28112728
       4295.9917      0.27411014
       4296.7064      0.23023684
       4297.4212      0.29327659
       4298.1359      0.29495842
       4298.8507      0.29205674
       4299.5654      0.34096150
       4300.2801      0.27426323
       4300.9949      0.24887293
       4301.7096      0.32172219
       4302.4244      0.26913411
       4303.1391      0.34599284
       4303.8538      0.37326020
       4304.5686      0.25687732
       4305.2833      0.24360733
       4305.9981      0.20549102
       4306.7128      0.26788429
       4307.4276      0.28882690
       4308.1423      0.22925964
       4308.8570      0.28209993
       4309.5718      0.21545522
       4310.2865      0.26933418
       4311.0013      0.21521797
       4311.7160      0.29663317
       4312.4307      0.32661398
       4313.1455      0.19110085
       4313.8602      0.24984197
       4314.5750      0.21427947
       4315.2897      0.24992395
       4316.0045      0.24599574
       4316.7192      0.32836291
       4317.4339      0.34799047
       4318.1487      0.28528418
       4318.8634      0.36774447
       4319.5782      0.25874684
       4320.2929      0.24574068
       4321.0076      0.24857134
       4321.7224      0.25957369
       4322.4371      0.35800531
       4323.1519      0.15944146
       4323.8666      0.32397471
       4324.5813      0.23057239
       4325.2961      0.28204048
       4326.0108      0.26764363
       4326.7256      0.26834730
       4327.4403      0.26883729
       4328.1551      0.28366022
       4328.8698      0.33520459
       4329.5845      0.26234541
       4330.2993      0.25308227
       4331.0140      0.33098863
       4331.7288      0.28387879
       4332.4435      0.31707749
       4333.1582      0.30563203
       4333.8730      0.29320734
       4334.5877      0.34280353
       4335.3025      0.34410152
       4336.0172      0.28004994
       4336.7320      0.35979963
       4337.4467      0.37111093
       4338.1614      0.41925370
       4338.8762      0.33239661
       4339.5909      0.33881320
       4340.3057      0.28378604
       4341.0204      0.35361785
       4341.7351      0.22290757
       4342.4499      0.17161418
       4343.1646      0.29651903
       4343.8794      0.16097298
       4344.5941      0.24945175
       4345.3088      0.12709090
       4346.0236      0.27316184
       4346.7383      0.33313048
       4347.4531      0.28324096
       4348.1678      0.22136156
       4348.8826      0.24727314
       4349.5973     0.095121115
       4350.3120      0.45147069
       4351.0268      0.27001056
       4351.7415      0.31863489
       4352.4563      0.22398011
       4353.1710    0.0059702676
       4353.8857      0.25767814
       4354.6005      0.19376112
       4355.3152      0.18299946
       4356.0300      0.51621820
       4356.7447      0.51000902
       4357.4595      0.38179148
       4358.1742      0.23736634
       4358.8889      0.17967047
       4359.6037      0.13866729
       4360.3184      0.26256389
       4361.0332      0.15733111
       4361.7479      0.24552598
       4362.4626      0.22284209
       4363.1774      0.29415089
       4363.8921      0.33500642
       4364.6069      0.37705223
       4365.3216      0.33555071
       4366.0364      0.29269799
       4366.7511      0.33206698
       4367.4658      0.27952697
       4368.1806      0.28425663
       4368.8953      0.21812734
       4369.6101      0.41812177
       4370.3248      0.36296599
       4371.0395      0.35010101
       4371.7543      0.36878676
       4372.4690      0.39995412
       4373.1838      0.33939192
       4373.8985      0.28010289
       4374.6132      0.24985332
       4375.3280      0.45645399
       4376.0427      0.13299063
       4376.7575      0.31496670
       4377.4722      0.14089458
       4378.1870      0.30668402
       4378.9017      0.31905820
       4379.6164      0.49258073
       4380.3312      0.29868811
       4381.0459      0.21788252
       4381.7607      0.27502857
       4382.4754      0.22429995
       4383.1901      0.37140957
       4383.9049      0.19298594
       4384.6196      0.30908767
       4385.3344      0.34924397
       4386.0491      0.30366299
       4386.7639      0.19829113
       4387.4786      0.25387344
       4388.1933      0.43717195
       4388.9081      0.30857032
       4389.6228      0.26046147
       4390.3376      0.26127537
       4391.0523      0.26648156
       4391.7670      0.33119934
       4392.4818      0.27266056
       4393.1965      0.25374957
       4393.9113      0.25027688
       4394.6260      0.36009078
       4395.3407      0.36437213
       4396.0555      0.49343061
       4396.7702      0.33440966
       4397.4850      0.33729768
       4398.1997      0.34221508
       4398.9145      0.21492562
       4399.6292      0.32798322
       4400.3439      0.34300924
       4401.0587      0.35713661
       4401.7734      0.27214029
       4402.4882      0.32384828
       4403.2029      0.26156706
       4403.9176      0.25668245
       4404.6324      0.31196371
       4405.3471      0.37162156
       4406.0619      0.43919337
       4406.7766      0.39299025
       4407.4914      0.27094356
       4408.2061      0.27040333
       4408.9208      0.22943172
       4409.6356      0.32634420
       4410.3503      0.35290900
       4411.0651      0.32219615
       4411.7798      0.33625816
       4412.4945      0.42520212
       4413.2093      0.31177724
       4413.9240      0.29461679
       4414.6388      0.47744468
       4415.3535      0.25467224
       4416.0683      0.40813266
       4416.7830      0.17985768
       4417.4977      0.34875964
       4418.2125      0.37295017
       4418.9272      0.25811221
       4419.6420      0.39036699
       4420.3567      0.29378094
       4421.0714      0.20634879
       4421.7862      0.33621836
       4422.5009      0.26751155
       4423.2157      0.20940141
       4423.9304      0.39054426
       4424.6451      0.26308305
       4425.3599      0.42615520
       4426.0746      0.29695673
       4426.7894      0.26823815
       4427.5041      0.15965100
       4428.2189      0.39470921
       4428.9336      0.48351326
       4429.6483      0.41275379
       4430.3631      0.19637129
       4431.0778      0.33229724
       4431.7926      0.41890710
       4432.5073      0.38262186
       4433.2220      0.27731014
       4433.9368      0.26891628
       4434.6515      0.33323242
       4435.3663      0.33342907
       4436.0810      0.35096883
       4436.7958      0.37383459
       4437.5105      0.32137176
       4438.2252      0.34597460
       4438.9400      0.40326591
       4439.6547      0.42278729
       4440.3695      0.50350763
       4441.0842      0.41371395
       4441.7989      0.41714764
       4442.5137      0.33421541
       4443.2284      0.34605521
       4443.9432      0.36731370
       4444.6579      0.43422083
       4445.3726      0.33151070
       4446.0874      0.31518157
       4446.8021      0.29638307
       4447.5169      0.31814252
       4448.2316      0.31919005
       4448.9464      0.37849848
       4449.6611      0.37432438
       4450.3758      0.33975514
       4451.0906      0.27878198
       4451.8053      0.25684141
       4452.5201      0.44225179
       4453.2348      0.30998206
       4453.9495      0.36176067
       4454.6643      0.37520214
       4455.3790      0.39919636
       4456.0938      0.36152507
       4456.8085      0.39162269
       4457.5233      0.41058102
       4458.2380      0.44014305
       4458.9527      0.32914514
       4459.6675      0.34703635
       4460.3822      0.27163398
       4461.0970      0.40054835
       4461.8117      0.22295862
       4462.5264      0.34676672
       4463.2412      0.26118888
       4463.9559      0.38258917
       4464.6707      0.36294767
       4465.3854      0.22742248
       4466.1002      0.27927032
       4466.8149      0.33674958
       4467.5296      0.42334411
       4468.2444      0.42499416
       4468.9591      0.26336523
       4469.6739      0.29112792
       4470.3886      0.37684994
       4471.1033      0.22865226
       4471.8181      0.38870439
       4472.5328      0.39189682
       4473.2476      0.41346388
       4473.9623      0.26845378
       4474.6770      0.41073365
       4475.3918      0.38535368
       4476.1065      0.32483857
       4476.8213      0.23362085
       4477.5360      0.32358577
       4478.2508      0.22917622
       4478.9655      0.36087071
       4479.6802      0.30462592
       4480.3950      0.36940712
       4481.1097      0.37927777
       4481.8245      0.28751004
       4482.5392      0.32462492
       4483.2539      0.32287399
       4483.9687      0.29955564
       4484.6834      0.25995010
       4485.3982      0.28498825
       4486.1129      0.17990707
       4486.8277      0.25283904
       4487.5424      0.32914407
       4488.2571      0.24495700
       4488.9719      0.32836928
       4489.6866      0.35365199
       4490.4014      0.27405692
       4491.1161      0.48229137
       4491.8308      0.42967987
       4492.5456      0.25851690
       4493.2603      0.26984429
       4493.9751      0.51302148
       4494.6898      0.23498101
       4495.4045      0.40349436
       4496.1193      0.48166855
       4496.8340      0.34442438
       4497.5488      0.38255250
       4498.2635      0.31987243
       4498.9783     0.050125826
       4499.6930      0.25182216
       4500.4077      0.32703015
       4501.1225      0.31144706
       4501.8372      0.31302084
       4502.5520      0.33500080
       4503.2667      0.35893781
       4503.9814      0.41011360
       4504.6962      0.41665481
       4505.4109      0.38129853
       4506.1257      0.42670327
       4506.8404      0.38018857
       4507.5552      0.39522901
       4508.2699      0.20548499
       4508.9846      0.41089863
       4509.6994      0.25451878
       4510.4141      0.22995188
       4511.1289      0.36143856
       4511.8436      0.32244012
       4512.5583      0.31668490
       4513.2731      0.31958236
       4513.9878      0.31320418
       4514.7026      0.33887933
       4515.4173      0.28920762
       4516.1320      0.44475429
       4516.8468      0.41300589
       4517.5615      0.31549565
       4518.2763      0.29331917
       4518.9910      0.33015159
       4519.7058      0.42134070
       4520.4205      0.25786051
       4521.1352      0.28658320
       4521.8500      0.31161666
       4522.5647      0.39546673
       4523.2795      0.17349832
       4523.9942      0.28041837
       4524.7089      0.40555571
       4525.4237      0.14164298
       4526.1384      0.27663904
       4526.8532     0.021005395
       4527.5679      0.17132487
       4528.2827      0.34381234
       4528.9974      0.36437676
       4529.7121      0.29721066
       4530.4269      0.48792561
       4531.1416      0.40753288
       4531.8564      0.53229318
       4532.5711      0.22127670
       4533.2858      0.38993061
       4534.0006      0.31427704
       4534.7153      0.46262177
       4535.4301      0.37702259
       4536.1448      0.37603495
       4536.8596      0.34722112
       4537.5743      0.43418057
       4538.2890      0.32871415
       4539.0038      0.25297232
       4539.7185      0.30404401
       4540.4333      0.30650194
       4541.1480      0.29558470
       4541.8627      0.31494353
       4542.5775      0.23726423
       4543.2922      0.40593025
       4544.0070      0.43038347
       4544.7217      0.37164133
       4545.4364      0.40903529
       4546.1512      0.31813401
       4546.8659      0.33374396
       4547.5807      0.40478924
       4548.2954      0.26964347
       4549.0102      0.17873548
       4549.7249      0.40248135
       4550.4396      0.45001292
       4551.1544      0.42478865
       4551.8691      0.34712904
       4552.5839      0.39700477
       4553.2986      0.15273970
       4554.0133      0.44755796
       4554.7281      0.41891721
       4555.4428      0.39056318
       4556.1576      0.40295095
       4556.8723      0.43884603
       4557.5871      0.32499232
       4558.3018      0.35858670
       4559.0165      0.37740664
       4559.7313      0.43602551
       4560.4460      0.40993079
       4561.1608      0.37983169
       4561.8755      0.28803069
       4562.5902      0.44795936
       4563.3050      0.37514818
       4564.0197      0.30363778
       4564.7345      0.39835691
       4565.4492      0.27186269
       4566.1639      0.41930309
       4566.8787      0.23350004
       4567.5934      0.29832375
       4568.3082      0.14709159
       4569.0229      0.17802195
       4569.7377      0.19041985
       4570.4524      0.13332910
       4571.1671             NaN
       4571.8819             NaN
       4572.5966             NaN
       4573.3114             NaN
       4574.0261             NaN
       4574.7408             NaN
       4575.4556             NaN
       4576.1703             NaN
       4576.8851             NaN
       4577.5998             NaN
       4578.3146             NaN
       4579.0293             NaN
       4579.7440             NaN
       4580.4588             NaN
       4581.1735             NaN
       4581.8883             NaN
       4582.6030             NaN
       4583.3177             NaN
       4584.0325             NaN
       4584.7472             NaN
       4585.4620             NaN
       4586.1767             NaN
       4586.8915             NaN
       4587.6062             NaN
       4588.3209             NaN
       4589.0357             NaN
       4589.7504             NaN
       4590.4652             NaN
       4591.1799             NaN
       4591.8946             NaN
       4592.6094             NaN
       4593.3241             NaN
       4594.0389             NaN
       4594.7536             NaN
       4595.4683             NaN
       4596.1831             NaN
       4596.8978             NaN
       4597.6126             NaN
       4598.3273             NaN
       4599.0421             NaN
       4599.7568             NaN
       4600.4715             NaN
       4601.1863             NaN
       4601.9010             NaN
       4602.6158             NaN
       4603.3305             NaN
       4604.0452             NaN
       4604.7600             NaN
       4605.4747             NaN
       4606.1895             NaN
       4606.9042             NaN
       4607.6190             NaN
       4608.3337             NaN
       4609.0484             NaN
       4609.7632             NaN
       4610.4779             NaN
       4611.1927             NaN
       4611.9074             NaN
       4612.6221             NaN
       4613.3369             NaN
       4614.0516             NaN
       4614.7664             NaN
       4615.4811             NaN
       4616.1958             NaN
       4616.9106             NaN
       4617.6253             NaN
       4618.3401             NaN
       4619.0548             NaN
       4619.7696             NaN
       4620.4843             NaN
       4621.1990             NaN
       4621.9138             NaN
       4622.6285             NaN
       4623.3433             NaN
       4624.0580             NaN
       4624.7727             NaN
       4625.4875             NaN
       4626.2022             NaN
       4626.9170             NaN
       4627.6317             NaN
       4628.3465             NaN
       4629.0612             NaN
       4629.7759             NaN
       4630.4907             NaN
       4631.2054             NaN
       4631.9202             NaN
       4632.6349             NaN
       4633.3496             NaN
       4634.0644             NaN
       4634.7791      0.42574175
       4635.4939      0.34624267
       4636.2086      0.44337684
       4636.9234      0.33038116
       4637.6381      0.44184028
       4638.3528      0.41531703
       4639.0676     0.039562329
       4639.7823      0.38789298
       4640.4971      0.36956356
       4641.2118      0.10772332
       4641.9265      0.30473398
       4642.6413      0.33552239
       4643.3560      0.14699958
       4644.0708      0.21249695
       4644.7855      0.28818361
       4645.5002      0.47893916
       4646.2150      0.34612726
       4646.9297      0.40306214
       4647.6445      0.57195133
       4648.3592      0.40936026
       4649.0740      0.41063003
       4649.7887      0.34898832
       4650.5034      0.30199706
       4651.2182      0.37790190
       4651.9329      0.35480901
       4652.6477      0.26315732
       4653.3624      0.39794896
       4654.0771      0.40415666
       4654.7919      0.38868157
       4655.5066      0.47622156
       4656.2214      0.41578639
       4656.9361      0.34984588
       4657.6509      0.20166599
       4658.3656      0.20620480
       4659.0803      0.32374872
       4659.7951      0.36813998
       4660.5098      0.20431298
       4661.2246      0.41155504
       4661.9393      0.30085385
       4662.6540      0.38934418
       4663.3688      0.38367713
       4664.0835      0.44020092
       4664.7983      0.28434929
       4665.5130      0.30424477
       4666.2277      0.42469043
       4666.9425      0.46854915
       4667.6572      0.39984066
       4668.3720      0.43737570
       4669.0867      0.16039155
       4669.8015      0.27717218
       4670.5162      0.39275778
       4671.2309      0.41275744
       4671.9457      0.29636436
       4672.6604      0.27051042
       4673.3752      0.49602458
       4674.0899      0.59473185
       4674.8046      0.39213983
       4675.5194      0.28665647
       4676.2341      0.38488380
       4676.9489      0.43844552
       4677.6636      0.36124658
       4678.3784      0.27809571
       4679.0931      0.42820534
       4679.8078      0.30827148
       4680.5226      0.40332973
       4681.2373      0.38706896
       4681.9521      0.44577590
       4682.6668      0.38105911
       4683.3815      0.43306262
       4684.0963      0.32413645
       4684.8110      0.43494788
       4685.5258      0.52792823
       4686.2405      0.34460742
       4686.9552      0.41300023
       4687.6700      0.34886811
       4688.3847      0.31910904
       4689.0995      0.32750403
       4689.8142      0.29558355
       4690.5290      0.34086454
       4691.2437      0.36361953
       4691.9584      0.36098514
       4692.6732      0.35887065
       4693.3879      0.27699907
       4694.1027      0.41894731
       4694.8174      0.35350179
       4695.5321      0.46087659
       4696.2469      0.52148474
       4696.9616      0.37467614
       4697.6764      0.27817446
       4698.3911      0.16183305
       4699.1059      0.41778255
       4699.8206      0.38269669
       4700.5353      0.34432621
       4701.2501      0.42219884
       4701.9648      0.16889145
       4702.6796      0.24068153
       4703.3943      0.49339419
       4704.1090     0.049833796
       4704.8238      0.24609897
       4705.5385      0.21465413
       4706.2533      0.38695946
       4706.9680      0.44241577
       4707.6828      0.42070433
       4708.3975      0.41021893
       4709.1122      0.34521567
       4709.8270      0.35463051
       4710.5417      0.44871799
       4711.2565      0.52015363
       4711.9712      0.47700242
       4712.6859      0.39164362
       4713.4007      0.48556289
       4714.1154      0.42565168
       4714.8302      0.47078461
       4715.5449      0.49628269
       4716.2596      0.40219647
       4716.9744      0.38997599
       4717.6891      0.32776237
       4718.4039      0.42590990
       4719.1186      0.42856457
       4719.8334      0.31306022
       4720.5481      0.31348245
       4721.2628      0.44967123
       4721.9776      0.34722251
       4722.6923      0.34195934
       4723.4071      0.33415995
       4724.1218      0.14525432
       4724.8365      0.18401430
       4725.5513      0.27531154
       4726.2660      0.31126697
       4726.9808      0.38596129
       4727.6955      0.42392017
       4728.4103      0.38991034
       4729.1250      0.47663914
       4729.8397      0.40138515
       4730.5545      0.54585798
       4731.2692      0.46388731
       4731.9840      0.30243473
       4732.6987      0.63695497
       4733.4134      0.55442978
       4734.1282      0.26294576
       4734.8429      0.32614805
       4735.5577      0.37435510
       4736.2724      0.39817239
       4736.9871      0.32350304
       4737.7019      0.42706456
       4738.4166      0.31997904
       4739.1314      0.57650948
       4739.8461      0.33952882
       4740.5609      0.33989266
       4741.2756      0.32706550
       4741.9903      0.25722576
       4742.7051      0.33481296
       4743.4198      0.47818780
       4744.1346      0.42147987
       4744.8493      0.53716552
       4745.5640      0.47525398
       4746.2788      0.42564216
       4746.9935      0.31502857
       4747.7083      0.47406869
       4748.4230      0.38998219
       4749.1378      0.44669175
       4749.8525      0.31314520
       4750.5672      0.38412666
       4751.2820      0.40342379
       4751.9967      0.38809428
       4752.7115      0.47246012
       4753.4262      0.43465323
       4754.1409      0.48414240
       4754.8557      0.47450905
       4755.5704      0.33316114
       4756.2852      0.38708655
       4756.9999      0.47472415
       4757.7147      0.32872752
       4758.4294      0.32192162
       4759.1441      0.50191549
       4759.8589      0.63333802
       4760.5736      0.42346759
       4761.2884      0.23678010
       4762.0031      0.25677682
       4762.7178      0.15479053
       4763.4326      0.42704717
       4764.1473      0.55068511
       4764.8621      0.50296870
       4765.5768      0.40703933
       4766.2915      0.46482726
       4767.0063      0.49042020
       4767.7210      0.32887751
       4768.4358      0.50921319
       4769.1505      0.44843101
       4769.8653      0.37455151
       4770.5800      0.34967680
       4771.2947      0.44521582
       4772.0095      0.46778576
       4772.7242      0.40426221
       4773.4390      0.35420798
       4774.1537      0.31783379
       4774.8684      0.23562920
       4775.5832      0.37619322
       4776.2979      0.35337294
       4777.0127      0.26297943
       4777.7274      0.37583951
       4778.4422      0.34350056
       4779.1569      0.41325564
       4779.8716      0.38165365
       4780.5864      0.36416042
       4781.3011      0.44358344
       4782.0159      0.33313432
       4782.7306      0.36313488
       4783.4453      0.28027880
       4784.1601      0.36583607
       4784.8748      0.41316295
       4785.5896      0.31424963
       4786.3043      0.32383883
       4787.0190      0.41152726
       4787.7338      0.51649361
       4788.4485      0.59560573
       4789.1633      0.55434311
       4789.8780      0.45680432
       4790.5928      0.35454422
       4791.3075      0.24983496
       4792.0222      0.12830997
       4792.7370      0.40527791
       4793.4517      0.46220967
       4794.1665      0.43956801
       4794.8812      0.35610844
       4795.5959      0.43250221
       4796.3107      0.42112571
       4797.0254      0.43811690
       4797.7402      0.45285175
       4798.4549      0.40477481
       4799.1697      0.24053396
       4799.8844      0.38094963
       4800.5991      0.25105290
       4801.3139      0.15838079
       4802.0286      0.17826852
       4802.7434      0.10797359
       4803.4581      0.32129083
       4804.1728      0.34452292
       4804.8876      0.32076730
       4805.6023      0.31938511
       4806.3171      0.38475711
       4807.0318      0.45298476
       4807.7466      0.31187952
       4808.4613      0.37079822
       4809.1760      0.23725968
       4809.8908      0.27747949
       4810.6055      0.34076657
       4811.3203     0.089643774
       4812.0350      0.36994822
       4812.7497      0.35023149
       4813.4645      0.25835314
       4814.1792      0.28709299
       4814.8940      0.39997436
       4815.6087      0.29802277
       4816.3234      0.40132225
       4817.0382      0.29171647
       4817.7529      0.34949104
       4818.4677      0.27731665
       4819.1824      0.24048094
       4819.8972      0.22482069
       4820.6119      0.12140710
       4821.3266      0.31549115
       4822.0414      0.27638069
       4822.7561      0.26486139
       4823.4709      0.42735662
       4824.1856      0.40462917
       4824.9003      0.40934573
       4825.6151      0.52336553
       4826.3298      0.35673109
       4827.0446      0.34607798
       4827.7593      0.43989750
       4828.4741      0.38736025
       4829.1888      0.56816190
       4829.9035      0.61262511
       4830.6183      0.58109626
       4831.3330      0.43817390
       4832.0478      0.42540369
       4832.7625      0.45897226
       4833.4772      0.43142993
       4834.1920      0.50425512
       4834.9067      0.36141975
       4835.6215      0.42508494
       4836.3362      0.23675426
       4837.0509      0.26465045
       4837.7657      0.39077419
       4838.4804      0.45380760
       4839.1952      0.39623607
       4839.9099      0.44093462
       4840.6247      0.44195892
       4841.3394      0.38440182
       4842.0541      0.31483962
       4842.7689      0.34237568
       4843.4836      0.31687054
       4844.1984      0.39335891
       4844.9131      0.37822315
       4845.6278      0.49004266
       4846.3426      0.42412880
       4847.0573      0.47148164
       4847.7721      0.32440302
       4848.4868      0.36237148
       4849.2016      0.36020287
       4849.9163      0.33073066
       4850.6310      0.40247201
       4851.3458      0.35437239
       4852.0605      0.32478770
       4852.7753      0.33479889
       4853.4900      0.33652425
       4854.2047      0.30101864
       4854.9195      0.30317247
       4855.6342      0.33900285
       4856.3490      0.28567442
       4857.0637      0.29201388
       4857.7784      0.27375131
       4858.4932      0.25967420
       4859.2079      0.35376874
       4859.9227      0.37669774
       4860.6374      0.38875027
       4861.3522      0.32558311
       4862.0669      0.31189147
       4862.7816      0.33536820
       4863.4964      0.34242011
       4864.2111      0.41362011
       4864.9259      0.35787595
       4865.6406      0.41556928
       4866.3553      0.41248902
       4867.0701      0.27895653
       4867.7848      0.30722923
       4868.4996      0.37780491
       4869.2143      0.31509432
       4869.9291      0.45185816
       4870.6438      0.42621696
       4871.3585      0.36809931
       4872.0733      0.31961300
       4872.7880      0.20098824
       4873.5028      0.15428119
       4874.2175      0.30963225
       4874.9322      0.28683630
       4875.6470      0.28222713
       4876.3617      0.31386604
       4877.0765      0.32359433
       4877.7912      0.28477589
       4878.5060      0.37426450
       4879.2207      0.41799235
       4879.9354      0.48338419
       4880.6502      0.70676048
       4881.3649      0.73768094
       4882.0797      0.61687902
       4882.7944      0.48174399
       4883.5091      0.37139317
       4884.2239      0.35751406
       4884.9386      0.28878634
       4885.6534      0.20399979
       4886.3681      0.23855921
       4887.0828      0.20429215
       4887.7976      0.24458472
       4888.5123      0.33471217
       4889.2271      0.28699793
       4889.9418      0.32627683
       4890.6566      0.34662264
       4891.3713      0.24494726
       4892.0860      0.34678053
       4892.8008      0.41992533
       4893.5155      0.25144897
       4894.2303      0.29151131
       4894.9450      0.20737686
       4895.6597      0.24587938
       4896.3745      0.24462744
       4897.0892      0.33740445
       4897.8040      0.23506923
       4898.5187      0.31129342
       4899.2335      0.31598138
       4899.9482      0.27482640
       4900.6629      0.33584756
       4901.3777      0.43613579
       4902.0924      0.44672988
       4902.8072      0.27981973
       4903.5219      0.28995551
       4904.2366      0.33787073
       4904.9514      0.34104066
       4905.6661      0.31461041
       4906.3809      0.40524851
       4907.0956      0.35783397
       4907.8103      0.33326834
       4908.5251      0.33503872
       4909.2398      0.38507845
       4909.9546      0.37091611
       4910.6693      0.36916552
       4911.3841      0.36885232
       4912.0988      0.41526644
       4912.8135      0.32915788
       4913.5283      0.37414850
       4914.2430      0.39134491
       4914.9578      0.32778107
       4915.6725      0.35375004
       4916.3872      0.35566433
       4917.1020      0.34685330
       4917.8167      0.36202437
       4918.5315      0.42655028
       4919.2462      0.37937314
       4919.9610      0.29336094
       4920.6757      0.35951711
       4921.3904      0.35756447
       4922.1052      0.35091303
       4922.8199      0.26743056
       4923.5347      0.33627522
       4924.2494      0.35208051
       4924.9641      0.37289098
       4925.6789      0.30469351
       4926.3936      0.33988103
       4927.1084      0.36415170
       4927.8231      0.35243355
       4928.5379      0.34192026
       4929.2526      0.31580098
       4929.9673      0.24033014
       4930.6821      0.38997339
       4931.3968      0.37297717
       4932.1116      0.34536111
       4932.8263      0.33787442
       4933.5410      0.26160489
       4934.2558      0.32523675
       4934.9705      0.38888745
       4935.6853      0.33995142
       4936.4000      0.23797176
       4937.1147      0.36447106
       4937.8295      0.43280195
       4938.5442      0.36499993
       4939.2590      0.30680563
       4939.9737      0.30162702
       4940.6885      0.37171803
       4941.4032      0.32140923
       4942.1179      0.38664626
       4942.8327      0.39295158
       4943.5474      0.38102138
       4944.2622      0.39284818
       4944.9769      0.46027719
       4945.6916      0.44073714
       4946.4064      0.41857942
       4947.1211      0.40790988
       4947.8359      0.32733238
       4948.5506      0.30564719
       4949.2654      0.26009244
       4949.9801      0.32639313
       4950.6948      0.35185829
       4951.4096      0.41180821
       4952.1243      0.35660660
       4952.8391      0.32573289
       4953.5538      0.43727161
       4954.2685      0.37116433
       4954.9833      0.38335567
       4955.6980      0.39363050
       4956.4128      0.36533378
       4957.1275      0.25703325
       4957.8422      0.26215323
       4958.5570      0.21723086
       4959.2717      0.27881647
       4959.9865      0.30891596
       4960.7012      0.40919533
       4961.4160      0.37148023
       4962.1307      0.44266199
       4962.8454      0.38510407
       4963.5602      0.36105630
       4964.2749      0.39904049
       4964.9897      0.40058711
       4965.7044      0.45053542
       4966.4191      0.42025289
       4967.1339      0.40058584
       4967.8486      0.33279960
       4968.5634      0.40608672
       4969.2781      0.38941166
       4969.9929      0.34782027
       4970.7076      0.39542400
       4971.4223      0.40495615
       4972.1371      0.39669534
       4972.8518      0.38585253
       4973.5666      0.30477152
       4974.2813      0.43013323
       4974.9960      0.42639027
       4975.7108      0.38695749
       4976.4255      0.29282972
       4977.1403      0.29704340
       4977.8550      0.38735994
       4978.5698      0.38980939
       4979.2845      0.38100414
       4979.9992      0.29124869
       4980.7140      0.37019125
       4981.4287      0.25299359
       4982.1435      0.47025594
       4982.8582      0.27883817
       4983.5729      0.11631209
       4984.2877      0.25532321
       4985.0024      0.35748131
       4985.7172      0.24018656
       4986.4319      0.31124786
       4987.1466      0.38804137
       4987.8614      0.47325497
       4988.5761      0.46622864
       4989.2909      0.41180677
       4990.0056      0.45250638
       4990.7204      0.51847016
       4991.4351      0.36658006
       4992.1498      0.15877912
       4992.8646      0.25906227
       4993.5793      0.29388305
       4994.2941      0.28183369
       4995.0088      0.31136015
       4995.7235      0.36968966
       4996.4383      0.33458256
       4997.1530      0.35473961
       4997.8678      0.51201902
       4998.5825      0.53249716
       4999.2973      0.42013527
       5000.0120      0.26407408
       5000.7267      0.25183066
       5001.4415      0.34081801
       5002.1562      0.28524815
       5002.8710      0.25028083
       5003.5857      0.24939205
       5004.3004      0.32961088
       5005.0152      0.37461307
       5005.7299      0.33977806
       5006.4447      0.34822218
       5007.1594      0.38496487
       5007.8741      0.36631416
       5008.5889      0.35143772
       5009.3036      0.39749408
       5010.0184      0.41262186
       5010.7331      0.39005902
       5011.4479      0.34949222
       5012.1626      0.36587930
       5012.8773      0.36146948
       5013.5921      0.45001013
       5014.3068      0.47373136
       5015.0216      0.50895963
       5015.7363      0.37576375
       5016.4510      0.19148718
       5017.1658      0.28984074
       5017.8805      0.30701392
       5018.5953     0.041564661
       5019.3100    -0.018260074
       5020.0248      0.42927779
       5020.7395      0.40763972
       5021.4542      0.27919921
       5022.1690      0.35493681
       5022.8837      0.40053643
       5023.5985      0.53595470
       5024.3132      0.47537766
       5025.0279      0.49581372
       5025.7427      0.51433578
       5026.4574      0.51701717
       5027.1722      0.53308979
       5027.8869      0.59684223
       5028.6017      0.38451101
       5029.3164      0.33720829
       5030.0311      0.38920713
       5030.7459      0.42269706
       5031.4606      0.30404997
       5032.1754      0.30341016
       5032.8901      0.27937822
       5033.6048      0.30126539
       5034.3196      0.33679268
       5035.0343      0.30775449
       5035.7491      0.26315420
       5036.4638      0.34522895
       5037.1785      0.30831736
       5037.8933      0.39598954
       5038.6080      0.37184709
       5039.3228      0.22074311
       5040.0375      0.29484946
       5040.7523      0.50866998
       5041.4670      0.47820139
       5042.1817      0.35507735
       5042.8965      0.25037486
       5043.6112      0.22435060
       5044.3260      0.27880766
       5045.0407      0.33532033
       5045.7554      0.36889398
       5046.4702      0.21346697
       5047.1849      0.34141344
       5047.8997      0.34405406
       5048.6144      0.39766193
       5049.3292      0.51453002
       5050.0439      0.36126511
       5050.7586      0.19226206
       5051.4734      0.18219589
       5052.1881     0.041441117
       5052.9029      0.39003387
       5053.6176      0.23943507
       5054.3323      0.25125868
       5055.0471      0.44484651
       5055.7618      0.45770814
       5056.4766      0.33387880
       5057.1913      0.33033527
       5057.9060      0.18056584
       5058.6208      0.19410686
       5059.3355      0.41046263
       5060.0503      0.40519276
       5060.7650      0.37696144
       5061.4798      0.19384327
       5062.1945      0.31305354
       5062.9092      0.38955776
       5063.6240      0.30154738
       5064.3387      0.40886505
       5065.0535      0.41645600
       5065.7682      0.36246585
       5066.4829      0.25000887
       5067.1977      0.10222119
       5067.9124     0.072825446
       5068.6272    0.0075390620
       5069.3419     0.097595847
       5070.0567      0.23366663
       5070.7714      0.24838679
       5071.4861      0.21961503
       5072.2009      0.21336546
       5072.9156      0.33744547
       5073.6304      0.39993860
       5074.3451      0.34509821
       5075.0598      0.41380657
       5075.7746      0.53299821
       5076.4893      0.46635439
       5077.2041      0.30876624
       5077.9188      0.36955346
       5078.6335      0.40101997
       5079.3483      0.43715969
       5080.0630      0.41487213
       5080.7778      0.27089353
       5081.4925      0.26521774
       5082.2073      0.26133679
       5082.9220      0.20478187
       5083.6367      0.45193259
       5084.3515      0.41388746
       5085.0662      0.31700057
       5085.7810      0.28644363
       5086.4957      0.25099034
       5087.2104      0.35338753
       5087.9252      0.47606229
       5088.6399      0.37360866
       5089.3547      0.14380661
       5090.0694      0.14624609
       5090.7842      0.35279584
       5091.4989      0.42554377
       5092.2136      0.46817426
       5092.9284      0.44092499
       5093.6431      0.39614144
       5094.3579      0.39442866
       5095.0726      0.35332281
       5095.7873      0.38352171
       5096.5021      0.35205988
       5097.2168      0.23400166
       5097.9316      0.31615662
       5098.6463      0.33926732
       5099.3611      0.39537473
       5100.0758      0.36236548
       5100.7905      0.38607547
       5101.5053      0.42701889
       5102.2200      0.35505608
       5102.9348      0.44897812
       5103.6495      0.44358045
       5104.3642      0.52288840
       5105.0790      0.44194295
       5105.7937      0.32467846
       5106.5085      0.17090306
       5107.2232      0.31368613
       5107.9379      0.33899538
       5108.6527      0.32269053
       5109.3674      0.33178794
       5110.0822      0.32423706
       5110.7969      0.39764768
       5111.5117      0.30221702
       5112.2264      0.18037530
       5112.9411      0.23454640
       5113.6559      0.34549050
       5114.3706      0.36430270
       5115.0854      0.40785300
       5115.8001      0.41688279
       5116.5148      0.48390297
       5117.2296      0.40149323
       5117.9443      0.35310664
       5118.6591      0.37140638
       5119.3738      0.37988263
       5120.0886      0.38267182
       5120.8033      0.35684943
       5121.5180      0.41488913
       5122.2328      0.44537624
       5122.9475      0.46073184
       5123.6623      0.38557852
       5124.3770      0.36582397
       5125.0917      0.42397617
       5125.8065      0.30452879
       5126.5212      0.32010280
       5127.2360      0.31198261
       5127.9507      0.27763743
       5128.6654      0.33489416
       5129.3802      0.35721538
       5130.0949      0.38737268
       5130.8097      0.41310481
       5131.5244      0.33051257
       5132.2392      0.31651918
       5132.9539      0.32980588
       5133.6686      0.42588553
       5134.3834      0.48678182
       5135.0981      0.54133452
       5135.8129      0.50824120
       5136.5276      0.37441212
       5137.2423      0.42077901
       5137.9571      0.41986727
       5138.6718      0.39564772
       5139.3866      0.34024515
       5140.1013      0.40503890
       5140.8161      0.41311648
       5141.5308      0.32551066
       5142.2455      0.29135487
       5142.9603      0.28689140
       5143.6750      0.36708149
       5144.3898      0.40180659
       5145.1045      0.37785072
       5145.8192      0.39376217
       5146.5340      0.36683718
       5147.2487      0.28495759
       5147.9635      0.18524830
       5148.6782      0.21009918
       5149.3930      0.22488556
       5150.1077      0.32532334
       5150.8224      0.37845594
       5151.5372      0.47132519
       5152.2519      0.51091419
       5152.9667      0.50418830
       5153.6814      0.45951672
       5154.3961      0.29202311
       5155.1109      0.31460083
       5155.8256      0.38855806
       5156.5404      0.32498156
       5157.2551      0.36242753
       5157.9698      0.36991714
       5158.6846      0.36554531
       5159.3993      0.28544030
       5160.1141      0.27709173
       5160.8288      0.35245806
       5161.5436      0.31866640
       5162.2583      0.41416537
       5162.9730      0.45629651
       5163.6878      0.43001929
       5164.4025      0.41491728
       5165.1173      0.36751733
       5165.8320      0.37376952
       5166.5467      0.38823855
       5167.2615      0.41581812
       5167.9762      0.38746011
       5168.6910      0.36324826
       5169.4057      0.37756334
       5170.1205      0.41547704
       5170.8352      0.42475922
       5171.5499      0.40659247
       5172.2647      0.32232603
       5172.9794      0.35630779
       5173.6942      0.39164764
       5174.4089      0.39545991
       5175.1236      0.37639669
       5175.8384      0.39557462
       5176.5531      0.42727960
       5177.2679      0.32886788
       5177.9826      0.30045236
       5178.6973      0.40659193
       5179.4121      0.30761071
       5180.1268      0.16001970
       5180.8416     0.069968441
       5181.5563      0.29811680
       5182.2711      0.51347536
       5182.9858      0.52801543
       5183.7005      0.34366146
       5184.4153      0.33868970
       5185.1300      0.18848332
       5185.8448      0.32805463
       5186.5595      0.44659530
       5187.2742      0.64968616
       5187.9890      0.37808697
       5188.7037      0.41336233
       5189.4185      0.43392964
       5190.1332      0.42786100
       5190.8480      0.41076135
       5191.5627      0.27668116
       5192.2774      0.41119940
       5192.9922      0.47939531
       5193.7069      0.35771075
       5194.4217      0.40758368
       5195.1364      0.24345675
       5195.8511      0.48170161
       5196.5659      0.31520021
       5197.2806      0.25747619
       5197.9954      0.32053500
       5198.7101      0.30696973
       5199.4249      0.34292718
       5200.1396      0.37009980
       5200.8543      0.27232702
       5201.5691      0.29683532
       5202.2838      0.42475254
       5202.9986      0.17188481
       5203.7133      0.27450949
       5204.4280      0.36302053
       5205.1428      0.50957998
       5205.8575      0.49590740
       5206.5723      0.49354212
       5207.2870      0.39473546
       5208.0017      0.54367570
       5208.7165      0.31509449
       5209.4312     0.034741022
       5210.1460      0.22137284
       5210.8607      0.10226554
       5211.5755      0.13086976
       5212.2902      0.39352274
       5213.0049      0.46576184
       5213.7197      0.39137483
       5214.4344      0.37955081
       5215.1492      0.52172976
       5215.8639      0.40501074
       5216.5786      0.48038335
       5217.2934      0.42837493
       5218.0081      0.46917632
       5218.7229      0.41505953
       5219.4376      0.41082948
       5220.1524      0.42763796
       5220.8671      0.29364689
       5221.5818      0.35738383
       5222.2966      0.41273158
       5223.0113      0.39454809
       5223.7261      0.29924001
       5224.4408      0.37309844
       5225.1555      0.33455385
       5225.8703      0.30983969
       5226.5850      0.38392161
       5227.2998      0.36333013
       5228.0145      0.22658055
       5228.7292      0.26712863
       5229.4440      0.32199607
       5230.1587      0.34072150
       5230.8735      0.43571139
       5231.5882      0.40605109
       5232.3030      0.34937178
       5233.0177      0.37216592
       5233.7324      0.33033854
       5234.4472      0.37159682
       5235.1619      0.33421184
       5235.8767      0.25891918
       5236.5914      0.28787723
       5237.3061      0.35827852
       5238.0209      0.39488622
       5238.7356      0.38261023
       5239.4504      0.36345445
       5240.1651      0.42859431
       5240.8799      0.37124211
       5241.5946      0.31745219
       5242.3093      0.35129825
       5243.0241      0.45027481
       5243.7388      0.44665817
       5244.4536      0.35792959
       5245.1683      0.37237145
       5245.8830      0.41377448
       5246.5978      0.32697076
       5247.3125      0.35579144
       5248.0273      0.41560139
       5248.7420      0.46214660
       5249.4567      0.46451259
       5250.1715      0.37681547
       5250.8862      0.35197644
       5251.6010      0.36627489
       5252.3157      0.31697468
       5253.0305      0.37136921
       5253.7452      0.38176351
       5254.4599      0.28494063
       5255.1747      0.35116913
       5255.8894      0.42538950
       5256.6042      0.32285504
       5257.3189      0.39233593
       5258.0336      0.33683020
       5258.7484      0.36189562
       5259.4631      0.38324975
       5260.1779      0.33360734
       5260.8926      0.39187030
       5261.6074      0.40418823
       5262.3221      0.44536846
       5263.0368      0.47211422
       5263.7516      0.36195311
       5264.4663      0.33583101
       5265.1811      0.35928670
       5265.8958      0.47528391
       5266.6105      0.31987268
       5267.3253      0.35860170
       5268.0400      0.45687552
       5268.7548      0.33465832
       5269.4695      0.21971516
       5270.1843      0.34688419
       5270.8990      0.18905674
       5271.6137      0.14937652
       5272.3285      0.28119830
       5273.0432      0.47569055
       5273.7580      0.46098738
       5274.4727      0.62364481
       5275.1874      0.63269914
       5275.9022      0.41355871
       5276.6169      0.26386474
       5277.3317      0.35139372
       5278.0464      0.19103829
       5278.7611      0.30604009
       5279.4759      0.56420800
       5280.1906      0.48223322
       5280.9054      0.43621764
       5281.6201      0.35585177
       5282.3349      0.37489509
       5283.0496      0.40793057
       5283.7643      0.27254053
       5284.4791      0.19475022
       5285.1938      0.33922705
       5285.9086      0.44283344
       5286.6233      0.52480015
       5287.3380      0.44410990
       5288.0528      0.34997272
       5288.7675      0.27297784
       5289.4823      0.33843494
       5290.1970      0.37438958
       5290.9118      0.37479736
       5291.6265      0.37685072
       5292.3412      0.39487678
       5293.0560      0.30918943
       5293.7707      0.29922263
       5294.4855      0.39307432
       5295.2002      0.45136347
       5295.9149      0.35950013
       5296.6297      0.32947514
       5297.3444      0.44053450
       5298.0592      0.41906286
       5298.7739      0.33672207
       5299.4886      0.34143425
       5300.2034      0.42961285
       5300.9181      0.44714420
       5301.6329      0.41214519
       5302.3476      0.38079623
       5303.0624      0.42416794
       5303.7771      0.71307016
       5304.4918      0.59623175
       5305.2066      0.53469196
       5305.9213      0.75207936
       5306.6361      0.71499100
       5307.3508      0.51676108
       5308.0655     0.067383750
       5308.7803      0.50121050
       5309.4950      0.59383206
       5310.2098      0.64029119
       5310.9245      0.23060718
       5311.6393      0.36417908
       5312.3540      0.29227991
       5313.0687      0.20239097
       5313.7835      0.18453031
       5314.4982      0.23435205
       5315.2130      0.33689906
       5315.9277      0.46082944
       5316.6424      0.35238806
       5317.3572      0.43924150
       5318.0719      0.48357063
       5318.7867      0.31416587
       5319.5014      0.24392965
       5320.2162      0.31003881
       5320.9309      0.30135554
       5321.6456      0.26529555
       5322.3604      0.41476436
       5323.0751      0.47938952
       5323.7899      0.40387568
       5324.5046      0.40160184
       5325.2193      0.47581395
       5325.9341      0.49465027
       5326.6488      0.53802721
       5327.3636      0.63374016
       5328.0783      0.65791061
       5328.7930      0.59060354
       5329.5078      0.50194188
       5330.2225      0.44701211
       5330.9373      0.45597069
       5331.6520      0.24938905
       5332.3668      0.25598498
       5333.0815      0.50941572
       5333.7962      0.39028547
       5334.5110      0.42202366
       5335.2257      0.55014169
       5335.9405      0.49560118
       5336.6552      0.43616265
       5337.3699      0.43566089
       5338.0847      0.54605095
       5338.7994      0.70065937
       5339.5142      0.30016965
       5340.2289      0.52812176
       5340.9437      0.61892179
       5341.6584      0.29866574
       5342.3731      0.38314167
       5343.0879     -0.20015517
       5343.8026      0.32231377
       5344.5174      0.39683270
       5345.2321      0.49556226
       5345.9468      0.48011283
       5346.6616      0.43309220
       5347.3763      0.43679209
       5348.0911      0.40802763
       5348.8058      0.50746823
       5349.5205      0.45719035
       5350.2353      0.36350470
       5350.9500      0.37395387
       5351.6648      0.49046487
       5352.3795      0.47996695
       5353.0943      0.45868929
       5353.8090      0.57235518
       5354.5237      0.59017008
       5355.2385      0.36327906
       5355.9532      0.45963241
       5356.6680      0.45841535
       5357.3827      0.43664964
       5358.0974      0.40948249
       5358.8122      0.59835047
       5359.5269      0.16793280
       5360.2417      0.32330952
       5360.9564      0.31328815
       5361.6712      0.40630250
       5362.3859      0.36867827
       5363.1006     0.056372766
       5363.8154      0.59319145
       5364.5301      0.25501900
       5365.2449      0.37530837
       5365.9596      0.31922919
       5366.6743      0.42432904
       5367.3891      0.37882884
       5368.1038      0.44300779
       5368.8186      0.43887319
       5369.5333      0.44860402
       5370.2481      0.46405183
       5370.9628      0.47436907
       5371.6775      0.42815386
       5372.3923      0.41635333
       5373.1070      0.48944892
       5373.8218      0.42628220
       5374.5365      0.24978876
       5375.2512      0.25910684
       5375.9660      0.41414016
       5376.6807      0.38197154
       5377.3955      0.32931629
       5378.1102      0.51076927
       5378.8249      0.55315050
       5379.5397      0.32268321
       5380.2544      0.35158207
       5380.9692      0.38328949
       5381.6839      0.58787821
       5382.3987      0.41297676
       5383.1134      0.56129986
       5383.8281      0.37942152
       5384.5429      0.24275451
       5385.2576      0.29155555
       5385.9724      0.17635667
       5386.6871      0.38158897
       5387.4018     0.076433421
       5388.1166     0.044559830
       5388.8313      0.16075982
       5389.5461      0.32418526
       5390.2608      0.35748134
       5390.9756      0.39749385
       5391.6903      0.32625743
       5392.4050      0.38079602
       5393.1198      0.34604234
       5393.8345      0.34494680
       5394.5493      0.33178531
       5395.2640      0.38296255
       5395.9787      0.39537003
       5396.6935      0.43516527
       5397.4082      0.48913881
       5398.1230      0.39041506
       5398.8377      0.39582076
       5399.5524      0.44580572
       5400.2672      0.43212343
       5400.9819      0.31266310
       5401.6967      0.31339237
       5402.4114      0.13383325
       5403.1262      0.16425065
       5403.8409      0.18299786
       5404.5556      0.28427929
       5405.2704      0.45277445
       5405.9851      0.31798201
       5406.6999      0.47073422
       5407.4146      0.60600886
       5408.1293      0.67169182
       5408.8441      0.52313274
       5409.5588      0.39558727
       5410.2736      0.44094572
       5410.9883      0.40494351
       5411.7031      0.46197997
       5412.4178      0.53576769
       5413.1325      0.51288794
       5413.8473      0.46012373
       5414.5620      0.31400983
       5415.2768      0.36499758
       5415.9915      0.40410712
       5416.7062      0.36155423
       5417.4210      0.35944231
       5418.1357      0.38319740
       5418.8505      0.36414390
       5419.5652      0.43116021
       5420.2799      0.38040712
       5420.9947      0.36659691
       5421.7094      0.42146974
       5422.4242      0.38987997
       5423.1389      0.35571070
       5423.8537      0.38259640
       5424.5684      0.34695703
       5425.2831      0.29360660
       5425.9979      0.30626319
       5426.7126      0.35503572
       5427.4274      0.44557857
       5428.1421      0.40676585
       5428.8568      0.41628427
       5429.5716      0.46785663
       5430.2863      0.52115351
       5431.0011      0.48019619
       5431.7158      0.42504352
       5432.4306      0.43829251
       5433.1453      0.53228193
       5433.8600      0.37391911
       5434.5748      0.44196632
       5435.2895      0.43984515
       5436.0043      0.43572723
       5436.7190      0.35196219
       5437.4337      0.35076301
       5438.1485      0.59568837
       5438.8632      0.52174590
       5439.5780      0.37912388
       5440.2927      0.33108050
       5441.0075      0.31080842
       5441.7222      0.45209537
       5442.4369      0.42210374
       5443.1517      0.46096471
       5443.8664      0.43023444
       5444.5812      0.42442627
       5445.2959      0.44648432
       5446.0106      0.37656767
       5446.7254      0.34975096
       5447.4401      0.36317917
       5448.1549      0.39388828
       5448.8696      0.37444479
       5449.5843      0.40854855
       5450.2991      0.36458511
       5451.0138      0.45722952
       5451.7286      0.46620315
       5452.4433      0.44093504
       5453.1581      0.38454827
       5453.8728      0.36852989
       5454.5875      0.43503465
       5455.3023      0.43884337
       5456.0170      0.42347362
       5456.7318      0.40872657
       5457.4465      0.37865390
       5458.1612      0.33379945
       5458.8760      0.37569308
       5459.5907      0.42392292
       5460.3055      0.51128769
       5461.0202      0.51140452
       5461.7350      0.54677757
       5462.4497      0.57378718
       5463.1644      0.54751167
       5463.8792      0.59479318
       5464.5939      0.39291203
       5465.3087      0.39097171
       5466.0234      0.32675623
       5466.7381      0.39344010
       5467.4529      0.38011064
       5468.1676      0.40028314
       5468.8824      0.38465972
       5469.5971      0.29767416
       5470.3118      0.27011855
       5471.0266      0.35625988
       5471.7413      0.35935683
       5472.4561      0.31039641
       5473.1708      0.39998610
       5473.8856      0.52935343
       5474.6003      0.42941188
       5475.3150      0.36983975
       5476.0298      0.49671989
       5476.7445      0.53159656
       5477.4593      0.41227978
       5478.1740      0.47580448
       5478.8887      0.44761707
       5479.6035      0.45971143
       5480.3182      0.43999401
       5481.0330      0.43676558
       5481.7477      0.52285611
       5482.4625      0.34339277
       5483.1772      0.36410762
       5483.8919      0.39077498
       5484.6067      0.49542036
       5485.3214      0.52890472
       5486.0362      0.45724745
       5486.7509      0.36724954
       5487.4656      0.30854521
       5488.1804      0.36314238
       5488.8951      0.35482822
       5489.6099      0.47553764
       5490.3246      0.49886767
       5491.0394      0.43544503
       5491.7541      0.46537520
       5492.4688      0.39575193
       5493.1836      0.40200242
       5493.8983      0.43725667
       5494.6131      0.41881688
       5495.3278      0.46645573
       5496.0425      0.45084047
       5496.7573      0.50977389
       5497.4720      0.50657469
       5498.1868      0.45128255
       5498.9015      0.38681678
       5499.6162      0.40873322
       5500.3310      0.38653308
       5501.0457      0.43469071
       5501.7605      0.46447757
       5502.4752      0.47189571
       5503.1900      0.41614074
       5503.9047      0.42677308
       5504.6194      0.41153191
       5505.3342      0.33145288
       5506.0489      0.46129686
       5506.7637      0.43893233
       5507.4784      0.44666157
       5508.1931      0.51362090
       5508.9079      0.46521091
       5509.6226      0.34814633
       5510.3374      0.40414315
       5511.0521      0.43873738
       5511.7669      0.39787127
       5512.4816      0.44628248
       5513.1963      0.41254788
       5513.9111      0.41609434
       5514.6258      0.37680395
       5515.3406      0.36556206
       5516.0553      0.49342299
       5516.7700      0.43790800
       5517.4848      0.45197268
       5518.1995      0.42471312
       5518.9143      0.44922856
       5519.6290      0.44268449
       5520.3437      0.41333872
       5521.0585      0.41511430
       5521.7732      0.48311828
       5522.4880      0.43308892
       5523.2027      0.37492387
       5523.9175      0.37113455
       5524.6322      0.45769488
       5525.3469      0.51206727
       5526.0617      0.47862011
       5526.7764      0.42127077
       5527.4912      0.41916364
       5528.2059      0.36081508
       5528.9206      0.34803641
       5529.6354      0.42272310
       5530.3501      0.38610003
       5531.0649      0.43555038
       5531.7796      0.41769082
       5532.4944      0.46389433
       5533.2091      0.46567490
       5533.9238      0.47797583
       5534.6386      0.47936672
       5535.3533      0.46417490
       5536.0681      0.52245608
       5536.7828      0.51264847
       5537.4975      0.42640588
       5538.2123      0.46838996
       5538.9270      0.47858818
       5539.6418      0.47048938
       5540.3565      0.50705821
       5541.0713      0.38839164
       5541.7860      0.56183204
       5542.5007      0.50868261
       5543.2155      0.48425641
       5543.9302      0.43885468
       5544.6450      0.43983704
       5545.3597      0.43703211
       5546.0744      0.38794417
       5546.7892      0.42887302
       5547.5039      0.51902695
       5548.2187      0.38125519
       5548.9334      0.46442107
       5549.6481      0.42179888
       5550.3629      0.53677030
       5551.0776      0.45141731
       5551.7924      0.38558523
       5552.5071      0.45349087
       5553.2219      0.49325705
       5553.9366      0.50492891
       5554.6513      0.47039565
       5555.3661      0.42723785
       5556.0808      0.36833576
       5556.7956      0.40151215
       5557.5103      0.46895766
       5558.2250      0.41324705
       5558.9398      0.40134079
       5559.6545      0.38969973
       5560.3693      0.37713702
       5561.0840      0.46236220
       5561.7988      0.48626119
       5562.5135      0.45921888
       5563.2282      0.41659637
       5563.9430      0.54061644
       5564.6577      0.46953351
       5565.3725      0.45531273
       5566.0872      0.46000517
       5566.8019      0.44949382
       5567.5167      0.47703072
       5568.2314      0.46918222
       5568.9462      0.47517677
       5569.6609      0.59659285
       5570.3756      0.57659946
       5571.0904      0.55902970
       5571.8051      0.59222034
       5572.5199      0.43408490
       5573.2346      0.45876253
       5573.9494      0.45893718
       5574.6641      0.46604275
       5575.3788      0.51369748
       5576.0936      0.41824577
       5576.8083      0.46786044
       5577.5231      0.55316086
       5578.2378      0.58599472
       5578.9525      0.43823966
       5579.6673      0.42854471
       5580.3820      0.44517899
       5581.0968      0.48311191
       5581.8115      0.26627096
       5582.5263      0.34544822
       5583.2410      0.46533485
       5583.9557      0.40608976
       5584.6705      0.50031024
       5585.3852      0.48872551
       5586.1000      0.46788204
       5586.8147      0.36935601
       5587.5294      0.46376844
       5588.2442      0.45893752
       5588.9589      0.34413491
       5589.6737      0.54256410
       5590.3884      0.36413439
       5591.1031      0.23843351
       5591.8179      0.18632136
       5592.5326      0.23415935
       5593.2474      0.40118718
       5593.9621      0.57954117
       5594.6769      0.66055272
       5595.3916      0.10516040
       5596.1063    -0.055432539
       5596.8211      0.69647253
       5597.5358      0.32838654
       5598.2506      0.17129037
       5598.9653      0.91486689
       5599.6800      0.93457458
       5600.3948      0.81458621
       5601.1095     -0.27773688
       5601.8243    -0.043650213
       5602.5390      0.78234987
       5603.2538      0.17352436
       5603.9685     -0.17730580
       5604.6832     -0.13879674
       5605.3980      0.74069259
       5606.1127      0.48962834
       5606.8275      0.18005629
       5607.5422      0.35389082
       5608.2569      0.38799753
       5608.9717      0.38070347
       5609.6864      0.20630240
       5610.4012      0.51533296
       5611.1159      0.51708138
       5611.8307      0.58446022
       5612.5454      0.43519864
       5613.2601      0.17944645
       5613.9749      0.43028946
       5614.6896      0.35586162
       5615.4044      0.28343354
       5616.1191      0.28669623
       5616.8338      0.28313796
       5617.5486      0.27560067
       5618.2633      0.41189376
       5618.9781      0.38292296
       5619.6928      0.42247951
       5620.4075      0.42940556
       5621.1223      0.44917046
       5621.8370      0.39146253
       5622.5518      0.24044450
       5623.2665      0.29620515
       5623.9813      0.35574767
       5624.6960      0.24767483
       5625.4107      0.33962321
       5626.1255      0.41329777
       5626.8402      0.42445677
       5627.5550      0.43984946
       5628.2697      0.44268717
       5628.9844      0.37704539
       5629.6992      0.23988457
       5630.4139      0.34195633
       5631.1287      0.65494323
       5631.8434      0.46502517
       5632.5582     -0.97545094
       5633.2729      0.76326153
       5633.9876     -0.10432168
       5634.7024     0.060394645
       5635.4171     -0.27010767
       5636.1319      0.54926932
       5636.8466       1.3311638
       5637.5613      0.46832177
       5638.2761      0.18759575
       5638.9908      0.37943067
       5639.7056      0.35994888
       5640.4203      0.49773483
       5641.1350      0.42464657
       5641.8498      0.23416255
       5642.5645      0.37101651
       5643.2793      0.61269923
       5643.9940      0.42509789
       5644.7088      0.27536187
       5645.4235      0.35450639
       5646.1382      0.42198381
       5646.8530      0.63525912
       5647.5677      0.39704730
       5648.2825      0.15275434
       5648.9972      0.33703010
       5649.7119      0.11126825
       5650.4267      0.34617064
       5651.1414      0.50225096
       5651.8562      0.56706014
       5652.5709      0.41511170
       5653.2857      0.48986367
       5654.0004      0.47097616
       5654.7151      0.34543705
       5655.4299      0.44659318
       5656.1446      0.39466570
       5656.8594      0.52383030
       5657.5741      0.43945366
       5658.2888      0.27086195
       5659.0036      0.20394905
       5659.7183      0.63686434
       5660.4331      0.63653402
       5661.1478      0.37134962
       5661.8626      0.25671152
       5662.5773       1.0276935
       5663.2920      0.68052184
       5664.0068      0.27723142
       5664.7215      0.27872284
       5665.4363      0.28077164
       5666.1510      0.26614030
       5666.8657      0.36944581
       5667.5805      0.43524554
       5668.2952      0.39403338
       5669.0100      0.48505753
       5669.7247      0.74175718
       5670.4394     -0.18989374
       5671.1542      0.17342503
       5671.8689      0.50794630
       5672.5837     0.093168871
       5673.2984       1.0759756
       5674.0132      0.39596311
       5674.7279       1.1225817
       5675.4426      0.50048200
       5676.1574      0.39483782
       5676.8721      0.41574495
       5677.5869      0.48389450
       5678.3016      0.37593357
       5679.0163      0.49676435
       5679.7311      0.73792230
       5680.4458      0.56728860
       5681.1606      0.29165819
       5681.8753      0.13495315
       5682.5901      0.39865047
       5683.3048      0.46299386
       5684.0195      0.58639683
       5684.7343      0.17379050
       5685.4490      0.20638930
       5686.1638      0.95425677
       5686.8785      0.15946417
       5687.5932      0.20316844
       5688.3080      0.44465341
       5689.0227      0.49741791
       5689.7375      0.40496067
       5690.4522      0.50666161
       5691.1669      0.38607031
       5691.8817      0.68065919
       5692.5964     -0.41347626
       5693.3112      0.43520906
       5694.0259      0.47740624
       5694.7407      0.74862603
       5695.4554      0.20006868
       5696.1701     0.070136140
       5696.8849       1.4901374
       5697.5996      0.53995935
       5698.3144      0.11420774
       5699.0291      0.31180794
       5699.7438      0.44099067
       5700.4586      0.47925579
       5701.1733      0.38047654
       5701.8881      0.45081867
       5702.6028      0.48078554
       5703.3176      0.22785976
       5704.0323      0.36371752
       5704.7470      0.39731835
       5705.4618      0.28640579
       5706.1765      0.43181432
       5706.8913      0.44692154
       5707.6060      0.38920870
       5708.3207     0.052065887
       5709.0355      0.43836825
       5709.7502      0.25952171
       5710.4650    -0.080471101
       5711.1797      0.35498715
       5711.8945      0.33186863
       5712.6092      0.86942458
       5713.3239      0.39851661
       5714.0387      0.51022780
       5714.7534      0.55208299
       5715.4682      0.51195495
       5716.1829      0.58127313
       5716.8976      0.39072257
       5717.6124     0.070309251
       5718.3271     -0.18952114
       5719.0419      0.92728787
       5719.7566      0.83164378
       5720.4713      0.34820088
       5721.1861      0.51537028
       5721.9008      0.66453727
       5722.6156      0.94638744
       5723.3303      0.11099699
       5724.0451     0.059780469
       5724.7598      0.31854669
       5725.4745      0.37297851
       5726.1893      0.16567535
       5726.9040      0.32913081
       5727.6188      0.42397521
       5728.3335      0.52844390
       5729.0482      0.49421629
       5729.7630      0.27092127
       5730.4777      0.44601061
       5731.1925      0.52923418
       5731.9072      0.52702051
       5732.6220      0.54172002
       5733.3367      0.58560118
       5734.0514      0.39325525
       5734.7662      0.45392176
       5735.4809      0.38893051
       5736.1957      0.47815069
       5736.9104      0.37505167
       5737.6251      0.13611727
       5738.3399      0.26986069
       5739.0546      0.66929265
       5739.7694      0.63515664
       5740.4841      0.35041239
       5741.1988      0.67638702
       5741.9136      0.70252054
       5742.6283      0.63555959
       5743.3431      0.43583378
       5744.0578      0.27655730
       5744.7726      0.27392848
       5745.4873      0.51400180
       5746.2020      0.38048614
       5746.9168    -0.010510614
       5747.6315      0.54400037
       5748.3463      0.85879549
       5749.0610      0.40670594
       5749.7757      0.21202197
       5750.4905      0.22734852
       5751.2052       1.1366865
       5751.9200      0.25041614
       5752.6347      0.34681145
       5753.3495      0.51854370
       5754.0642      0.46203694
       5754.7789      0.35196786
       5755.4937      0.31424518
       5756.2084      0.54626112
       5756.9232      0.43116858
       5757.6379      0.51189871
       5758.3526      0.55789614
       5759.0674      0.50396444
       5759.7821      0.63082385
       5760.4969      0.48682036
       5761.2116      0.40251705
       5761.9263      0.43154939
       5762.6411      0.35408539
       5763.3558      0.31265225
       5764.0706      0.41515242
       5764.7853      0.46359146
       5765.5001      0.43329033
       5766.2148      0.45431896
       5766.9295      0.40252178
       5767.6443      0.40714036
       5768.3590      0.39949265
       5769.0738      0.61942132
       5769.7885      0.44135201
       5770.5032      0.34549966
       5771.2180      0.43395569
       5771.9327      0.59122654
       5772.6475      0.51005211
       5773.3622      0.31445938
       5774.0770      0.36922215
       5774.7917      0.57661769
       5775.5064      0.73960479
       5776.2212      0.46452916
       5776.9359      0.45023873
       5777.6507      0.44562943
       5778.3654      0.22992286
       5779.0801      0.32858649
       5779.7949      0.25411402
       5780.5096      0.42923168
       5781.2244      0.12063547
       5781.9391      0.34019017
       5782.6539      0.57965446
       5783.3686      0.81103576
       5784.0833      0.30095127
       5784.7981      0.34372082
       5785.5128      0.37473630
       5786.2276      0.38963816
       5786.9423      0.50562347
       5787.6570      0.63062008
       5788.3718      0.49676950
       5789.0865      0.56317624
       5789.8013      0.40781303
       5790.5160      0.36064915
       5791.2307      0.53073734
       5791.9455      0.49463495
       5792.6602      0.38186985
       5793.3750      0.36604508
       5794.0897      0.61355140
       5794.8045      0.48870613
       5795.5192      0.53500837
       5796.2339      0.47031386
       5796.9487      0.58714318
       5797.6634      0.51850124
       5798.3782      0.51575692
       5799.0929      0.51911258
       5799.8076      0.37012030
       5800.5224      0.38842024
       5801.2371      0.47144415
       5801.9519      0.38920550
       5802.6666      0.38448312
       5803.3814      0.45044784
       5804.0961      0.45086114
       5804.8108      0.41793135
       5805.5256      0.46215304
       5806.2403      0.36784228
       5806.9551      0.44906702
       5807.6698      0.28507665
       5808.3845      0.70583817
       5809.0993      0.50474123
       5809.8140      0.42714169
       5810.5288      0.26212804
       5811.2435      0.74426276
       5811.9582      0.82271086
       5812.6730      0.39588053
       5813.3877      0.47762379
       5814.1025      0.32812571
       5814.8172      0.73080297
       5815.5320      0.53035644
       5816.2467      0.76176616
       5816.9614      0.59446972
       5817.6762      0.86780612
       5818.3909      0.78466343
       5819.1057      0.40840427
       5819.8204      0.37877302
       5820.5351      0.23090970
       5821.2499      0.44342410
       5821.9646      0.38471503
       5822.6794      0.28409670
       5823.3941      0.36144303
       5824.1089      0.69230359
       5824.8236      0.55279821
       5825.5383      0.14633430
       5826.2531      0.25697961
       5826.9678      0.87154730
       5827.6826      0.90876246
       5828.3973      0.62688455
       5829.1120      0.40263481
       5829.8268      0.59664898
       5830.5415      0.49775944
       5831.2563      0.12260844
       5831.9710      0.45848472
       5832.6858      0.31747489
       5833.4005      0.14652223
       5834.1152      0.29921656
       5834.8300      0.53361808
       5835.5447      0.39578709
       5836.2595      0.18723231
       5836.9742      0.33517206
       5837.6889      0.17889017
       5838.4037      0.10334805
       5839.1184      0.83657031
       5839.8332      0.83359800
       5840.5479      0.45845943
       5841.2626      0.65120243
       5841.9774       1.0804569
       5842.6921      0.89606490
       5843.4069    -0.042068839
       5844.1216      0.17942636
       5844.8364      0.54195211
       5845.5511      0.54026319
       5846.2658      0.47998042
       5846.9806      0.35149978
       5847.6953      0.43030262
       5848.4101      0.53026415
       5849.1248      0.42551329
       5849.8395      0.50653988
       5850.5543      0.74797589
       5851.2690      0.45491760
       5851.9838      0.59150608
       5852.6985      0.64433314
       5853.4133      0.44974007
       5854.1280      0.10674686
       5854.8427      0.50342684
       5855.5575      0.63334377
       5856.2722      0.62744666
       5856.9870      0.37685936
       5857.7017      0.64761437
       5858.4164      0.46594855
       5859.1312      0.50041622
       5859.8459      0.49416926
       5860.5607      0.49647895
       5861.2754      0.54112802
       5861.9901      0.36346898
       5862.7049      0.47144327
       5863.4196      0.47787292
       5864.1344      0.38928192
       5864.8491      0.22734580
       5865.5639      0.29549389
       5866.2786      0.42421284
       5866.9933      0.46272739
       5867.7081      0.53023909
       5868.4228      0.38459262
       5869.1376      0.38441701
       5869.8523      0.49277616
       5870.5670      0.43280392
       5871.2818      0.32439831
       5871.9965      0.40575602
       5872.7113      0.38523864
       5873.4260      0.41253907
       5874.1408      0.43265417
       5874.8555      0.57165308
       5875.5702      0.25841425
       5876.2850      0.29367926
       5876.9997      0.44545875
       5877.7145      0.40931158
       5878.4292      0.55846575
       5879.1439      0.51694986
       5879.8587      0.92331796
       5880.5734       1.2604432
       5881.2882       2.7285073
       5882.0029       1.8501217
       5882.7177       1.4055199
       5883.4324      0.77842654
       5884.1471       1.3397987
       5884.8619       2.8387909
       5885.5766       2.0036358
       5886.2914      0.29238765
       5887.0061      0.44873439
       5887.7208      0.63649301
       5888.4356      0.49803078
       5889.1503      0.19189929
       5889.8651      0.56621651
       5890.5798      0.66189718
       5891.2945     0.011866634
       5892.0093      0.23183309
       5892.7240      0.32006670
       5893.4388      0.46896857
       5894.1535      0.60354985
       5894.8683      0.73645162
       5895.5830      0.52676102
       5896.2977      0.37830407
       5897.0125      0.49544335
       5897.7272      0.56850367
       5898.4420      0.53935049
       5899.1567      0.66952521
       5899.8714      0.26270972
       5900.5862      0.56259786
       5901.3009      0.52437641
       5902.0157      0.42070943
       5902.7304      0.46981045
       5903.4452      0.42952575
       5904.1599      0.42751973
       5904.8746      0.40561507
       5905.5894      0.49021359
       5906.3041      0.41262704
       5907.0189      0.31340772
       5907.7336      0.34770048
       5908.4483      0.27276139
       5909.1631      0.53939072
       5909.8778      0.31696973
       5910.5926      0.31644662
       5911.3073      0.36394428
       5912.0220      0.32706321
       5912.7368      0.35737632
       5913.4515      0.28973895
       5914.1663      0.39994535
       5914.8810      0.23527866
       5915.5958      0.41578155
       5916.3105       1.0242657
       5917.0252      0.56587634
       5917.7400      0.75082988
       5918.4547      0.54378588
       5919.1695       1.0029628
       5919.8842      0.48974098
       5920.5989     0.024013039
       5921.3137      0.38718859
       5922.0284      0.53266114
       5922.7432      0.32134682
       5923.4579      0.45097566
       5924.1727      0.42541968
       5924.8874      0.59786725
       5925.6021      0.39950775
       5926.3169      0.48547195
       5927.0316      0.34602990
       5927.7464      0.40734947
       5928.4611   -0.0054533849
       5929.1758     -0.98799962
       5929.8906      0.58912018
       5930.6053       1.2838427
       5931.3201      0.81000772
       5932.0348      0.36019427
       5932.7495       1.1917993
       5933.4643       1.5336815
       5934.1790     -0.18629343
       5934.8938     -0.69424299
       5935.6085     0.078980802
       5936.3233      0.28048187
       5937.0380      0.28943218
       5937.7527      0.36535846
       5938.4675      0.53343935
       5939.1822      0.33447071
       5939.8970      0.50584513
       5940.6117      0.51908215
       5941.3264      0.37844601
       5942.0412      0.41227002
       5942.7559      0.13423150
       5943.4707      0.73167810
       5944.1854      0.53940390
       5944.9002      0.41667547
       5945.6149      0.42332967
       5946.3296      0.68823150
       5947.0444       1.0464599
       5947.7591      0.23648161
       5948.4739      0.15236507
       5949.1886      0.31251736
       5949.9033      0.61780777
       5950.6181      0.44997343
       5951.3328      0.52936825
       5952.0476      0.41594469
       5952.7623      0.39004695
       5953.4771      0.32821503
       5954.1918     -0.47730541
       5954.9065     -0.58961448
       5955.6213       1.7830105
       5956.3360      0.88598121
       5957.0508      0.61539560
       5957.7655      0.54577842
       5958.4802       1.4827512
       5959.1950       1.9390405
       5959.9097     -0.34517298
       5960.6245    -0.055091308
       5961.3392      0.39749623
       5962.0539      0.41595132
       5962.7687      0.18619772
       5963.4834      0.39952333
       5964.1982      0.58415648
       5964.9129      0.39582707
       5965.6277      0.52671018
       5966.3424      0.58014916
       5967.0571      0.49465592
       5967.7719      0.57124327
       5968.4866      0.21057632
       5969.2014      0.21641022
       5969.9161      0.28846808
       5970.6308     0.089655949
       5971.3456     -0.12364725
       5972.0603      0.86342761
       5972.7751      0.38695060
       5973.4898      0.22719811
       5974.2046      0.19168487
       5974.9193       1.1146943
       5975.6340      0.74385061
       5976.3488      0.26527399
       5977.0635      0.33975152
       5977.7783      0.80551243
       5978.4930    -0.051502593
       5979.2077     -0.55322763
       5979.9225     -0.90559359
       5980.6372       1.0587735
       5981.3520      0.35896571
       5982.0667    -0.098988364
       5982.7814      0.15979817
       5983.4962      0.89926670
       5984.2109       1.5648644
       5984.9257      0.68418448
       5985.6404     -0.36434509
       5986.3552      0.38456659
       5987.0699       1.1563514
       5987.7846      0.89156233
       5988.4994     -0.50525712
       5989.2141     0.010347487
       5989.9289     0.074433156
       5990.6436      0.36042331
       5991.3583      0.24484382
       5992.0731      0.34228700
       5992.7878    0.0056930025
       5993.5026      0.57744779
       5994.2173      0.50197798
       5994.9321      0.47526585
       5995.6468      0.41379390
       5996.3615      0.53123154
       5997.0763      0.32274324
       5997.7910      0.33945936
       5998.5058      0.31924422
       5999.2205      0.39697353
       5999.9352      0.44072449
       6000.6500      0.32789220
       6001.3647      0.31511810
       6002.0795      0.36583672
       6002.7942      0.50689212
       6003.5090      0.42740683
       6004.2237      0.48636939
       6004.9384      0.36743048
       6005.6532      0.22453542
       6006.3679      0.41614166
       6007.0827      0.62646647
       6007.7974      0.57181777
       6008.5121      0.38751576
       6009.2269      0.16402368
       6009.9416      0.40414378
       6010.6564      0.37625589
       6011.3711      0.23339142
       6012.0858      0.27286586
       6012.8006     -0.17933657
       6013.5153     -0.84310070
       6014.2301      0.29317901
       6014.9448       1.8684387
       6015.6596      0.74996361
       6016.3743      0.13408001
       6017.0890      0.83226470
       6017.8038       2.5518957
       6018.5185      0.80414419
       6019.2333     -0.27298202
       6019.9480     -0.12539117
       6020.6627     -0.19139903
       6021.3775     -0.11361593
       6022.0922      0.42398606
       6022.8070      0.71705366
       6023.5217      0.53673678
       6024.2365      0.52333422
       6024.9512      0.35858219
       6025.6659       1.2060695
       6026.3807    -0.084631202
       6027.0954      0.17554440
       6027.8102      0.36369994
       6028.5249      0.16063484
       6029.2396      0.39588563
       6029.9544      0.21739592
       6030.6691      0.46667320
       6031.3839      0.48721393
       6032.0986      0.18397648
       6032.8133      0.24764007
       6033.5281      0.36550703
       6034.2428      0.39410648
       6034.9576      0.19297414
       6035.6723      0.23104036
       6036.3871      0.68604525
       6037.1018      0.52614490
       6037.8165      0.23427512
       6038.5313      0.27901963
       6039.2460      0.48670436
       6039.9608      0.47542718
       6040.6755      0.49137582
       6041.3902      0.22468504
       6042.1050     0.093625856
       6042.8197      0.28442653
       6043.5345      0.41855825
       6044.2492      0.77408946
       6044.9640      0.26330464
       6045.6787     0.030542960
       6046.3934      0.52399894
       6047.1082      0.40742359
       6047.8229      0.16753554
       6048.5377      0.45226270
       6049.2524      0.32834741
       6049.9671      0.25156508
       6050.6819      0.67458565
       6051.3966      0.23888889
       6052.1114      0.45260669
       6052.8261      0.51915220
       6053.5409      0.31455052
       6054.2556      0.28843164
       6054.9703     -0.21953941
       6055.6851     -0.49008525
       6056.3998      0.70657159
       6057.1146      0.55300262
       6057.8293      0.95445344
       6058.5440      0.32618970
       6059.2588      0.74815381
       6059.9735      0.67618515
       6060.6883     -0.29367555
       6061.4030    -0.099914057
       6062.1177      0.13280167
       6062.8325      0.39573587
