# wavelength flux
       1872.8341     0.024554243
       1873.4862     0.016173027
       1874.1383   -0.0039881251
       1874.7904   -0.0032485855
       1875.4425    -0.032956743
       1876.0946     0.077043152
       1876.7467     0.027554869
       1877.3988    -0.046779668
       1878.0509    -0.020024044
       1878.7030     0.045506183
       1879.3551    -0.068485326
       1880.0072    -0.091698689
       1880.6594     0.062442401
       1881.3115    -0.042031485
       1881.9636     0.076817890
       1882.6157   -0.0049779469
       1883.2678     0.038711279
       1883.9199    -0.017170587
       1884.5720     0.054332500
       1885.2241    -0.033055039
       1885.8762     0.014939314
       1886.5283     0.055022227
       1887.1804     0.019772112
       1887.8325     0.088758791
       1888.4846     0.027582631
       1889.1368    -0.035484888
       1889.7889     0.023584122
       1890.4410    -0.042041498
       1891.0931    -0.062198879
       1891.7452    -0.025903970
       1892.3973     0.035316534
       1893.0494    0.0073508559
       1893.7015    -0.047019597
       1894.3536     0.010923713
       1895.0057    -0.015547878
       1895.6578    -0.015498900
       1896.3099    -0.033182855
       1896.9621     0.069270501
       1897.6142     0.047138667
       1898.2663     0.072244202
       1898.9184     0.050906605
       1899.5705    -0.037160181
       1900.2226     0.034891504
       1900.8747      0.11684976
       1901.5268     0.039830902
       1902.1789     0.060030610
       1902.8310     0.065978280
       1903.4831     0.021252154
       1904.1352     0.032996333
       1904.7873     0.027510047
       1905.4395     0.015128678
       1906.0916    -0.029819365
       1906.7437     0.012492171
       1907.3958   -0.0084571917
       1908.0479    -0.010054934
       1908.7000     0.082740184
       1909.3521    0.0056921715
       1910.0042    -0.019755099
       1910.6563    0.0052405210
       1911.3084     0.053610938
       1911.9605    0.0035403134
       1912.6126    -0.019762064
       1913.2647    0.0056936800
       1913.9169    -0.068359584
       1914.5690    0.0061368011
       1915.2211     0.025056507
       1915.8732     0.012876715
       1916.5253  -0.00093698631
       1917.1774     0.075671444
       1917.8295     0.044291282
       1918.4816     0.046011011
       1919.1337    -0.019058773
       1919.7858    0.0025687964
       1920.4379     0.024452941
       1921.0900     0.025741667
       1921.7421    0.0024171907
       1922.3943     0.011572990
       1923.0464    -0.038997883
       1923.6985     0.016481312
       1924.3506    -0.062761479
       1925.0027    0.0056899643
       1925.6548     0.056491977
       1926.3069     0.020750962
       1926.9590     0.044334173
       1927.6111    -0.025949522
       1928.2632    -0.041120079
       1928.9153   -0.0051697210
       1929.5674    0.0089865998
       1930.2195    -0.059606784
       1930.8717     0.030023467
       1931.5238    -0.024088053
       1932.1759     0.022060944
       1932.8280     0.020551736
       1933.4801     0.032414764
       1934.1322     0.053166459
       1934.7843   6.1651806e-06
       1935.4364     0.014996853
       1936.0885    -0.029440486
       1936.7406  -0.00076059559
       1937.3927    -0.055875038
       1938.0448    0.0046608084
       1938.6969     0.020617900
       1939.3491    -0.046089445
       1940.0012   0.00064056008
       1940.6533    0.0010102219
       1941.3054   -0.0054488456
       1941.9575    -0.019785376
       1942.6096     0.047795949
       1943.2617     0.044594233
       1943.9138     0.039217444
       1944.5659     0.019698281
       1945.2180     0.038241281
       1945.8701    -0.024418230
       1946.5222    -0.032338291
       1947.1744     0.061076422
       1947.8265     0.084509014
       1948.4786    0.0050413774
       1949.1307    -0.013446339
       1949.7828     0.041937219
       1950.4349    0.0089783178
       1951.0870     0.036453022
       1951.7391     0.057448961
       1952.3912     0.019984243
       1953.0433     0.022235687
       1953.6954     0.052679617
       1954.3475     0.089865122
       1954.9996     0.021488615
       1955.6518     0.039159190
       1956.3039     0.054903603
       1956.9560     0.040280298
       1957.6081     0.035929563
       1958.2602     0.050065627
       1958.9123    -0.020264130
       1959.5644     0.026196534
       1960.2165     0.032551336
       1960.8686    -0.011406579
       1961.5207     0.048745785
       1962.1728     0.022599295
       1962.8249     0.010748201
       1963.4770     0.023068746
       1964.1292     0.028168960
       1964.7813     0.036394378
       1965.4334     0.022078402
       1966.0855    0.0073482820
       1966.7376    -0.042366419
       1967.3897    -0.043753577
       1968.0418    -0.023558207
       1968.6939   -0.0082616453
       1969.3460     0.042120505
       1969.9981     0.029043199
       1970.6502   -0.0065780990
       1971.3023    0.0092978543
       1971.9544     0.025205635
       1972.6066     0.022206224
       1973.2587    -0.013836259
       1973.9108   -0.0080019543
       1974.5629     0.053396505
       1975.2150  -0.00096792765
       1975.8671     0.060597668
       1976.5192     0.030707650
       1977.1713    -0.055257841
       1977.8234    0.0076479103
       1978.4755     0.027490343
       1979.1276    0.0085321380
       1979.7797    -0.010339264
       1980.4318    -0.016490852
       1981.0840    -0.051689925
       1981.7361   -0.0033332909
       1982.3882    -0.015068979
       1983.0403    -0.020086187
       1983.6924   -0.0065491321
       1984.3445    0.0062858596
       1984.9966    -0.038247507
       1985.6487    0.0090344796
       1986.3008   -0.0091530924
       1986.9529   -0.0097197327
       1987.6050    -0.034668954
       1988.2571   -0.0042882768
       1988.9092     0.032756473
       1989.5614   -0.0030065746
       1990.2135    -0.013749746
       1990.8656    -0.023612738
       1991.5177    -0.012563951
       1992.1698     0.015685751
       1992.8219   -0.0056133778
       1993.4740    -0.020084969
       1994.1261     0.054456478
       1994.7782     0.044940420
       1995.4303     0.046399876
       1996.0824     0.045294412
       1996.7345     0.026016158
       1997.3867    -0.016061335
       1998.0388  -0.00068167902
       1998.6909     0.054088902
       1999.3430    0.0013592119
       1999.9951     0.030343070
       2000.6472     0.024988244
       2001.2993     0.043333918
       2001.9514     0.049431242
       2002.6035     0.020301349
       2003.2556     0.010039329
       2003.9077     0.024684752
       2004.5598     0.017641444
       2005.2119     0.042481947
       2005.8641     0.021718671
       2006.5162     0.068606739
       2007.1683     0.068229845
       2007.8204     0.021892297
       2008.4725     0.035015045
       2009.1246     0.088101431
       2009.7767  -0.00091484463
       2010.4288     0.040099359
       2011.0809     0.039472346
       2011.7330    0.0093399458
       2012.3851     0.054844509
       2013.0372     0.011069173
       2013.6893     0.047800779
       2014.3415    0.0083664837
       2014.9936     0.030436632
       2015.6457     0.023339037
       2016.2978   -0.0014145568
       2016.9499     0.039023965
       2017.6020    0.0042239022
       2018.2541    0.0046548230
       2018.9062     0.021238173
       2019.5583     0.016283209
       2020.2104     0.026364571
       2020.8625    0.0026436424
       2021.5146     0.067576659
       2022.1667     0.061539391
       2022.8189     0.029742957
       2023.4710   -0.0027240651
       2024.1231     0.015555844
       2024.7752     0.032824202
       2025.4273     0.021744247
       2026.0794     0.046535269
       2026.7315   -0.0081414808
       2027.3836     0.076212030
       2028.0357   -0.0087137968
       2028.6878     0.011512593
       2029.3399     0.018890709
       2029.9920    -0.042192275
       2030.6441    -0.051711950
       2031.2963   -0.0029079209
       2031.9484     0.038028070
       2032.6005   0.00098683504
       2033.2526     0.022837184
       2033.9047     0.059623878
       2034.5568     0.020792419
       2035.2089     0.031154426
       2035.8610    -0.017231293
       2036.5131    0.0095444106
       2037.1652     0.026595534
       2037.8173     0.034317521
       2038.4694     0.044631015
       2039.1215     0.011819802
       2039.7737     0.044732502
       2040.4258     0.064084228
       2041.0779     0.058329230
       2041.7300     0.015207819
       2042.3821     0.024258369
       2043.0342     0.020305506
       2043.6863    0.0080451499
       2044.3384     0.013944949
       2044.9905  -0.00061842402
       2045.6426     0.017282577
       2046.2947     0.024128982
       2046.9468     0.035663636
       2047.5990     0.015385684
       2048.2511     0.017720419
       2048.9032     0.019461059
       2049.5553     0.058453111
       2050.2074     0.053024808
       2050.8595     0.043764274
       2051.5116    0.0033808285
       2052.1637    0.0075724541
       2052.8158     0.019622415
       2053.4679     0.032644178
       2054.1200     0.037119096
       2054.7721     0.023747574
       2055.4242   -0.0037761130
       2056.0764     0.019722412
       2056.7285     0.058882850
       2057.3806     0.019228323
       2058.0327     0.034243449
       2058.6848     0.031357929
       2059.3369     0.013689621
       2059.9890   -0.0034938577
       2060.6411     0.021423296
       2061.2932     0.022750807
       2061.9453     0.026852949
       2062.5974     0.035459586
       2063.2495    -0.010845185
       2063.9016    0.0086765601
       2064.5538    0.0079654902
       2065.2059     0.071450253
       2065.8580   -0.0040305633
       2066.5101     0.025262316
       2067.1622     0.023725307
       2067.8143     0.022925879
       2068.4664     0.024352301
       2069.1185     0.040691953
       2069.7706     0.048451642
       2070.4227     0.046038870
       2071.0748     0.017243405
       2071.7269    0.0019196202
       2072.3790     0.024857503
       2073.0312     0.011861154
       2073.6833    0.0075861680
       2074.3354     0.014561887
       2074.9875    0.0094526242
       2075.6396     0.064883084
       2076.2917     0.016331117
       2076.9438     0.017338328
       2077.5959    -0.039132820
       2078.2480    0.0090808049
       2078.9001     0.061879630
       2079.5522    0.0030569213
       2080.2043     0.017955963
       2080.8564     0.032577730
       2081.5086    0.0040848436
       2082.1607    0.0024415287
       2082.8128     0.033387516
       2083.4649     0.011860348
       2084.1170     0.021079671
       2084.7691     0.014480894
       2085.4212    0.0021881604
       2086.0733  -7.0992058e-06
       2086.7254    0.0091969209
       2087.3775     0.040574489
       2088.0296     0.047093746
       2088.6817    0.0094230897
       2089.3339     0.056207515
       2089.9860     0.035304700
       2090.6381    0.0040333015
       2091.2902     0.017923275
       2091.9423    -0.039821743
       2092.5944    -0.010355996
       2093.2465     0.023906791
       2093.8986     0.027930350
       2094.5507     0.036489137
       2095.2028     0.029698876
       2095.8549   -0.0011325135
       2096.5070     0.015405966
       2097.1591     0.066470425
       2097.8113     0.065143776
       2098.4634     0.056406995
       2099.1155   -0.0090479060
       2099.7676    0.0058766229
       2100.4197   -0.0068251249
       2101.0718   0.00032863538
       2101.7239     0.035806486
       2102.3760     0.048579871
       2103.0281     0.024984470
       2103.6802     0.019763331
       2104.3323     0.063439615
       2104.9844     0.030699363
       2105.6365     0.034188355
       2106.2887     0.048326026
       2106.9408     0.044304943
       2107.5929     0.037896390
       2108.2450     0.047861754
       2108.8971   -0.0064197807
       2109.5492     0.020789631
       2110.2013   -0.0020445705
       2110.8534    -0.013573579
       2111.5055     0.010314282
       2112.1576     0.025110297
       2112.8097     0.062927071
       2113.4618     0.057572691
       2114.1139     0.029501734
       2114.7661     0.056712445
       2115.4182     0.058441865
       2116.0703     0.072530082
       2116.7224    0.0083331946
       2117.3745     0.031764461
       2118.0266     0.025956893
       2118.6787  -0.00092471402
       2119.3308    0.0020289194
       2119.9829     0.017911524
       2120.6350     0.017146008
       2121.2871    0.0071995797
       2121.9392    -0.012245440
       2122.5913   -0.0044631438
       2123.2435     0.042313888
       2123.8956     0.039621366
       2124.5477     0.035909384
       2125.1998    -0.016786306
       2125.8519     0.029094893
       2126.5040     0.027409551
       2127.1561    0.0026207574
       2127.8082    0.0028023544
       2128.4603    0.0082913239
       2129.1124   -0.0022065837
       2129.7645     0.023112599
       2130.4166     0.013773608
       2131.0687     0.035422733
       2131.7209     0.053498484
       2132.3730     0.055248391
       2133.0251     0.041845513
       2133.6772     0.056948937
       2134.3293     0.031579437
       2134.9814     0.032761892
       2135.6335    0.0066168691
       2136.2856     0.043674748
       2136.9377     0.049576630
       2137.5898   -0.0046527529
       2138.2419     0.057300836
       2138.8940    0.0080260273
       2139.5462     0.023271650
       2140.1983   -0.0013403336
       2140.8504     0.015760298
       2141.5025     0.043241728
       2142.1546     0.018129251
       2142.8067     0.020052150
       2143.4588     0.035925102
       2144.1109     0.044342967
       2144.7630     0.026937505
       2145.4151     0.036962942
       2146.0672    -0.020648792
       2146.7193     0.047695353
       2147.3714     0.027665226
       2148.0236     0.015903893
       2148.6757     0.012505536
       2149.3278     0.048828930
       2149.9799     0.052901162
       2150.6320     0.020444049
       2151.2841     0.053519045
       2151.9362     0.056275189
       2152.5883     0.025905777
       2153.2404     0.032412492
       2153.8925     0.014906593
       2154.5446   -0.0058877045
       2155.1967    -0.010634404
       2155.8488    0.0059007477
       2156.5010     0.033230413
       2157.1531     0.042150091
       2157.8052     0.029601087
       2158.4573     0.013922887
       2159.1094     0.014806374
       2159.7615     0.038727543
       2160.4136     0.010654764
       2161.0657     0.029204906
       2161.7178   -0.0049953635
       2162.3699     0.026242213
       2163.0220     0.027943481
       2163.6741     0.039530074
       2164.3262     0.043130938
       2164.9784     0.035249974
       2165.6305     0.022133736
       2166.2826     0.021551258
       2166.9347     0.037806277
       2167.5868     0.020725682
       2168.2389    0.0088376846
       2168.8910     0.015918364
       2169.5431   -0.0048011629
       2170.1952     0.025807485
       2170.8473     0.024922909
       2171.4994     0.043869103
       2172.1515     0.022993559
       2172.8036    0.0071411253
       2173.4558     0.026519952
       2174.1079     0.029799903
       2174.7600     0.035530187
       2175.4121   -0.0064428004
       2176.0642     0.018677522
       2176.7163     0.030022078
       2177.3684     0.038799334
       2178.0205     0.041332365
       2178.6726     0.025117480
       2179.3247     0.022726823
       2179.9768   -0.0092869020
       2180.6289     0.017008649
       2181.2810    0.0065549601
       2181.9332     0.014843806
       2182.5853     0.069950190
       2183.2374     0.015189807
       2183.8895     0.059744478
       2184.5416   0.00024434394
       2185.1937     0.011960482
       2185.8458     0.018834443
       2186.4979     0.040744863
       2187.1500     0.013509950
       2187.8021     0.040888336
       2188.4542     0.013418866
       2189.1063     0.029793663
       2189.7585     0.019499749
       2190.4106     0.030649847
       2191.0627     0.017268215
       2191.7148     0.043840359
       2192.3669     0.031543034
       2193.0190     0.049318566
       2193.6711     0.047586095
       2194.3232     0.055867883
       2194.9753     0.016102627
       2195.6274     0.031555785
       2196.2795     0.041082080
       2196.9316     0.045202704
       2197.5837     0.041160338
       2198.2359     0.023910596
       2198.8880   -0.0098929683
       2199.5401     0.037833728
       2200.1922     0.039839359
       2200.8443     0.032741327
       2201.4964     0.016103888
       2202.1485     0.017042018
       2202.8006    0.0053140639
       2203.4527    0.0046874921
       2204.1048     0.038700597
       2204.7569     0.035440161
       2205.4090     0.013415352
       2206.0611    0.0013304001
       2206.7133     0.026648931
       2207.3654    0.0022230753
       2208.0175     0.028747946
       2208.6696     0.043351373
       2209.3217     0.016926657
       2209.9738    0.0089166035
       2210.6259     0.038773892
       2211.2780     0.034289576
       2211.9301     0.025969580
       2212.5822     0.029775409
       2213.2343     0.049860005
       2213.8864     0.037683998
       2214.5385     0.031347455
       2215.1907     0.038247731
       2215.8428     0.040272165
       2216.4949     0.016033079
       2217.1470     0.053200139
       2217.7991     0.037029815
       2218.4512     0.054771364
       2219.1033     0.043746616
       2219.7554     0.045774203
       2220.4075     0.030132899
       2221.0596     0.027738271
       2221.7117     0.012273968
       2222.3638     0.046817730
       2223.0159     0.025824606
       2223.6681     0.025474192
       2224.3202     0.031802372
       2224.9723     0.037856640
       2225.6244     0.056099073
       2226.2765     0.026160121
       2226.9286    0.0059612220
       2227.5807     0.025064496
       2228.2328     0.049120609
       2228.8849     0.030713309
       2229.5370     0.035516660
       2230.1891    0.0028127911
       2230.8412    -0.010319356
       2231.4933     0.044796124
       2232.1455     0.047464897
       2232.7976     0.041815502
       2233.4497     0.044784998
       2234.1018     0.025416921
       2234.7539     0.021604249
       2235.4060     0.035783716
       2236.0581     0.020973168
       2236.7102     0.029375921
       2237.3623     0.029038795
       2238.0144     0.039768651
       2238.6665   -0.0044558073
       2239.3186     0.026324121
       2239.9708     0.028323974
       2240.6229     0.069503024
       2241.2750     0.024728246
       2241.9271     0.027970842
       2242.5792     0.035881806
       2243.2313     0.023686407
       2243.8834     0.052920007
       2244.5355     0.025081802
       2245.1876     0.043477841
       2245.8397     0.023288890
       2246.4918   -0.0053041020
       2247.1439     0.035446536
       2247.7960    -0.013127799
       2248.4482    -0.010254237
       2249.1003    -0.024738804
       2249.7524     0.017218018
       2250.4045     0.029749346
       2251.0566   -0.0061479376
       2251.7087     0.016843985
       2252.3608     0.028343395
       2253.0129     0.084977299
       2253.6650     0.035889581
       2254.3171     0.035124066
       2254.9692     0.021586096
       2255.6213     0.068828456
       2256.2734     0.032917430
       2256.9256    0.0069621906
       2257.5777     0.067650983
       2258.2298    -0.020211626
       2258.8819     0.010008306
       2259.5340     0.011139776
       2260.1861     0.025281615
       2260.8382     0.019648282
       2261.4903     0.018605742
       2262.1424     0.041119693
       2262.7945   -0.0079949656
       2263.4466     0.025526383
       2264.0987     0.041346682
       2264.7508     0.047920375
       2265.4030     0.039896688
       2266.0551     0.025306400
       2266.7072     0.017303440
       2267.3593     0.041634674
       2268.0114   -0.0059453751
       2268.6635    0.0037802230
       2269.3156     0.013986547
       2269.9677     0.013503455
       2270.6198     0.064078918
       2271.2719     0.023465346
       2271.9240     0.049416624
       2272.5761     0.030243418
       2273.2282     0.020409945
       2273.8804     0.036374512
       2274.5325   -0.0010108019
       2275.1846     0.013358451
       2275.8367     0.040203687
       2276.4888     0.027923189
       2277.1409     0.015135287
       2277.7930     0.030797020
       2278.4451     0.047859774
       2279.0972    0.0018225369
       2279.7493     0.013111920
       2280.4014     0.019508139
       2281.0535     0.014030523
       2281.7057     0.032229884
       2282.3578     0.011071955
       2283.0099     0.040020250
       2283.6620    0.0074186809
       2284.3141     0.028506916
       2284.9662    0.0075887295
       2285.6183  -0.00052628048
       2286.2704     0.018418352
       2286.9225     0.037022707
       2287.5746    0.0075896667
       2288.2267     0.026860303
       2288.8788     0.037155005
       2289.5309     0.040737213
       2290.1831     0.027372340
       2290.8352     0.036410327
       2291.4873     0.034939199
       2292.1394    0.0068861995
       2292.7915     0.028453839
       2293.4436     0.026669167
       2294.0957     0.048801003
       2294.7478     0.036507364
       2295.3999     0.023181363
       2296.0520     0.041953841
       2296.7041     0.036536912
       2297.3562     0.017159934
       2298.0083     0.027512014
       2298.6605     0.027140539
       2299.3126     0.037339085
       2299.9647     0.041123483
       2300.6168     0.018028271
       2301.2689     0.025061968
       2301.9210     0.041650572
       2302.5731   -0.0032161440
       2303.2252     0.040013097
       2303.8773     0.029938402
       2304.5294     0.043380776
       2305.1815     0.034275096
       2305.8336     0.018566502
       2306.4857     0.046021948
       2307.1379     0.028087960
       2307.7900     0.031230891
       2308.4421     0.019270087
       2309.0942     0.057192852
       2309.7463     0.058762933
       2310.3984     0.038810434
       2311.0505     0.040990730
       2311.7026     0.020621710
       2312.3547     0.040491758
       2313.0068     0.023013557
       2313.6589     0.026403788
       2314.3110     0.049174454
       2314.9631     0.010350490
       2315.6153     0.045259369
       2316.2674     0.021413540
       2316.9195     0.011983471
       2317.5716     0.016811777
       2318.2237    0.0062734621
       2318.8758     0.030723176
       2319.5279     0.026203587
       2320.1800     0.023987687
       2320.8321    0.0065992535
       2321.4842   -0.0036291522
       2322.1363     0.040120459
       2322.7884     0.021004831
       2323.4405     0.029441756
       2324.0927     0.017373580
       2324.7448     0.012040426
       2325.3969     0.044508596
       2326.0490     0.024969710
       2326.7011     0.015142839
       2327.3532    0.0080340138
       2328.0053     0.029621106
       2328.6574     0.045148302
       2329.3095     0.011890137
       2329.9616     0.019867656
       2330.6137     0.013565494
       2331.2658     0.020093740
       2331.9180     0.031757117
       2332.5701     0.039483161
       2333.2222     0.040136185
       2333.8743   -0.0084999056
       2334.5264     0.010652844
       2335.1785     0.027895735
       2335.8306    0.0055239106
       2336.4827    -0.012730682
       2337.1348     0.031818529
       2337.7869     0.014854360
       2338.4390     0.034976420
       2339.0911     0.038417755
       2339.7432     0.022506554
       2340.3954     0.017300908
       2341.0475     0.028196820
       2341.6996    0.0072107337
       2342.3517     0.046024493
       2343.0038    0.0094512530
       2343.6559     0.026936730
       2344.3080     0.045960972
       2344.9601     0.038065590
       2345.6122     0.012607181
       2346.2643     0.017166959
       2346.9164     0.024962734
       2347.5685     0.016237182
       2348.2206     0.033201521
       2348.8728     0.021972322
       2349.5249     0.022927641
       2350.1770     0.012172291
       2350.8291     0.017166240
       2351.4812    0.0069819135
       2352.1333    0.0075716531
       2352.7854     0.014368730
       2353.4375   -0.0076061157
       2354.0896    0.0046988220
       2354.7417    0.0014155762
       2355.3938     0.032377918
       2356.0459    0.0087106280
       2356.6980     0.027266049
       2357.3502    0.0061451242
       2358.0023     0.037270917
       2358.6544    -0.015138896
       2359.3065     0.016699400
       2359.9586     0.018782894
       2360.6107     0.022209083
       2361.2628     0.035783237
       2361.9149     0.012193660
       2362.5670     0.015675835
       2363.2191   -0.0064833838
       2363.8712     0.042882267
       2364.5233     0.021889545
       2365.1754     0.038812569
       2365.8276     0.041379482
       2366.4797     0.027976944
       2367.1318     0.044906088
       2367.7839     0.013183041
       2368.4360     0.031168200
       2369.0881    0.0090307429
       2369.7402     0.026173574
       2370.3923     0.010679976
       2371.0444     0.017191978
       2371.6965    0.0057950555
       2372.3486     0.039073136
       2373.0007     0.027505256
       2373.6528     0.026548164
       2374.3050     0.024101608
       2374.9571     0.024746599
       2375.6092     0.034230976
       2376.2613     0.037929973
       2376.9134     0.032920083
       2377.5655     0.011808423
       2378.2176   -0.0019565645
       2378.8697     0.019428261
       2379.5218     0.066407618
       2380.1739     0.013770326
       2380.8260     0.043097614
       2381.4781     0.021242845
       2382.1303     0.033287770
       2382.7824     0.037079294
       2383.4345     0.021192475
       2384.0866     0.012089653
       2384.7387     0.051197767
       2385.3908     0.059723590
       2386.0429     0.035607005
       2386.6950     0.035490034
       2387.3471     0.071856616
       2387.9992     0.024469883
       2388.6513     0.045658172
       2389.3034     0.042940538
       2389.9555     0.021390336
       2390.6077     0.015454963
       2391.2598    0.0085858597
       2391.9119     0.015297788
       2392.5640     0.035198592
       2393.2161   -0.0026450085
       2393.8682   -0.0021941409
       2394.5203     0.017300887
       2395.1724     0.015705340
       2395.8245     0.024182089
       2396.4766    0.0069325564
       2397.1287   -0.0020795277
       2397.7808     0.025668570
       2398.4329    0.0038359059
       2399.0851    0.0099283246
       2399.7372     0.013170368
       2400.3893     0.036584150
       2401.0414    0.0047104410
       2401.6935     0.015667764
       2402.3456     0.020467255
       2402.9977     0.010312981
       2403.6498     0.030717593
       2404.3019    0.0097567318
       2404.9540     0.030716258
       2405.6061     0.031199704
       2406.2582     0.035914057
       2406.9103     0.012686018
       2407.5625     0.024200179
       2408.2146     0.014617290
       2408.8667     0.024239107
       2409.5188     0.042305294
       2410.1709     0.055510823
       2410.8230    -0.015404579
       2411.4751   -0.0030608508
       2412.1272     0.011963831
       2412.7793     0.023497149
       2413.4314     0.015733087
       2414.0835     0.013715492
       2414.7356   -0.0027945275
       2415.3877     0.018714357
       2416.0399     0.044051017
       2416.6920     0.027504968
       2417.3441     0.029657661
       2417.9962     0.026310471
       2418.6483     0.059601616
       2419.3004     0.027401781
       2419.9525     0.011392121
       2420.6046     0.029257184
       2421.2567     0.019126944
       2421.9088     0.015786430
       2422.5609     0.035153472
       2423.2130     0.028789997
       2423.8651     0.016065035
       2424.5173     0.028672655
       2425.1694    0.0055710873
       2425.8215   -0.0085874330
       2426.4736     0.019339625
       2427.1257     0.028254337
       2427.7778     0.031529120
       2428.4299    0.0086231578
       2429.0820     0.012883325
       2429.7341     0.048994184
       2430.3862    0.0087725951
       2431.0383     0.018564310
       2431.6904     0.034198731
       2432.3426     0.055901338
       2432.9947     0.037543619
       2433.6468     0.026105845
       2434.2989     0.061984989
       2434.9510     0.035765723
       2435.6031     0.010342966
       2436.2552     0.022688310
       2436.9073     0.018940842
       2437.5594     0.022421036
       2438.2115   0.00037012847
       2438.8636     0.031897722
       2439.5157     0.027928616
       2440.1678     0.056814777
       2440.8200     0.021333799
       2441.4721     0.076220249
       2442.1242     0.026582482
       2442.7763     0.012053337
       2443.4284     0.020537937
       2444.0805     0.018331227
       2444.7326     0.027480612
       2445.3847     0.028879171
       2446.0368     0.032437814
       2446.6889     0.015072360
       2447.3410     0.030594525
       2447.9931     0.023427054
       2448.6452     0.012589129
       2449.2974     0.014676763
       2449.9495     0.031127429
       2450.6016     0.022376000
       2451.2537     0.013388338
       2451.9058     0.034255132
       2452.5579    0.0036797270
       2453.2100     0.019023286
       2453.8621     0.033434469
       2454.5142    0.0076708109
       2455.1663     0.051316325
       2455.8184     0.025206944
       2456.4705   -0.0066143406
       2457.1226     0.045657067
       2457.7748     0.030960754
       2458.4269     0.046815329
       2459.0790    0.0050399302
       2459.7311     0.050360417
       2460.3832     0.049292107
       2461.0353     0.041746615
       2461.6874    0.0028173718
       2462.3395     0.036175523
       2462.9916     0.036562318
       2463.6437     0.037147606
       2464.2958     0.048319764
       2464.9479     0.023627361
       2465.6000     0.014165999
       2466.2522     0.022113857
       2466.9043     0.025566268
       2467.5564     0.021760554
       2468.2085    0.0026620176
       2468.8606     0.031959316
       2469.5127     0.051150531
       2470.1648     0.019153569
       2470.8169     0.016920790
       2471.4690     0.014443730
       2472.1211     0.049313452
       2472.7732     0.048604937
       2473.4253     0.022677499
       2474.0775     0.044542854
       2474.7296     0.036411338
       2475.3817     0.025321421
       2476.0338     0.016969481
       2476.6859     0.034341264
       2477.3380     0.021084822
       2477.9901     0.049411975
       2478.6422     0.016287579
       2479.2943     0.061050212
       2479.9464     0.019124870
       2480.5985     0.029435743
       2481.2506     0.019294609
       2481.9027     0.030726739
       2482.5549     0.033793000
       2483.2070   -0.0028224965
       2483.8591     0.014178330
       2484.5112     0.030034242
       2485.1633    0.0069097772
       2485.8154   -0.0072945540
       2486.4675     0.045842953
       2487.1196     0.031723855
       2487.7717     0.034320796
       2488.4238     0.029984394
       2489.0759     0.051642260
       2489.7280  -0.00088172261
       2490.3801     0.026937317
       2491.0323   -0.0036446082
       2491.6844     0.050056064
       2492.3365     0.026586536
       2492.9886     0.021852865
       2493.6407     0.052722721
       2494.2928    0.0032551935
       2494.9449     0.022146866
       2495.5970    -0.012919352
       2496.2491     0.031294594
       2496.9012     0.044250478
       2497.5533     0.069145816
       2498.2054    0.0068694800
       2498.8575     0.018882160
       2499.5097    0.0076027441
       2500.1618     0.012930231
       2500.8139     0.025065168
       2501.4660     0.043107226
       2502.1181     0.029197794
       2502.7702     0.027520798
       2503.4223     0.031342737
       2504.0744     0.046505045
       2504.7265     0.023290970
       2505.3786     0.059228170
       2506.0307     0.013892721
       2506.6828     0.017869629
       2507.3349     0.013739394
       2507.9871     0.023826062
       2508.6392     0.050833392
       2509.2913     0.038782763
       2509.9434     0.021417293
       2510.5955     0.010307448
       2511.2476     0.061337439
       2511.8997     0.047809408
       2512.5518     0.043149875
       2513.2039     0.032573065
       2513.8560     0.033066144
       2514.5081     0.029830971
       2515.1602     0.031220931
       2515.8123    0.0071967636
       2516.4645     0.030438757
       2517.1166     0.047818861
       2517.7687     0.030857443
       2518.4208     0.045593907
       2519.0729     0.050415446
       2519.7250     0.049484224
       2520.3771     0.043915244
       2521.0292     0.015448912
       2521.6813     0.035744218
       2522.3334     0.021581621
       2522.9855     0.039141786
       2523.6376     0.021112383
       2524.2898     0.030430969
       2524.9419     0.015236677
       2525.5940     0.016668755
       2526.2461     0.053620423
       2526.8982     0.017919683
       2527.5503     0.012731549
       2528.2024    0.0084721953
       2528.8545     0.052835170
       2529.5066     0.038731924
       2530.1587     0.065114067
       2530.8108     0.035029723
       2531.4629     0.052025448
       2532.1150     0.022803429
       2532.7672     0.024442693
       2533.4193     0.032172021
       2534.0714     0.022884224
       2534.7235     0.067853989
       2535.3756     0.033745475
       2536.0277     0.023408385
       2536.6798     0.018201685
       2537.3319    -0.028956095
       2537.9840     0.025067944
       2538.6361     0.036376833
       2539.2882     0.046298395
       2539.9403    0.0058495988
       2540.5924    0.0030455479
       2541.2446     0.034795565
       2541.8967     0.014226562
       2542.5488     0.037555644
       2543.2009     0.030056465
       2543.8530    -0.017173324
       2544.5051     0.063781526
       2545.1572     0.033229670
       2545.8093     0.016671454
       2546.4614     0.024680754
       2547.1135     0.028676995
       2547.7656     0.012976563
       2548.4177     0.039062635
       2549.0698     0.028039215
       2549.7220     0.037344770
       2550.3741     0.042139069
       2551.0262   -0.0032349666
       2551.6783    0.0025340493
       2552.3304     0.013824316
       2552.9825     0.054510948
       2553.6346     0.049953258
       2554.2867     0.037419130
       2554.9388     0.013723722
       2555.5909     0.047315806
       2556.2430     0.048537084
       2556.8951     0.041843412
       2557.5472  -0.00099963168
       2558.1994     0.012709873
       2558.8515     0.026317575
       2559.5036     0.062596910
       2560.1557     0.020582140
       2560.8078     0.060553883
       2561.4599     0.012442200
       2562.1120     0.029716059
       2562.7641     0.034466832
       2563.4162     0.018670368
       2564.0683     0.039950345
       2564.7204     0.053909881
       2565.3725     0.042823837
       2566.0246     0.019447756
       2566.6768   -0.0051771317
       2567.3289     0.032002554
       2567.9810   0.00071083261
       2568.6331     0.053628479
       2569.2852     0.023442550
       2569.9373     0.045443537
       2570.5894     0.018999646
       2571.2415     0.056465356
       2571.8936     0.021997021
       2572.5457     0.043614154
       2573.1978     0.049343027
       2573.8499     0.055984311
       2574.5021    0.0083701901
       2575.1542     0.031061443
       2575.8063     0.024507470
       2576.4584   -0.0017980074
       2577.1105     0.059972606
       2577.7626     0.020360810
       2578.4147     0.013570966
       2579.0668     0.018575215
       2579.7189     0.045244759
       2580.3710     0.023736420
       2581.0231     0.048126889
       2581.6752     0.028008850
       2582.3273     0.010953706
       2582.9795     0.013874329
       2583.6316     0.017780415
       2584.2837    0.0081158739
       2584.9358     0.069328390
       2585.5879     0.043925251
       2586.2400     0.022864332
       2586.8921     0.033578368
       2587.5442     0.026250919
       2588.1963     0.011771417
       2588.8484     0.027392128
       2589.5005     0.040495149
       2590.1526     0.055298006
       2590.8047    0.0044456266
       2591.4569     0.045449350
       2592.1090     0.068210005
       2592.7611     0.055254156
       2593.4132     0.059681085
       2594.0653     0.023339546
       2594.7174     0.038854770
       2595.3695     0.010485764
       2596.0216     0.059319089
       2596.6737     0.032893268
       2597.3258    -0.010349230
       2597.9779     0.018390957
       2598.6300     0.030062151
       2599.2821     0.057444318
       2599.9343     0.011416149
       2600.5864     0.038736294
       2601.2385     0.069588659
       2601.8906    0.0055108786
       2602.5427     0.013433196
       2603.1948     0.012174040
       2603.8469     0.030021228
       2604.4990     0.029193839
       2605.1511     0.032434261
       2605.8032     0.061033870
       2606.4553    -0.020165736
       2607.1074     0.014795219
       2607.7595    0.0054202461
       2608.4117     0.045920784
       2609.0638     0.045555157
       2609.7159     0.066292251
       2610.3680     0.056558133
       2611.0201     0.018776691
       2611.6722     0.029704670
       2612.3243     0.036763897
       2612.9764     0.043605176
       2613.6285     0.064787447
       2614.2806     0.035072100
       2614.9327     0.059887662
       2615.5848     0.035151836
       2616.2369     0.023569028
       2616.8891     0.033002125
       2617.5412     0.015268874
       2618.1933     0.026430961
       2618.8454     0.010373923
       2619.4975     0.038906397
       2620.1496    0.0098403141
       2620.8017     0.041395865
       2621.4538     0.032317320
       2622.1059     0.045399886
       2622.7580     0.044595640
       2623.4101     0.017964145
       2624.0622     0.040999324
       2624.7144     0.053780389
       2625.3665     0.052231905
       2626.0186     0.073889458
       2626.6707     0.019981203
       2627.3228     0.047164629
       2627.9749     0.017415625
       2628.6270    0.0048156245
       2629.2791     0.040608285
       2629.9312     0.047074260
       2630.5833     0.015974629
       2631.2354     0.025114149
       2631.8875     0.013849713
       2632.5396     0.060712977
       2633.1918     0.036037159
       2633.8439     0.066951820
       2634.4960     0.049443003
       2635.1481     0.049326483
       2635.8002     0.050943665
       2636.4523    0.0091262874
       2637.1044     0.051302025
       2637.7565     0.029974005
       2638.4086     0.060960477
       2639.0607     0.050635789
       2639.7128     0.040322677
       2640.3649     0.050049526
       2641.0170     0.052659487
       2641.6692     0.053320863
       2642.3213     0.054590711
       2642.9734     0.040235061
       2643.6255     0.068783695
       2644.2776     0.051827315
       2644.9297     0.071277048
       2645.5818     0.034307767
       2646.2339     0.061089057
       2646.8860     0.064175590
       2647.5381     0.042421757
       2648.1902     0.060128961
       2648.8423     0.016540126
       2649.4944     0.054480408
       2650.1466     0.035019385
       2650.7987     0.057802577
       2651.4508     0.040659928
       2652.1029     0.056905735
       2652.7550     0.028110541
       2653.4071     0.044004034
       2654.0592     0.040728375
       2654.7113     0.039040042
       2655.3634     0.030886263
       2656.0155     0.052148855
       2656.6676     0.044570527
       2657.3197     0.039359274
       2657.9718     0.055953021
       2658.6240     0.034639172
       2659.2761     0.053598689
       2659.9282     0.057607456
       2660.5803     0.067582216
       2661.2324     0.061385597
       2661.8845     0.067043353
       2662.5366     0.086526551
       2663.1887     0.052120595
       2663.8408     0.075666165
       2664.4929      0.12506946
       2665.1450     0.050721514
       2665.7971     0.053938919
       2666.4493     0.073996993
       2667.1014     0.041174367
       2667.7535     0.086773993
       2668.4056     0.074254305
       2669.0577     0.028884955
       2669.7098     0.045728642
       2670.3619     0.057741250
       2671.0140     0.037944044
       2671.6661    0.0072701339
       2672.3182     0.094793521
       2672.9703     0.058013087
       2673.6224     0.019315448
       2674.2745     0.080649316
       2674.9267     0.066153829
       2675.5788     0.042019763
       2676.2309     0.017525349
       2676.8830     0.057171790
       2677.5351     0.066378525
       2678.1872     0.055131685
       2678.8393     0.083078868
       2679.4914     0.062744881
       2680.1435     0.067889772
       2680.7956     0.064064888
       2681.4477      0.10333621
       2682.0998     0.067353974
       2682.7519     0.057972387
       2683.4041     0.040966972
       2684.0562     0.051388527
       2684.7083     0.047605768
       2685.3604     0.057194768
       2686.0125     0.039571084
       2686.6646     0.051315497
       2687.3167     0.052559994
       2687.9688     0.052840381
       2688.6209     0.061661745
       2689.2730     0.064482013
       2689.9251     0.059322579
       2690.5772     0.031576757
       2691.2293     0.063740311
       2691.8815     0.022818069
       2692.5336     0.063001884
       2693.1857     0.045275903
       2693.8378     0.051644148
       2694.4899     0.074804131
       2695.1420     0.046350114
       2695.7941     0.039131181
       2696.4462     0.072849284
       2697.0983     0.048852202
       2697.7504     0.046209300
       2698.4025     0.060444434
       2699.0546     0.050308372
       2699.7067     0.039764345
       2700.3589     0.087478794
       2701.0110     0.042345000
       2701.6631     0.016552199
       2702.3152     0.049255891
       2702.9673     0.025533764
       2703.6194     0.043174268
       2704.2715     0.039722307
       2704.9236     0.027354303
       2705.5757     0.039784797
       2706.2278     0.024352064
       2706.8799     0.042727780
       2707.5320     0.085868066
       2708.1841     0.032384891
       2708.8363     0.071850622
       2709.4884     0.098932129
       2710.1405     0.037540959
       2710.7926     0.036590417
       2711.4447     0.082892038
       2712.0968     0.046713929
       2712.7489     0.040465363
       2713.4010     0.052453792
       2714.0531     0.020283543
       2714.7052     0.061562870
       2715.3573     0.068549442
       2716.0094     0.012465381
       2716.6616     0.054653085
       2717.3137     0.053196801
       2717.9658     0.051641021
       2718.6179     0.073828849
       2719.2700     0.064514979
       2719.9221     0.079695138
       2720.5742     0.064792193
       2721.2263     0.041156758
       2721.8784     0.079372408
       2722.5305     0.063129696
       2723.1826     0.061071838
       2723.8347     0.052806696
       2724.4868     0.049308091
       2725.1390     0.066829899
       2725.7911     0.073546911
       2726.4432     0.040394429
       2727.0953     0.049031798
       2727.7474     0.070040049
       2728.3995     0.028805187
       2729.0516     0.056665525
       2729.7037     0.085526496
       2730.3558     0.068430889
       2731.0079     0.072382614
       2731.6600     0.093454403
       2732.3121     0.056304518
       2732.9642     0.071186866
       2733.6164     0.050970683
       2734.2685     0.032789273
       2734.9206     0.024991438
       2735.5727     0.062764302
       2736.2248     0.024582190
       2736.8769   -0.0096664587
       2737.5290     0.057017855
       2738.1811     0.078500569
       2738.8332     0.061279961
       2739.4853     0.030112723
       2740.1374     0.078759644
       2740.7895     0.050695340
       2741.4416     0.041772792
       2742.0938     0.037054139
       2742.7459     0.057336559
       2743.3980     0.080193536
       2744.0501     0.083184715
       2744.7022     0.039232584
       2745.3543     0.048739916
       2746.0064     0.057880062
       2746.6585     0.059585243
       2747.3106     0.063039133
       2747.9627     0.072276931
       2748.6148     0.053589215
       2749.2669     0.051942246
       2749.9190     0.063300434
       2750.5712     0.063452087
       2751.2233     0.034887375
       2751.8754     0.056284878
       2752.5275     0.064025438
       2753.1796     0.037688676
       2753.8317     0.055075831
       2754.4838     0.032831444
       2755.1359     0.048281095
       2755.7880      0.10926152
       2756.4401     0.041302628
       2757.0922     0.065315658
       2757.7443     0.056062887
       2758.3964     0.056557728
       2759.0486     0.024232017
       2759.7007     0.079310793
       2760.3528     0.032722953
       2761.0049    0.0085418545
       2761.6570   -0.0086891763
       2762.3091     0.036936143
       2762.9612     0.012402240
       2763.6133     0.062100741
       2764.2654     0.074900585
       2764.9175     0.056687970
       2765.5696     0.025441095
       2766.2217     0.042365983
       2766.8739     0.022696073
       2767.5260     0.029482464
       2768.1781     0.053376889
       2768.8302     0.072723567
       2769.4823     0.063286075
       2770.1344     0.053994936
       2770.7865     0.069919265
       2771.4386     0.031017449
       2772.0907     0.047135183
       2772.7428     0.031784810
       2773.3949     0.062054995
       2774.0470     0.060252496
       2774.6991     0.015725365
       2775.3513     0.050954968
       2776.0034     0.029414327
       2776.6555     0.045359003
       2777.3076     0.038629414
       2777.9597     0.036792440
       2778.6118     0.067150740
       2779.2639     0.017501766
       2779.9160     0.090378273
       2780.5681     0.023157071
       2781.2202     0.040106382
       2781.8723     0.080976308
       2782.5244     0.082985730
       2783.1765     0.070938027
       2783.8287     0.069876534
       2784.4808     0.036649318
       2785.1329     0.069851016
       2785.7850     0.038308493
       2786.4371     0.044728986
       2787.0892     0.042625405
       2787.7413     0.023829319
       2788.3934     0.063764964
       2789.0455     0.046804556
       2789.6976     0.081792341
       2790.3497     0.048035715
       2791.0018     0.043531879
       2791.6539     0.027429875
       2792.3061     0.043910550
       2792.9582     0.064523189
       2793.6103     0.064687795
       2794.2624     0.097891879
       2794.9145     0.029978602
       2795.5666     0.075179857
       2796.2187     0.043264956
       2796.8708     0.069131045
       2797.5229     0.071504673
       2798.1750     0.036158549
       2798.8271     0.074601931
       2799.4792     0.086065616
       2800.1313     0.051280675
       2800.7835     0.078370763
       2801.4356     0.020194157
       2802.0877     0.064948741
       2802.7398     0.080610437
       2803.3919     0.074875204
       2804.0440     0.048139368
       2804.6961     0.038435366
       2805.3482     0.064102227
       2806.0003     0.036192725
       2806.6524     0.036590570
       2807.3045     0.041444006
       2807.9566     0.081287723
       2808.6087     0.080740340
       2809.2609     0.044384598
       2809.9130     0.039841499
       2810.5651     0.016193932
       2811.2172     0.022077497
       2811.8693     0.015655317
       2812.5214     0.046077675
       2813.1735    0.0081347577
       2813.8256     0.011208821
       2814.4777  -0.00034057661
       2815.1298     0.029131694
       2815.7819     0.028082070
       2816.4340     0.050208826
       2817.0862     0.035774831
       2817.7383     0.036626698
       2818.3904     0.026032526
       2819.0425   -0.0061060038
       2819.6946     0.012839226
       2820.3467     0.037749298
       2820.9988     0.013464762
       2821.6509     0.040474676
       2822.3030     0.044239436
       2822.9551     0.063195760
       2823.6072     0.045343975
       2824.2593     0.046981114
       2824.9114     0.041183357
       2825.5636     0.054788700
       2826.2157     0.042493658
       2826.8678     0.055467146
       2827.5199    0.0045589817
       2828.1720     0.033167310
       2828.8241     0.063338423
       2829.4762     0.058718420
       2830.1283     0.067915567
       2830.7804     0.097969847
       2831.4325     0.097467525
       2832.0846     0.087442010
       2832.7367     0.057956504
       2833.3888     0.049053185
       2834.0410     0.036434951
       2834.6931     0.039876317
       2835.3452     0.075096516
       2835.9973     0.064537863
       2836.6494     0.073632529
       2837.3015     0.055396067
       2837.9536     0.062306381
       2838.6057     0.057709407
       2839.2578     0.055384342
       2839.9099     0.069258053
       2840.5620     0.084504792
       2841.2141     0.060556299
       2841.8662     0.044117565
       2842.5184     0.058133474
       2843.1705     0.043780266
       2843.8226     0.072135029
       2844.4747     0.085046606
       2845.1268     0.070583008
       2845.7789      0.11603285
       2846.4310     0.077509750
       2847.0831     0.065943022
       2847.7352     0.046540763
       2848.3873     0.050483754
       2849.0394     0.080897442
       2849.6915     0.066591502
       2850.3436     0.065061313
       2850.9958     0.061697811
       2851.6479     0.069674901
       2852.3000     0.054957344
       2852.9521     0.074815915
       2853.6042     0.098643995
       2854.2563     0.054709388
       2854.9084     0.044571901
       2855.5605     0.083657598
       2856.2126     0.058080082
       2856.8647     0.046547953
       2857.5168     0.058534109
       2858.1689     0.035901213
       2858.8211     0.059268523
       2859.4732     0.061307275
       2860.1253     0.062058261
       2860.7774     0.064544488
       2861.4295     0.036847310
       2862.0816     0.050354878
       2862.7337     0.087617558
       2863.3858     0.089617973
       2864.0379     0.064618085
       2864.6900     0.066951281
       2865.3421     0.066664632
       2865.9942     0.084550509
       2866.6463     0.040635465
       2867.2985     0.031952625
       2867.9506     0.049690317
       2868.6027     0.039346132
       2869.2548     0.097943474
       2869.9069     0.069548798
       2870.5590     0.028923554
       2871.2111     0.073468432
       2871.8632      0.11322859
       2872.5153     0.041999619
       2873.1674     0.087007668
       2873.8195     0.041851697
       2874.4716     0.066974470
       2875.1237     0.066749541
       2875.7759     0.072310993
       2876.4280      0.12851521
       2877.0801     0.075079327
       2877.7322     0.090915586
       2878.3843     0.059207117
       2879.0364     0.083664028
       2879.6885     0.064958362
       2880.3406     0.062861403
       2880.9927     0.053618770
       2881.6448     0.047888152
       2882.2969     0.052330395
       2882.9490     0.069082638
       2883.6011     0.037289056
       2884.2533     0.069984321
       2884.9054     0.063482024
       2885.5575     0.087666839
       2886.2096     0.049561818
       2886.8617     0.062426022
       2887.5138     0.085194657
       2888.1659     0.058390808
       2888.8180     0.086989821
       2889.4701     0.054063218
       2890.1222     0.071364081
       2890.7743      0.10012264
       2891.4264     0.093939525
       2892.0785     0.062924994
       2892.7307     0.038676511
       2893.3828     0.038720147
       2894.0349     0.061948770
       2894.6870     0.066574687
       2895.3391     0.075105498
       2895.9912     0.029054254
       2896.6433     0.080101403
       2897.2954     0.075556319
       2897.9475     0.082415238
       2898.5996     0.063317188
       2899.2517     0.052994360
       2899.9038     0.066983713
       2900.5559     0.072443385
       2901.2081     0.069672392
       2901.8602     0.062364406
       2902.5123     0.023483963
       2903.1644     0.084561058
       2903.8165     0.074709434
       2904.4686     0.088515570
       2905.1207     0.054736623
       2905.7728     0.061646711
       2906.4249     0.066446632
       2907.0770     0.081020991
       2907.7291      0.10082273
       2908.3812     0.064676115
       2909.0334     0.077106634
       2909.6855     0.057992614
       2910.3376     0.078831186
       2910.9897     0.071962484
       2911.6418     0.086348185
       2912.2939      0.11726916
       2912.9460     0.043927248
       2913.5981     0.067709445
       2914.2502     0.055702798
       2914.9023     0.074240753
       2915.5544     0.072956627
       2916.2065     0.092090887
       2916.8586      0.11290197
       2917.5108      0.10775513
       2918.1629      0.11448264
       2918.8150      0.11008043
       2919.4671      0.11006974
       2920.1192     0.088436578
       2920.7713     0.073681522
       2921.4234      0.14549656
       2922.0755     0.095268590
       2922.7276     0.083701784
       2923.3797      0.10394576
       2924.0318      0.11152475
       2924.6839      0.10055083
       2925.3360     0.050898117
       2925.9882     0.077773970
       2926.6403      0.11045572
       2927.2924     0.056529737
       2927.9445     0.067750272
       2928.5966     0.073569918
       2929.2487     0.093046141
       2929.9008      0.10969042
       2930.5529      0.10521752
       2931.2050     0.062917839
       2931.8571      0.10536670
       2932.5092     0.082197276
       2933.1613     0.093924608
       2933.8134      0.10349741
       2934.4656      0.13221656
       2935.1177     0.083340585
       2935.7698     0.099731740
       2936.4219     0.086747421
       2937.0740      0.10282152
       2937.7261      0.10047837
       2938.3782     0.067297331
       2939.0303     0.087643612
       2939.6824     0.079292537
       2940.3345     0.086122372
       2940.9866     0.057657181
       2941.6387     0.032186566
       2942.2908     0.091249517
       2942.9430      0.12378128
       2943.5951     0.053708004
       2944.2472      0.11337768
       2944.8993     0.062464721
       2945.5514      0.10418404
       2946.2035     0.074613263
       2946.8556     0.067815663
       2947.5077     0.089682135
       2948.1598     0.087277797
       2948.8119      0.14495442
       2949.4640      0.13194611
       2950.1161     0.078455885
       2950.7682      0.12197386
       2951.4204      0.10512062
       2952.0725     0.071189761
       2952.7246     0.093877209
       2953.3767     0.071125134
       2954.0288     0.044243428
       2954.6809     0.056255558
       2955.3330     0.098935862
       2955.9851     0.057673995
       2956.6372     0.068879304
       2957.2893     0.043449538
       2957.9414     0.056006168
       2958.5935      0.10063289
       2959.2457     0.083296368
       2959.8978     0.081546232
       2960.5499     0.069312064
       2961.2020     0.073185186
       2961.8541     0.083424228
       2962.5062      0.12203365
       2963.1583      0.11165835
       2963.8104     0.094190417
       2964.4625     0.069708222
       2965.1146     0.080739489
       2965.7667     0.080468037
       2966.4188     0.049978332
       2967.0709     0.085408104
       2967.7231     0.047109873
       2968.3752     0.054543188
       2969.0273     0.082166206
       2969.6794     0.070680625
       2970.3315     0.087282335
       2970.9836     0.038311330
       2971.6357     0.072546056
       2972.2878     0.052071990
       2972.9399     0.090503398
       2973.5920      0.13249983
       2974.2441     0.073414729
       2974.8962     0.067017650
       2975.5483     0.087768072
       2976.2005      0.10205635
       2976.8526      0.10571982
       2977.5047      0.10558983
       2978.1568      0.12977804
       2978.8089     0.074799724
       2979.4610     0.070079078
       2980.1131      0.10464278
       2980.7652     0.060725717
       2981.4173     0.067236757
       2982.0694     0.070435450
       2982.7215     0.085445580
       2983.3736      0.10156488
       2984.0257     0.065857083
       2984.6779     0.075275975
       2985.3300      0.11818855
       2985.9821      0.14940971
       2986.6342      0.11142938
       2987.2863      0.11132150
       2987.9384      0.11492884
       2988.5905      0.11579289
       2989.2426     0.086535697
       2989.8947     0.082739599
       2990.5468      0.10861549
       2991.1989      0.13377509
       2991.8510     0.084982666
       2992.5031     0.096562319
       2993.1553     0.097252860
       2993.8074     0.097509318
       2994.4595     0.076180204
       2995.1116     0.055753339
       2995.7637     0.076611179
       2996.4158     0.068807210
       2997.0679      0.10201655
       2997.7200     0.095998456
       2998.3721     0.058537865
       2999.0242     0.068221897
       2999.6763     0.087516046
       3000.3284     0.096462252
       3000.9805     0.081644224
       3001.6327     0.088990360
       3002.2848     0.078634120
       3002.9369     0.069896764
       3003.5890     0.098773412
       3004.2411      0.11559705
       3004.8932      0.10166154
       3005.5453     0.084261200
       3006.1974     0.093909005
       3006.8495     0.095772880
       3007.5016     0.086461012
       3008.1537     0.074547596
       3008.8058      0.10698585
       3009.4580      0.11547840
       3010.1101     0.079859387
       3010.7622      0.11279152
       3011.4143     0.099447922
       3012.0664      0.10276604
       3012.7185     0.079142301
       3013.3706     0.070523577
       3014.0227     0.097807660
       3014.6748     0.071090395
       3015.3269     0.066633834
       3015.9790      0.11111550
       3016.6311     0.091328124
       3017.2832      0.14248225
       3017.9354      0.11926379
       3018.5875      0.12821656
       3019.2396     0.095600634
       3019.8917      0.10782205
       3020.5438      0.11033746
       3021.1959     0.076776972
       3021.8480     0.097761061
       3022.5001      0.11345637
       3023.1522      0.12602228
       3023.8043      0.11372142
       3024.4564     0.097863178
       3025.1085      0.12669570
       3025.7606      0.13536501
       3026.4128     0.088636053
       3027.0649      0.11770410
       3027.7170     0.074317185
       3028.3691     0.081759150
       3029.0212     0.077161009
       3029.6733     0.070064331
       3030.3254      0.11507530
       3030.9775     0.078124532
       3031.6296     0.094709938
       3032.2817     0.060489550
       3032.9338     0.080406899
       3033.5859      0.10132434
       3034.2380      0.11386441
       3034.8902      0.13563480
       3035.5423     0.076925337
       3036.1944      0.10894751
       3036.8465      0.12060433
       3037.4986      0.12249818
       3038.1507      0.11257802
       3038.8028      0.11707055
       3039.4549      0.13001876
       3040.1070      0.12196914
       3040.7591      0.10391102
       3041.4112     0.072102737
       3042.0633     0.089798748
       3042.7154     0.077888083
       3043.3676     0.086136764
       3044.0197     0.084488635
       3044.6718     0.081275770
       3045.3239     0.069547429
       3045.9760     0.093819597
       3046.6281      0.13466744
       3047.2802     0.084047268
       3047.9323      0.10156839
       3048.5844     0.072447074
       3049.2365     0.090996397
       3049.8886      0.10022285
       3050.5407     0.080460982
       3051.1929      0.11279383
       3051.8450     0.091701285
       3052.4971      0.10292032
       3053.1492      0.10353217
       3053.8013     0.098304187
       3054.4534      0.10082909
       3055.1055      0.13412400
       3055.7576      0.11123842
       3056.4097      0.11086424
       3057.0618      0.10799380
       3057.7139     0.078004895
       3058.3660      0.11059024
       3059.0181      0.11207904
       3059.6703      0.14081489
       3060.3224     0.096129964
       3060.9745     0.099890121
       3061.6266     0.096666946
       3062.2787     0.088250760
       3062.9308     0.088869006
       3063.5829      0.11966096
       3064.2350      0.15045281
       3064.8871      0.11838782
       3065.5392     0.097581954
       3066.1913     0.077173879
       3066.8434      0.11030951
       3067.4955      0.15341871
       3068.1477      0.10717233
       3068.7998      0.10046553
       3069.4519      0.10777309
       3070.1040     0.080550056
       3070.7561     0.079798356
       3071.4082     0.091254887
       3072.0603     0.090450431
       3072.7124      0.10558009
       3073.3645      0.12247247
       3074.0166      0.11469006
       3074.6687      0.12134750
       3075.3208      0.13171599
       3075.9729      0.13061866
       3076.6251      0.11616967
       3077.2772      0.13541887
       3077.9293      0.10298782
       3078.5814      0.12083090
       3079.2335      0.12050837
       3079.8856      0.14242744
       3080.5377      0.13074820
       3081.1898      0.11235132
       3081.8419     0.080244761
       3082.4940      0.10378271
       3083.1461      0.11499196
       3083.7982     0.096106145
       3084.4503      0.12577153
       3085.1025      0.10137940
       3085.7546      0.11536003
       3086.4067      0.12831335
       3087.0588     0.095384305
       3087.7109      0.12539460
       3088.3630     0.095297532
       3089.0151      0.10688410
       3089.6672      0.11467775
       3090.3193      0.11763941
       3090.9714      0.14313293
       3091.6235      0.10318347
       3092.2756     0.091022280
       3092.9277      0.14969810
       3093.5799     0.080177887
       3094.2320      0.11268541
       3094.8841      0.17068400
       3095.5362      0.13223990
       3096.1883     0.081944711
       3096.8404      0.10807219
       3097.4925      0.14018886
       3098.1446      0.12574088
       3098.7967      0.12243463
       3099.4488      0.13990386
       3100.1009      0.11615138
       3100.7530      0.13639590
       3101.4052      0.10998691
       3102.0573      0.12551832
       3102.7094     0.089256870
       3103.3615      0.10776922
       3104.0136      0.12227018
       3104.6657      0.10951657
       3105.3178      0.12356945
       3105.9699      0.15733112
       3106.6220      0.15006860
       3107.2741      0.13761666
       3107.9262      0.13661486
       3108.5783      0.12278604
       3109.2304      0.10821603
       3109.8826      0.16129595
       3110.5347      0.15872448
       3111.1868      0.12496926
       3111.8389     0.095716995
       3112.4910     0.091068967
       3113.1431     0.050825752
       3113.7952     0.090883488
       3114.4473     0.081925757
       3115.0994      0.12140806
       3115.7515      0.13445611
       3116.4036      0.11545917
       3117.0557      0.10984015
       3117.7078     0.080237094
       3118.3600     0.064303794
       3119.0121      0.14787900
       3119.6642      0.11707547
       3120.3163      0.11998402
       3120.9684      0.10097718
       3121.6205      0.16243833
       3122.2726      0.13739746
       3122.9247      0.11965158
       3123.5768      0.10306708
       3124.2289      0.11996202
       3124.8810     0.083875749
       3125.5331      0.16316828
       3126.1852     0.068595983
       3126.8374      0.12326535
       3127.4895      0.11451247
       3128.1416      0.10826331
       3128.7937      0.14022536
       3129.4458      0.15640660
       3130.0979      0.11868187
       3130.7500      0.14584482
       3131.4021      0.13805992
       3132.0542     0.097857692
       3132.7063      0.13274027
       3133.3584     0.067883512
       3134.0105      0.11494524
       3134.6626     0.085722644
       3135.3148      0.10185619
       3135.9669     0.091086316
       3136.6190     0.068372456
       3137.2711     0.094519037
       3137.9232      0.10365030
       3138.5753      0.13094904
       3139.2274      0.16624288
       3139.8795      0.15840336
       3140.5316     0.088581376
       3141.1837     0.068075232
       3141.8358      0.13886809
       3142.4879     0.092559717
       3143.1400     0.069053863
       3143.7922      0.11314456
       3144.4443      0.13464956
       3145.0964      0.12344388
       3145.7485     0.078882365
       3146.4006      0.12944385
       3147.0527      0.12369040
       3147.7048      0.12436483
       3148.3569     0.054672151
       3149.0090      0.10368026
       3149.6611      0.12947401
       3150.3132      0.14198328
       3150.9653      0.11236535
       3151.6175     0.097711797
       3152.2696      0.11077180
       3152.9217     0.099415271
       3153.5738      0.10981271
       3154.2259      0.11150103
       3154.8780      0.10410341
       3155.5301      0.12555293
       3156.1822     0.065233978
       3156.8343      0.13169957
       3157.4864      0.10024677
       3158.1385      0.12196444
       3158.7906      0.13513343
       3159.4427      0.10824625
       3160.0949      0.15311143
       3160.7470      0.15870591
       3161.3991      0.14155791
       3162.0512      0.15566033
       3162.7033      0.15506618
       3163.3554     0.099995608
       3164.0075      0.13849259
       3164.6596      0.12699073
       3165.3117      0.11065235
       3165.9638      0.10044450
       3166.6159      0.12529413
       3167.2680      0.10983802
       3167.9201     0.096816723
       3168.5723      0.11141950
       3169.2244     0.091223088
       3169.8765     0.098780965
       3170.5286      0.11492484
       3171.1807     0.080964745
       3171.8328     0.084581334
       3172.4849      0.12120862
       3173.1370      0.10434235
       3173.7891     0.099525552
       3174.4412      0.13583478
       3175.0933      0.11715669
       3175.7454     0.099836431
       3176.3975      0.16274506
       3177.0497      0.14415674
       3177.7018     0.096926851
       3178.3539      0.12565852
       3179.0060      0.14297695
       3179.6581      0.12753806
       3180.3102     0.089114823
       3180.9623      0.10596043
       3181.6144      0.12543154
       3182.2665      0.14732221
       3182.9186      0.14014297
       3183.5707      0.13977370
       3184.2228      0.16959293
       3184.8749      0.17732775
       3185.5271      0.16868152
       3186.1792      0.13911501
       3186.8313      0.12378171
       3187.4834      0.10270573
       3188.1355      0.12379967
       3188.7876     0.097640214
       3189.4397      0.12260817
       3190.0918      0.12377755
       3190.7439      0.11204183
       3191.3960     0.093828320
       3192.0481     0.092979609
       3192.7002      0.12845643
       3193.3523      0.12603165
       3194.0045      0.14992831
       3194.6566      0.14622791
       3195.3087     0.097617359
       3195.9608      0.12203402
       3196.6129      0.11111652
       3197.2650     0.072945391
       3197.9171     0.092116108
       3198.5692      0.10259708
       3199.2213     0.096597215
       3199.8734      0.13802638
       3200.5255      0.10837280
       3201.1776      0.12032459
       3201.8298      0.10128378
       3202.4819      0.12354017
       3203.1340      0.12147380
       3203.7861      0.12335054
       3204.4382      0.14271516
       3205.0903      0.11145470
       3205.7424     0.084025562
       3206.3945     0.088165991
       3207.0466      0.11767656
       3207.6987     0.087363414
       3208.3508     0.094368879
       3209.0029      0.10731030
       3209.6550      0.13008897
       3210.3072      0.11288497
       3210.9593      0.11466816
       3211.6114      0.14672176
       3212.2635      0.13042800
       3212.9156      0.15675590
       3213.5677      0.11303125
       3214.2198      0.11600838
       3214.8719      0.11102457
       3215.5240      0.12464868
       3216.1761     0.095020445
       3216.8282      0.12451558
       3217.4803      0.12008702
       3218.1324      0.13619443
       3218.7846      0.12056991
       3219.4367      0.10476781
       3220.0888      0.12471089
       3220.7409     0.096596511
       3221.3930     0.044923747
       3222.0451      0.10942548
       3222.6972     0.097111911
       3223.3493     0.095882257
       3224.0014     0.085690448
       3224.6535      0.11785045
       3225.3056      0.14678014
       3225.9577      0.12500469
       3226.6098      0.12772308
       3227.2620      0.11804933
       3227.9141      0.14878774
       3228.5662      0.15271592
       3229.2183      0.15958014
       3229.8704      0.13834017
       3230.5225     0.097808396
       3231.1746      0.12882263
       3231.8267      0.11940020
       3232.4788      0.12552940
       3233.1309     0.099659738
       3233.7830      0.13883175
       3234.4351      0.13529311
       3235.0872      0.11700061
       3235.7394     0.097225194
       3236.3915      0.15535193
       3237.0436      0.11605908
       3237.6957     0.096287500
       3238.3478     0.094747982
       3238.9999      0.10970464
       3239.6520      0.10830055
       3240.3041     0.074674480
       3240.9562      0.11184752
       3241.6083      0.10943554
       3242.2604      0.12916294
       3242.9125      0.10246333
       3243.5647      0.10622374
       3244.2168      0.14329697
       3244.8689      0.13594189
       3245.5210      0.11910918
       3246.1731      0.10132565
       3246.8252      0.10391910
       3247.4773     0.091930369
       3248.1294      0.12175962
       3248.7815      0.13773945
       3249.4336      0.12471517
       3250.0857      0.15059063
       3250.7378      0.11107162
       3251.3899     0.098860018
       3252.0421      0.13033959
       3252.6942      0.12392502
       3253.3463      0.14372096
       3253.9984      0.14779109
       3254.6505      0.12804439
       3255.3026      0.12015239
       3255.9547      0.11533614
       3256.6068     0.090702689
       3257.2589     0.093566579
       3257.9110      0.13152479
       3258.5631      0.14112668
       3259.2152      0.12369311
       3259.8673      0.10993759
       3260.5195      0.12233585
       3261.1716      0.10989509
       3261.8237      0.16349291
       3262.4758      0.16654440
       3263.1279      0.14880744
       3263.7800      0.12935023
       3264.4321      0.12106862
       3265.0842      0.10183834
       3265.7363      0.17578502
       3266.3884      0.14998520
       3267.0405      0.17155849
       3267.6926      0.14802132
       3268.3447      0.16263617
       3268.9969      0.14587956
       3269.6490      0.18458939
       3270.3011      0.12473457
       3270.9532      0.12714723
       3271.6053      0.14605727
       3272.2574      0.12588096
       3272.9095      0.11882890
       3273.5616      0.10513423
       3274.2137      0.14135339
       3274.8658      0.10785789
       3275.5179      0.15126171
       3276.1700      0.17445541
       3276.8221      0.10450391
       3277.4743      0.13942127
       3278.1264      0.16649299
       3278.7785      0.14020017
       3279.4306      0.10251632
       3280.0827      0.10947929
       3280.7348      0.13917134
       3281.3869      0.13308899
       3282.0390      0.10919163
       3282.6911      0.12526792
       3283.3432     0.090939985
       3283.9953      0.17799888
       3284.6474      0.11054183
       3285.2995      0.10795162
       3285.9517      0.11439242
       3286.6038      0.13563672
       3287.2559      0.16865415
       3287.9080      0.10697802
       3288.5601      0.12867975
       3289.2122      0.12622822
       3289.8643      0.10431484
       3290.5164      0.11292269
       3291.1685      0.11658689
       3291.8206      0.10006025
       3292.4727      0.13860098
       3293.1248      0.17943266
       3293.7770      0.13970379
       3294.4291      0.15295609
       3295.0812      0.13068891
       3295.7333      0.12635166
       3296.3854      0.16284562
       3297.0375      0.12019255
       3297.6896      0.16520999
       3298.3417      0.21622075
       3298.9938      0.13400823
       3299.6459      0.14589044
       3300.2980      0.15007923
       3300.9501      0.11777938
       3301.6022      0.14848925
       3302.2544      0.13926319
       3302.9065      0.11949700
       3303.5586      0.15487376
       3304.2107      0.13674311
       3304.8628      0.14837956
       3305.5149      0.16377103
       3306.1670      0.14594353
       3306.8191     0.089851413
       3307.4712      0.12853577
       3308.1233      0.15984340
       3308.7754      0.18809664
       3309.4275      0.14270327
       3310.0796      0.11673042
       3310.7318      0.13395094
       3311.3839      0.13963258
       3312.0360      0.15632401
       3312.6881      0.13208298
       3313.3402      0.10777894
       3313.9923      0.12250213
       3314.6444     0.097565039
       3315.2965      0.12331921
       3315.9486      0.16862758
       3316.6007      0.14482373
       3317.2528      0.15875490
       3317.9049      0.11230336
       3318.5570      0.13111032
       3319.2092      0.12612007
       3319.8613      0.14107138
       3320.5134      0.12988231
       3321.1655      0.14097909
       3321.8176      0.19175046
       3322.4697      0.11974680
       3323.1218     0.065259355
       3323.7739      0.14301002
       3324.4260      0.14689965
       3325.0781      0.14698219
       3325.7302      0.13049401
       3326.3823      0.14370415
       3327.0344      0.13607556
       3327.6866      0.14837421
       3328.3387      0.11037122
       3328.9908      0.10586552
       3329.6429      0.15027621
       3330.2950      0.12873029
       3330.9471      0.11554650
       3331.5992      0.11266844
       3332.2513      0.12855023
       3332.9034      0.10092710
       3333.5555      0.11467248
       3334.2076      0.13374169
       3334.8597      0.13139628
       3335.5118      0.17441486
       3336.1640      0.13120896
       3336.8161      0.12764838
       3337.4682      0.13950806
       3338.1203      0.12603201
       3338.7724      0.17135202
       3339.4245      0.11010759
       3340.0766     0.074676579
       3340.7287     0.098051132
       3341.3808      0.15050450
       3342.0329      0.15248133
       3342.6850      0.11094412
       3343.3371     0.052340825
       3343.9893    -0.028847105
       3344.6414      0.17898910
       3345.2935      0.25366714
       3345.9456      0.20185730
       3346.5977      0.29449892
       3347.2498      0.15436144
       3347.9019     -0.13022300
       3348.5540     -0.26267308
       3349.2061     0.034725372
       3349.8582      0.11738186
       3350.5103     0.055519677
       3351.1624      0.11397256
       3351.8145      0.10422722
       3352.4667      0.11908506
       3353.1188      0.10062599
       3353.7709      0.11762515
       3354.4230      0.13538207
       3355.0751      0.11636832
       3355.7272      0.11075520
       3356.3793     0.063685796
       3357.0314     0.091145952
       3357.6835      0.10045221
       3358.3356     0.079079362
       3358.9877      0.11007589
       3359.6398      0.12682127
       3360.2919      0.10533057
       3360.9441     0.096552396
       3361.5962      0.11878294
       3362.2483     0.081732112
       3362.9004     0.087875813
       3363.5525      0.10028443
       3364.2046      0.10008322
       3664.6213      0.59260533
       3665.3383      0.58289357
       3666.0554      0.56542131
       3666.7725      0.65899084
       3667.4895      0.55611874
       3668.2066      0.52262796
       3668.9237      0.48302391
       3669.6407      0.52178616
       3670.3578      0.47147975
       3671.0749      0.47409581
       3671.7920      0.44183630
       3672.5090      0.48495014
       3673.2261      0.45009216
       3673.9432      0.35310428
       3674.6602      0.51971323
       3675.3773      0.58749519
       3676.0944      0.48740215
       3676.8115      0.40389620
       3677.5285      0.41398175
       3678.2456      0.48441680
       3678.9627      0.51519498
       3679.6797      0.37819132
       3680.3968      0.49626677
       3681.1139      0.54670717
       3681.8309      0.53797662
       3682.5480      0.35623372
       3683.2651      0.43063404
       3683.9822      0.49485412
       3684.6992      0.45946635
       3685.4163      0.57089841
       3686.1334      0.49206532
       3686.8504      0.61577952
       3687.5675      0.42193252
       3688.2846      0.39964730
       3689.0017      0.40818267
       3689.7187      0.49488485
       3690.4358      0.50983889
       3691.1529      0.49130357
       3691.8699      0.55561994
       3692.5870      0.56594946
       3693.3041      0.61074863
       3694.0211      0.57540189
       3694.7382      0.59999139
       3695.4553      0.64277310
       3696.1724      0.66035783
       3696.8894      0.63776360
       3697.6065      0.49428057
       3698.3236      0.48765502
       3699.0406      0.56809431
       3699.7577      0.49767721
       3700.4748      0.50213524
       3701.1919      0.56073007
       3701.9089      0.52652518
       3702.6260      0.49061548
       3703.3431      0.55993730
       3704.0601      0.47082184
       3704.7772      0.48692657
       3705.4943      0.48547394
       3706.2113      0.45447348
       3706.9284      0.47747469
       3707.6455      0.56985686
       3708.3626      0.48193380
       3709.0796      0.60239461
       3709.7967      0.55604105
       3710.5138      0.62099647
       3711.2308      0.70250648
       3711.9479      0.59269840
       3712.6650      0.52084547
       3713.3821      0.54569312
       3714.0991      0.61234627
       3714.8162      0.64563724
       3715.5333      0.43566812
       3716.2503      0.45341505
       3716.9674      0.60199599
       3717.6845      0.58861269
       3718.4015      0.62969969
       3719.1186      0.59033808
       3719.8357      0.55154416
       3720.5528      0.49302842
       3721.2698      0.46696269
       3721.9869      0.65368705
       3722.7040      0.65235344
       3723.4210      0.65721026
       3724.1381      0.64405777
       3724.8552      0.66142536
       3725.5723      0.80996530
       3726.2893      0.98113426
       3727.0064      0.97722734
       3727.7235      0.94182307
       3728.4405      0.96560066
       3729.1576       1.0413168
       3729.8747      0.96929962
       3730.5917      0.88493355
       3731.3088      0.78629607
       3732.0259      0.78989541
       3732.7430      0.78501059
       3733.4600      0.66893130
       3734.1771      0.55738907
       3734.8942      0.55672085
       3735.6112      0.49903139
       3736.3283      0.52892359
       3737.0454      0.54372562
       3737.7625      0.59179617
       3738.4795      0.55005400
       3739.1966      0.56017915
       3739.9137      0.45009069
       3740.6307      0.64208926
       3741.3478      0.72017359
       3742.0649      0.61085139
       3742.7819      0.63179498
       3743.4990      0.69051888
       3744.2161      0.68380431
       3744.9332      0.62366769
       3745.6502      0.62526145
       3746.3673      0.63566213
       3747.0844      0.63173669
       3747.8014      0.60279541
       3748.5185      0.62005228
       3749.2356      0.57229640
       3749.9527      0.62095722
       3750.6697      0.59224765
       3751.3868      0.49551249
       3752.1039      0.63045659
       3752.8209      0.59565748
       3753.5380      0.46383448
       3754.2551      0.59062610
       3754.9721      0.59231395
       3755.6892      0.59924772
       3756.4063      0.61089659
       3757.1234      0.54972892
       3757.8404      0.62383176
       3758.5575      0.63820839
       3759.2746      0.68136447
       3759.9916      0.63248403
       3760.7087      0.64666907
       3761.4258      0.75941332
       3762.1429      0.73344795
       3762.8599      0.67834872
       3763.5770      0.65034450
       3764.2941      0.58024261
       3765.0111      0.74337805
       3765.7282      0.77905062
       3766.4453      0.67365204
       3767.1623      0.53789241
       3767.8794      0.69610708
       3768.5965      0.60256761
       3769.3136      0.72680477
       3770.0306      0.78228948
       3770.7477      0.64300490
       3771.4648      0.59492428
       3772.1818      0.66959377
       3772.8989      0.73308152
       3773.6160      0.51882158
       3774.3331      0.49699332
       3775.0501      0.54386061
       3775.7672      0.77271986
       3776.4843      0.99838745
       3777.2013       1.0145675
       3777.9184       1.0981220
       3778.6355       1.2413037
       3779.3525      0.64419873
       3780.0696      0.51633215
       3780.7867     -0.51183000
       3781.5038     -0.53665718
       3782.2208      0.35751203
       3782.9379      0.73772128
       3783.6550      0.79287271
       3784.3720      0.86482111
       3785.0891      0.73691476
       3785.8062      0.80824515
       3786.5233      0.79858540
       3787.2403      0.87869368
       3787.9574      0.85190837
       3788.6745      0.79876842
       3789.3915      0.84560991
       3790.1086      0.76762570
       3790.8257      0.80836540
       3791.5427      0.90839582
       3792.2598      0.78296004
       3792.9769      0.78531175
       3793.6940      0.75724592
       3794.4110      0.75017077
       3795.1281      0.72496280
       3795.8452      0.71164000
       3796.5622      0.81750197
       3797.2793      0.80363859
       3797.9964      0.67789710
       3798.7135      0.51782834
       3799.4305      0.59057948
       3800.1476      0.55559029
       3800.8647      0.52868569
       3801.5817      0.57972520
       3802.2988      0.49343344
       3803.0159      0.53758749
       3803.7329      0.61934497
       3804.4500      0.61240110
       3805.1671      0.66454046
       3805.8842      0.75307413
       3806.6012      0.63792284
       3807.3183      0.77134369
       3808.0354      0.79650728
       3808.7524      0.80435353
       3809.4695      0.83874037
       3810.1866      0.88136313
       3810.9037      0.89263774
       3811.6207      0.77053279
       3812.3378      0.89230957
       3813.0549      0.98274783
       3813.7719      0.90957628
       3814.4890      0.89265052
       3815.2061       1.0813632
       3815.9231       1.2438281
       3816.6402       1.3282963
       3817.3573      0.94218256
       3818.0744      0.97779671
       3818.7914      0.88543853
       3819.5085      0.83859013
       3820.2256      0.75406891
       3820.9426      0.54165838
       3821.6597      0.62228423
       3822.3768      0.71888550
       3823.0939      0.79171155
       3823.8109      0.85424723
       3824.5280      0.85434352
       3825.2451      0.80006220
       3825.9621      0.81632612
       3826.6792      0.76487079
       3827.3963      0.68614523
       3828.1133      0.82915174
       3828.8304      0.76669519
       3829.5475      0.81168558
       3830.2646      0.93218434
       3830.9816      0.85953178
       3831.6987      0.75089562
       3832.4158      0.72208807
       3833.1328      0.64125740
       3833.8499      0.73883011
       3834.5670      0.69504974
       3835.2841      0.62062006
       3836.0011      0.68568354
       3836.7182      0.62264133
       3837.4353      0.51672208
       3838.1523      0.55736775
       3838.8694      0.63835829
       3839.5865      0.50238091
       3840.3035      0.44754989
       3841.0206      0.47839702
       3841.7377      0.44584773
       3842.4548      0.50187113
       3843.1718      0.59214683
       3843.8889      0.51553945
       3844.6060      0.46751114
       3845.3230      0.48456591
       3846.0401      0.50958769
       3846.7572      0.47483806
       3847.4743      0.54243022
       3848.1913      0.62417849
       3848.9084      0.74257072
       3849.6255      0.81986522
       3850.3425      0.76556404
       3851.0596      0.73925261
       3851.7767      0.91102164
       3852.4937      0.89561688
       3853.2108      0.79639344
       3853.9279      0.79212144
       3854.6450      0.95981312
       3855.3620      0.88687300
       3856.0791      0.99896041
       3856.7962       1.0429742
       3857.5132      0.92799797
       3858.2303      0.92343585
       3858.9474      0.90157044
       3859.6645      0.94379383
       3860.3815      0.96015727
       3861.0986       1.0053989
       3861.8157      0.97760829
       3862.5327       1.0225387
       3863.2498      0.95986198
       3863.9669      0.91422698
       3864.6839      0.97028716
       3865.4010       1.0231302
       3866.1181      0.96156316
       3866.8352      0.99988676
       3867.5522      0.88498427
       3868.2693      0.96707053
       3868.9864       1.0483058
       3869.7034      0.92616438
       3870.4205       1.0012451
       3871.1376       1.0731536
       3871.8547      0.99058334
       3872.5717      0.94654096
       3873.2888       1.0571252
       3874.0059      0.99768523
       3874.7229       1.0306767
       3875.4400       1.0708915
       3876.1571       1.1111028
       3876.8741       1.0431370
       3877.5912       1.0757700
       3878.3083       1.0441345
       3879.0254      0.97455696
       3879.7424       1.0757021
       3880.4595       1.0233610
       3881.1766      0.99370505
       3881.8936      0.97965459
       3882.6107      0.85173870
       3883.3278      0.85312356
       3884.0449      0.84732108
       3884.7619      0.82108153
       3885.4790      0.83398864
       3886.1961      0.86309250
       3886.9131       1.0057163
       3887.6302      0.88360779
       3888.3473      0.86449691
       3889.0643      0.81672754
       3889.7814      0.73640367
       3890.4985      0.86540398
       3891.2156      0.85420787
       3891.9326      0.74725582
       3892.6497      0.67783393
       3893.3668      0.54739511
       3894.0838      0.58973787
       3894.8009      0.73077334
       3895.5180      0.66599096
       3896.2351      0.64018227
       3896.9521      0.62359079
       3897.6692      0.52127748
       3898.3863      0.68263108
       3899.1033      0.56982346
       3899.8204      0.54121812
       3900.5375      0.66791981
       3901.2545      0.65164144
       3901.9716      0.71460055
       3902.6887      0.77291286
       3903.4058      0.78485738
       3904.1228      0.75511010
       3904.8399      0.85354269
       3905.5570      0.84333297
       3906.2740      0.78065607
       3906.9911      0.78991765
       3907.7082      0.80116266
       3908.4253      0.93136431
       3909.1423      0.91900490
       3909.8594      0.86227044
       3910.5765      0.91723618
       3911.2935       1.0506575
       3912.0106       1.0144367
       3912.7277      0.90467632
       3913.4447       1.0587432
       3914.1618       1.0377245
       3914.8789      0.90521846
       3915.5960       1.0600668
       3916.3130       1.0036897
       3917.0301       1.0464017
       3917.7472       1.0591385
       3918.4642       1.1063113
       3919.1813       1.0078008
       3919.8984      0.97808262
       3920.6155       1.0428238
       3921.3325       1.1375855
       3922.0496       1.1658043
       3922.7667       1.1400122
       3923.4837      0.98804357
       3924.2008      0.98783229
       3924.9179      0.94534740
       3925.6349       1.0388738
       3926.3520       1.0610505
       3927.0691       1.0242521
       3927.7862       1.1505863
       3928.5032       1.1518695
       3929.2203       1.1121068
       3929.9374       1.0119640
       3930.6544       1.0666506
       3931.3715       1.0195318
       3932.0886       1.0421829
       3932.8057      0.98748977
       3933.5227      0.99982627
       3934.2398       1.0947327
       3934.9569       1.0548678
       3935.6739       1.0155289
       3936.3910      0.95637503
       3937.1081      0.86992526
       3937.8251      0.90150579
       3938.5422      0.81724931
       3939.2593      0.76632337
       3939.9764      0.72676610
       3940.6934      0.71243212
       3941.4105      0.56433111
       3942.1276      0.69998671
       3942.8446      0.56886791
       3943.5617      0.52065747
       3944.2788      0.52376860
       3944.9959      0.52905741
       3945.7129      0.58430777
       3946.4300      0.68274561
       3947.1471      0.69791100
       3947.8641      0.65525132
       3948.5812      0.64307798
       3949.2983      0.76010393
       3950.0153      0.76680098
       3950.7324      0.86250153
       3951.4495      0.87389360
       3952.1666      0.95279994
       3952.8836      0.94539508
       3953.6007      0.84363513
       3954.3178      0.85937327
       3955.0348      0.98550232
       3955.7519       1.0170176
       3956.4690      0.98873444
       3957.1861       1.0551485
       3957.9031      0.97449125
       3958.6202       1.0115575
       3959.3373      0.90988083
       3960.0543      0.96643785
       3960.7714      0.93265580
       3961.4885       1.0016921
       3962.2055      0.93893231
       3962.9226      0.96172864
       3963.6397      0.91578414
       3964.3568      0.97353148
       3965.0738      0.95415437
       3965.7909      0.98820420
       3966.5080      0.95237221
       3967.2250      0.93145874
       3967.9421       1.0078228
       3968.6592      0.98608068
       3969.3763      0.89806177
       3970.0933      0.92197555
       3970.8104      0.85643813
       3971.5275      0.81315105
       3972.2445      0.74757057
       3972.9616      0.67039993
       3973.6787      0.76247339
       3974.3957      0.75591535
       3975.1128      0.66636942
       3975.8299      0.63793637
       3976.5470      0.55136928
       3977.2640      0.47818412
       3977.9811      0.55760657
       3978.6982      0.48990171
       3979.4152      0.48942661
       3980.1323      0.32432304
       3980.8494      0.45753046
       3981.5665      0.39509038
       3982.2835      0.40053335
       3983.0006      0.46149674
       3983.7177      0.42554698
       3984.4347      0.48195461
       3985.1518      0.46145607
       3985.8689      0.62527496
       3986.5859      0.57777430
       3987.3030      0.68251369
       3988.0201      0.73095323
       3988.7372      0.66091248
       3989.4542      0.75934708
       3990.1713      0.75109401
       3990.8884      0.81236024
       3991.6054      0.93096942
       3992.3225      0.94847449
       3993.0396       1.0151725
       3993.7567      0.89174977
       3994.4737      0.95688909
       3995.1908      0.99304610
       3995.9079      0.95354348
       3996.6249       1.0210108
       3997.3420       1.0152392
       3998.0591       1.0264819
       3998.7761      0.98683777
       3999.4932       1.0751741
       4000.2103       1.0643215
       4000.9274       1.1118715
       4001.6444       1.1495409
       4002.3615       1.1358166
       4003.0786       1.1827800
       4003.7956       1.1503089
       4004.5127       1.0634785
       4005.2298       1.1362182
       4005.9469       1.1279843
       4006.6639       1.1000311
       4007.3810       1.1940507
       4008.0981       1.1164630
       4008.8151       1.0935043
       4009.5322       1.1011091
       4010.2493       1.1332830
       4010.9663       1.1540530
       4011.6834       1.1220792
       4012.4005       1.1061249
       4013.1176       1.1434503
       4013.8346       1.1784374
       4014.5517       1.1467835
       4015.2688       1.1641550
       4015.9858       1.1397180
       4016.7029       1.0888349
       4017.4200       1.1280558
       4018.1371       1.1609542
       4018.8541       1.1831809
       4019.5712       1.0743550
       4020.2883       1.0901917
       4021.0053       1.1728468
       4021.7224       1.1210750
       4022.4395       1.1721765
       4023.1565       1.2851427
       4023.8736       1.2932145
       4024.5907       1.1606847
       4025.3078       1.0628057
       4026.0248       1.0713131
       4026.7419       1.1568097
       4027.4590       1.0291257
       4028.1760       1.1966996
       4028.8931       1.1856260
       4029.6102       1.2520684
       4030.3273       1.1538275
       4031.0443       1.1794250
       4031.7614       1.2194126
       4032.4785       1.2040868
       4033.1955       1.2481641
       4033.9126       1.2722678
       4034.6297       1.2170208
       4035.3467       1.2137019
       4036.0638       1.2576025
       4036.7809       1.3029557
       4037.4980       1.2245514
       4038.2150       1.2657173
       4038.9321       1.2684013
       4039.6492       1.2168731
       4040.3662       1.1698235
       4041.0833       1.1102726
       4041.8004       1.2338704
       4042.5175       1.0922737
       4043.2345       1.2946416
       4043.9516       1.3332552
       4044.6687       1.2326494
       4045.3857       1.0850938
       4046.1028       1.1666299
       4046.8199       1.1652643
       4047.5370       1.1535031
       4048.2540       1.1155858
       4048.9711       1.1292073
       4049.6882       1.1016736
       4050.4052       1.1585272
       4051.1223       1.2285558
       4051.8394       1.2698626
       4052.5564       1.1983743
       4053.2735       1.1677368
       4053.9906       1.2401825
       4054.7077       1.1779136
       4055.4247       1.0840617
       4056.1418       1.1156302
       4056.8589       1.2155675
       4057.5759       1.2063631
       4058.2930       1.2748673
       4059.0101       1.1907248
       4059.7272       1.2134109
       4060.4442       1.2298163
       4061.1613       1.0849231
       4061.8784       1.1199956
       4062.5954       1.2272747
       4063.3125       1.1555536
       4064.0296       1.1552110
       4064.7466       1.1363479
       4065.4637       1.1767697
       4066.1808       1.2187983
       4066.8979       1.2226040
       4067.6149       1.0904819
       4068.3320       1.1767065
       4069.0491       1.3064686
       4069.7661       1.2073482
       4070.4832       1.1027527
       4071.2003       1.1340499
       4071.9174       1.2198573
       4072.6344       1.2026186
       4073.3515       1.1370727
       4074.0686       1.1634381
       4074.7856       1.2028139
       4075.5027       1.2065072
       4076.2198       1.1401695
       4076.9368       1.1265064
       4077.6539       1.1115242
       4078.3710       1.1663276
       4079.0881       1.1532111
       4079.8051       1.1651754
       4080.5222       1.1412879
       4081.2393       1.1827869
       4081.9563       1.1591116
       4082.6734       1.1641076
       4083.3905       1.1868578
       4084.1076       1.1442197
       4084.8246       1.1789913
       4085.5417       1.1518993
       4086.2588       1.1395024
       4086.9758       1.1398748
       4087.6929       1.1104120
       4088.4100       1.0661593
       4089.1270       1.1057576
       4089.8441       1.1973533
       4090.5612       1.0856487
       4091.2783      0.97848324
       4091.9953       1.0351061
       4092.7124       1.1269651
       4093.4295       1.1362152
       4094.1465       1.1495934
       4094.8636       1.1653418
       4095.5807       1.1399037
       4096.2978       1.1226097
       4097.0148       1.1743898
       4097.7319       1.1239308
       4098.4490       1.0781145
       4099.1660       1.0920119
       4099.8831       1.1303658
       4100.6002       1.0879257
       4101.3172       1.1084983
       4102.0343       1.1245499
       4102.7514       1.1194456
       4103.4685       1.0924295
       4104.1855       1.0799079
       4104.9026       1.0876990
       4105.6197       1.0830401
       4106.3367       1.1035803
       4107.0538       1.0997362
       4107.7709       1.1029434
       4108.4880       1.1205827
       4109.2050       1.1134929
       4109.9221      0.92713052
       4110.6392       1.0019696
       4111.3562      0.95007902
       4112.0733      0.95713101
       4112.7904      0.97094904
       4113.5074      0.69886908
       4114.2245      0.75167053
       4114.9416      0.88403780
       4115.6587      0.86479860
       4116.3757      0.69835826
       4117.0928      0.64992950
       4117.8099      0.61785205
       4118.5269      0.69244096
       4119.2440      0.67290134
       4119.9611      0.79893406
       4120.6782      0.77668336
       4121.3952      0.73440147
       4122.1123      0.78697444
       4122.8294      0.86017985
       4123.5464      0.80963124
       4124.2635      0.84365441
       4124.9806      0.87053992
       4125.6976      0.92074350
       4126.4147      0.95123328
       4127.1318       1.0868972
       4127.8489       1.0025595
       4128.5659      0.94225734
       4129.2830       1.1316478
       4130.0001       1.1726235
       4130.7171       1.0944944
       4131.4342       1.1791504
       4132.1513      0.93125823
       4132.8684      0.75800485
       4133.5854      0.75092834
       4134.3025      0.86698081
       4135.0196      0.95040710
       4135.7366      0.89430859
       4136.4537      0.89635841
       4137.1708      0.93057316
       4137.8878      0.99891370
       4138.6049       1.0997460
       4139.3220       1.1121319
       4140.0391       1.1672423
       4140.7561       1.1921816
       4141.4732       1.2595163
       4142.1903       1.2105339
       4142.9073       1.1724481
       4143.6244       1.1137912
       4144.3415       1.1269729
       4145.0586       1.1905934
       4145.7756       1.1234772
       4146.4927       1.0295957
       4147.2098       1.0347458
       4147.9268       1.0203332
       4148.6439      0.96771448
       4149.3610       1.0552306
       4150.0780       1.1137471
       4150.7951       1.1389193
       4151.5122       1.0522179
       4152.2293       1.0409421
       4152.9463       1.1948387
       4153.6634       1.2285847
       4154.3805       1.1038471
       4155.0975       1.1523043
       4155.8146       1.2441391
       4156.5317       1.1089749
       4157.2488       1.1745955
       4157.9658       1.1797926
       4158.6829       1.2438747
       4159.4000       1.2270571
       4160.1170       1.1919208
       4160.8341       1.2167312
       4161.5512       1.1610162
       4162.2682       1.0749114
       4162.9853       1.1814881
       4163.7024       1.2211768
       4164.4195       1.2865429
       4165.1365       1.3040033
       4165.8536       1.1454161
       4166.5707       1.1657385
       4167.2877       1.2640011
       4168.0048       1.1560100
       4168.7219       1.1091163
       4169.4390       1.1136439
       4170.1560       1.0990949
       4170.8731       1.1271229
       4171.5902       1.1372857
       4172.3072       1.1353959
       4173.0243       1.1904280
       4173.7414       1.2116048
       4174.4584       1.1268920
       4175.1755       1.2769645
       4175.8926       1.2403587
       4176.6097       1.1290652
       4177.3267      0.99655764
       4178.0438       1.1507383
       4178.7609       1.1769565
       4179.4779       1.2228869
       4180.1950       1.3888187
       4180.9121       1.3867500
       4181.6292       1.3466321
       4182.3462       1.2772052
       4183.0633       1.2742951
       4183.7804       1.1849668
       4184.4974       1.1679494
       4185.2145       1.1069772
       4185.9316       1.1880208
       4186.6486       1.2468330
       4187.3657       1.2287713
       4188.0828       1.1788504
       4188.7999       1.1651917
       4189.5169       1.1674444
       4190.2340       1.2253014
       4190.9511       1.2429264
       4191.6681       1.1642417
       4192.3852       1.1916542
       4193.1023       1.1373892
       4193.8194       1.1085965
       4194.5364       1.1898899
       4195.2535       1.2618983
       4195.9706       1.2520383
       4196.6876       1.1581682
       4197.4047       1.2569405
       4198.1218       1.3196540
       4198.8388       1.3689837
       4199.5559       1.2846348
       4200.2730       1.3201319
       4200.9901       1.2432356
       4201.7071       1.2561236
       4202.4242       1.2333022
       4203.1413       1.1789367
       4203.8583       1.2041053
       4204.5754       1.2674239
       4205.2925       1.3057498
       4206.0096       1.3134501
       4206.7266       1.2711730
       4207.4437       1.3672067
       4208.1608       1.2769439
       4208.8778       1.1936743
       4209.5949       1.2121331
       4210.3120       1.3219112
       4211.0290       1.2390217
       4211.7461       1.2248572
       4212.4632       1.2110819
       4213.1803       1.2902349
       4213.8973       1.2900803
       4214.6144       1.2454574
       4215.3315       1.0536549
       4216.0485       1.0738417
       4216.7656       1.1853416
       4217.4827       1.1713742
       4218.1998       1.1953808
       4218.9168       1.2351099
       4219.6339       1.1643363
       4220.3510       1.1898533
       4221.0680       1.2149650
       4221.7851       1.2269922
       4222.5022       1.2007111
       4223.2192       1.1590694
       4223.9363       1.2606853
       4224.6534       1.1696660
       4225.3705       1.2283077
       4226.0875       1.2571805
       4226.8046       1.4486245
       4227.5217       1.3588513
       4228.2387       1.2898545
       4228.9558       1.2567015
       4229.6729       1.2491649
       4230.3900       1.3091418
       4231.1070       1.3174408
       4231.8241       1.2373224
       4232.5412       1.2768499
       4233.2582       1.2748713
       4233.9753       1.3022825
       4234.6924       1.3043077
       4235.4094       1.2198847
       4236.1265       1.1926251
       4236.8436       1.3444975
       4237.5607       1.3323489
       4238.2777       1.1522367
       4238.9948       1.2084508
       4239.7119       1.2579982
       4240.4289       1.3890074
       4241.1460       1.3547304
       4241.8631       1.4058530
       4242.5802       1.3026665
       4243.2972       1.1943988
       4244.0143       1.1859140
       4244.7314       1.1328510
       4245.4484       1.2154137
       4246.1655       1.1944971
       4246.8826       1.2083981
       4247.5996       1.1729105
       4248.3167       1.0802331
       4249.0338       1.2300148
       4249.7509       1.2993517
       4250.4679       1.2336183
       4251.1850       1.2093838
       4251.9021       1.2273112
       4252.6191       1.2377390
       4253.3362       1.2403632
       4254.0533       1.3223108
       4254.7704       1.3692593
       4255.4874       1.3524218
       4256.2045       1.2651210
       4256.9216       1.3283418
       4257.6386       1.3099000
       4258.3557       1.2924211
       4259.0728       1.2663815
       4259.7898       1.2854736
       4260.5069       1.2895223
       4261.2240       1.2784049
       4261.9411       1.2273887
       4262.6581       1.2831732
       4263.3752       1.2469896
       4264.0923       1.3218366
       4264.8093       1.3427594
       4265.5264       1.2687870
       4266.2435       1.2860912
       4266.9606       1.3218327
       4267.6776       1.2624034
       4268.3947       1.2237291
       4269.1118       1.2043180
       4269.8288       1.2280074
       4270.5459       1.2619303
       4271.2630       1.2373838
       4271.9800       1.2916439
       4272.6971       1.3204293
       4273.4142       1.2728032
       4274.1313       1.2446223
       4274.8483       1.2211267
       4275.5654       1.3071021
       4276.2825       1.2398849
       4276.9995       1.2375520
       4277.7166       1.3294274
       4278.4337       1.2741455
       4279.1508       1.2894200
       4279.8678       1.1881864
       4280.5849       1.2903937
       4281.3020       1.2606887
       4282.0190       1.2314985
       4282.7361       1.3089675
       4283.4532       1.3751023
       4284.1702       1.2958752
       4284.8873       1.3374677
       4285.6044       1.3246662
       4286.3215       1.4388533
       4287.0385       1.4472107
       4287.7556       1.3971258
       4288.4727       1.3083020
       4289.1897       1.4157730
       4289.9068       1.3437559
       4290.6239       1.3451388
       4291.3410       1.2341204
       4292.0580       1.2776200
       4292.7751       1.3276181
       4293.4922       1.2162029
       4294.2092       1.1441413
       4294.9263      0.96977137
       4295.6434      0.45758968
       4296.3604       1.1246678
       4297.0775       1.2001979
       4297.7946       1.2485058
       4298.5117       1.3603576
       4299.2287       1.2850547
       4299.9458       1.2960343
       4300.6629       1.2434894
       4301.3799       1.2713748
       4302.0970       1.3223080
       4302.8141       1.3494399
       4303.5312       1.3479928
       4304.2482       1.4564545
       4304.9653       1.3286459
       4305.6824       1.2830904
       4306.3994       1.2326167
       4307.1165       1.2761184
       4307.8336       1.3358456
       4308.5506       1.2269966
       4309.2677       1.2664468
       4309.9848       1.2694950
       4310.7019       1.2907291
       4311.4189       1.2838386
       4312.1360       1.2463638
       4312.8531       1.2409529
       4313.5701       1.2141532
       4314.2872       1.1877951
       4315.0043       1.2001041
       4315.7214       1.2555665
       4316.4384       1.2345305
       4317.1555       1.2577075
       4317.8726       1.2122189
       4318.5896       1.2416169
       4319.3067       1.1503309
       4320.0238       1.0960916
       4320.7408       1.0901792
       4321.4579       1.0761061
       4322.1750       1.0836516
       4322.8921       1.0893225
       4323.6091       1.0852516
       4324.3262       1.0364244
       4325.0433       1.0354849
       4325.7603       1.0286650
       4326.4774       1.0516864
       4327.1945      0.97751229
       4327.9116       1.0132160
       4328.6286      0.92991565
       4329.3457       1.0232864
       4330.0628       1.0977182
       4330.7798       1.1233567
       4331.4969       1.1038650
       4332.2140       1.1083270
       4332.9310       1.2092287
       4333.6481       1.1994378
       4334.3652       1.1769118
       4335.0823       1.1798082
       4335.7993       1.0881009
       4336.5164       1.0943160
       4337.2335       1.1290872
       4337.9505       1.1892803
       4338.6676       1.1725469
       4339.3847       1.1667792
       4340.1018       1.2458366
       4340.8188       1.2841800
       4341.5359       1.2358021
       4342.2530       1.2828234
       4342.9700       1.2852855
       4343.6871       1.2288113
       4344.4042       1.1444802
       4345.1212       1.1809296
       4345.8383       1.1659535
       4346.5554       1.1763373
       4347.2725       1.1210378
       4347.9895       1.1621360
       4348.7066       1.1880613
       4349.4237       1.1810710
       4350.1407       1.0526252
       4350.8578       1.1357473
       4351.5749       1.1760422
       4352.2920       1.2061862
       4353.0090       1.2389716
       4353.7261       1.2396260
       4354.4432       1.1979273
       4355.1602       1.1655877
       4355.8773       1.0801578
       4356.5944       1.0228612
       4357.3114       1.0238938
       4358.0285       1.0594630
       4358.7456       1.0795060
       4359.4627       1.0187894
       4360.1797       1.0756629
       4360.8968      0.97761987
       4361.6139       1.1003457
       4362.3309       1.0314380
       4363.0480      0.90111921
       4363.7651      0.95641467
       4364.4822      0.89833540
       4365.1992      0.74045627
       4365.9163      0.76884238
       4366.6334      0.81725545
       4367.3504      0.90585918
       4368.0675      0.86760447
       4368.7846      0.96264274
       4369.5016       1.1223783
       4370.2187       1.1356773
       4370.9358       1.0789717
       4371.6529       1.1924855
       4372.3699       1.1421968
       4373.0870       1.1713534
       4373.8041       1.2420546
       4374.5211       1.2609783
       4375.2382       1.1759199
       4375.9553       1.1049478
       4376.6724       1.2429226
       4377.3894       1.2519065
       4378.1065       1.2124339
       4378.8236       1.2526604
       4379.5406       1.2315289
       4380.2577       1.2955643
       4380.9748       1.2588298
       4381.6918       1.3215375
       4382.4089       1.3729157
       4383.1260       1.3077900
       4383.8431       1.2266326
       4384.5601       1.1517200
       4385.2772       1.1922020
       4385.9943       1.2316415
       4386.7113       1.2933589
       4387.4284       1.3419943
       4388.1455       1.3963245
       4388.8626       1.4111689
       4389.5796       1.4048595
       4390.2967       1.3422372
       4391.0138       1.2301474
       4391.7308       1.1720994
       4392.4479       1.2838119
       4393.1650       1.2913219
       4393.8820       1.3739412
       4394.5991       1.3423381
       4395.3162       1.3142215
       4396.0333       1.3563620
       4396.7503       1.2793508
       4397.4674       1.2865516
       4398.1845       1.3128017
       4398.9015       1.3193737
       4399.6186       1.3680953
       4400.3357       1.2793531
       4401.0528       1.3447337
       4401.7698       1.2330181
       4402.4869       1.2638324
       4403.2040       1.2602245
       4403.9210       1.2439435
       4404.6381       1.3468482
       4405.3552       1.3421664
       4406.0722       1.3267143
       4406.7893       1.4024270
       4407.5064       1.4238907
       4408.2235       1.2959908
       4408.9405       1.1676243
       4409.6576       1.0659981
       4410.3747       1.1468998
       4411.0917       1.2662165
       4411.8088       1.2008935
       4412.5259       1.2700018
       4413.2430       1.3087315
       4413.9600       1.4374141
       4414.6771       1.3551404
       4415.3942       1.2909268
       4416.1112       1.3710199
       4416.8283       1.2894406
       4417.5454       1.2332345
       4418.2624       1.2573000
       4418.9795       1.3065777
       4419.6966       1.3620530
       4420.4137       1.4941409
       4421.1307       1.6164068
       4421.8478       1.7288130
       4422.5649       1.5502088
       4423.2819       1.4857012
       4423.9990       1.5700279
       4424.7161       1.3458151
       4425.4332       1.2968730
       4426.1502       1.2957229
       4426.8673       1.3398408
       4427.5844       1.3338307
       4428.3014       1.2627948
       4429.0185       1.3797204
       4429.7356       1.3605881
       4430.4526       1.3556251
       4431.1697       1.4037360
       4431.8868       1.3652028
       4432.6039       1.3262931
       4433.3209       1.3762439
       4434.0380       1.3858500
       4434.7551       1.3960795
       4435.4721       1.3526114
       4436.1892       1.3529044
       4436.9063       1.3615825
       4437.6234       1.3920320
       4438.3404       1.5061116
       4439.0575       1.5468219
       4439.7746       1.6464962
       4440.4916       1.6691316
       4441.2087       1.5524319
       4441.9258       1.2932070
       4442.6429       1.2238366
       4443.3599       1.4509650
       4444.0770       1.4502538
       4444.7941       1.4024762
       4445.5111       1.4055611
       4446.2282       1.3905412
       4446.9453       1.4077890
       4447.6623       1.5224498
       4448.3794       1.3659817
       4449.0965       1.4463293
       4449.8136       1.4309376
       4450.5306       1.3854350
       4451.2477       1.4214691
       4451.9648       1.4426386
       4452.6818       1.4524791
       4453.3989       1.4947189
       4454.1160       1.4779066
       4454.8331       1.5360613
       4455.5501       1.4143664
       4456.2672       1.4758992
       4456.9843       1.3694236
       4457.7013       1.5160449
       4458.4184       1.5043352
       4459.1355       1.5554384
       4459.8525       1.5115054
       4460.5696       1.5340563
       4461.2867       1.4472576
       4462.0038       1.2766218
       4462.7208       1.2978903
       4463.4379       1.3613698
       4464.1550       1.3663323
       4464.8720       1.3634109
       4465.5891       1.4007766
       4466.3062       1.3811838
       4467.0233       1.4059880
       4467.7403       1.4789532
       4468.4574       1.3719038
       4469.1745       1.4198620
       4469.8915       1.4970840
       4470.6086       1.4413657
       4471.3257       1.4634640
       4472.0427       1.4206849
       4472.7598       1.4126215
       4473.4769       1.4759593
       4474.1940       1.5046698
       4474.9110       1.4775325
       4475.6281       1.5226846
       4476.3452       1.5874686
       4477.0622       1.5932887
       4477.7793       1.4971323
       4478.4964       1.4305713
       4479.2135       1.4307110
       4479.9305       1.4069522
       4480.6476       1.4965885
       4481.3647       1.4848912
       4482.0817       1.4029960
       4482.7988       1.2632134
       4483.5159       1.2107626
       4484.2329       1.3639002
       4484.9500       1.4326038
       4485.6671       1.3335312
       4486.3842       1.4489274
       4487.1012       1.4262242
       4487.8183       1.2929289
       4488.5354       1.4014476
       4489.2524       1.4271547
       4489.9695       1.3360417
       4490.6866       1.5063343
       4491.4037       1.4685772
       4492.1207       1.4869141
       4492.8378       1.5486907
       4493.5549       1.5151221
       4494.2719       1.4614604
       4494.9890       1.4632663
       4495.7061       1.4504645
       4496.4231       1.4231526
       4497.1402       1.4424011
       4497.8573       1.4706381
       4498.5744       1.5794872
       4499.2914       1.5793584
       4500.0085       1.6013215
       4500.7256       1.4856461
       4501.4426       1.5178643
       4502.1597       1.6357974
       4502.8768       1.6416022
       4503.5939       1.5267971
       4504.3109       1.5609645
       4505.0280       1.5098928
       4505.7451       1.4605293
       4506.4621       1.4970126
       4507.1792       1.4615223
       4507.8963       1.4908354
       4508.6133       1.5556946
       4509.3304       1.5061028
       4510.0475       1.4773606
       4510.7646       1.3975246
       4511.4816       1.4190913
       4512.1987       1.4811156
       4512.9158       1.5530441
       4513.6328       1.4366732
       4514.3499       1.4784666
       4515.0670       1.4765587
       4515.7841       1.4031543
       4516.5011       1.3751320
       4517.2182       1.4920701
       4517.9353       1.5293857
       4518.6523       1.6216490
       4519.3694       1.5219869
       4520.0865       1.5984255
       4520.8035       1.6107687
       4521.5206       1.5829232
       4522.2377       1.6229726
       4522.9548       1.5904165
       4523.6718       1.5928093
       4524.3889       1.6369406
       4525.1060       1.4879629
       4525.8230       1.4832628
       4526.5401       1.5577873
       4527.2572       1.7092749
       4527.9743       1.6182341
       4528.6913       1.5456701
       4529.4084       1.5584017
       4530.1255       1.5382763
       4530.8425       1.6191820
       4531.5596       1.5793802
       4532.2767       1.7773167
       4532.9937       1.9135791
       4533.7108       1.8145051
       4534.4279       1.8284840
       4535.1450       1.8102580
       4535.8620       1.6597363
       4536.5791       1.5843216
       4537.2962       1.5436276
       4538.0132       1.5791372
       4538.7303       1.6891096
       4539.4474       1.7560917
       4540.1645       1.5254430
       4540.8815       1.6794489
       4541.5986       1.6001095
       4542.3157       1.5925487
       4543.0327       1.7354029
       4543.7498       1.6539946
       4544.4669       1.5247074
       4545.1839       1.5304130
       4545.9010       1.5807618
       4546.6181       1.5141902
       4547.3352       1.4987053
       4548.0522       1.5136407
       4548.7693       1.5426463
       4549.4864       1.6121246
       4550.2034       1.5510964
       4550.9205       1.4949157
       4551.6376       1.6174584
       4552.3547       1.6113644
       4553.0717       1.5157918
       4553.7888       1.4532387
       4554.5059       1.5669779
       4555.2229       1.5006653
       4555.9400       1.5859255
       4556.6571       1.5062435
       4557.3741       1.5812266
       4558.0912       1.5510886
       4558.8083       1.3751025
       4559.5254       1.4826396
       4560.2424       1.5010337
       4560.9595       1.5984798
       4561.6766       1.5143797
       4562.3936       1.6342526
       4563.1107       1.6133889
       4563.8278       1.5443851
       4564.5449       1.5502721
       4565.2619       1.5955174
       4565.9790       1.3686900
       4566.6961       1.4056563
       4567.4131       1.4803056
       4568.1302       1.5927649
       4568.8473       1.6267225
       4569.5643       1.6113527
       4570.2814       1.5212952
       4570.9985       1.5974859
       4571.7156       1.6785181
       4572.4326       1.4812713
       4573.1497       1.5974608
       4573.8668       1.4921409
       4574.5838       1.4431026
       4575.3009       1.4281596
       4576.0180       1.4073178
       4576.7351       1.2323640
       4577.4521       1.2216246
       4578.1692      0.97104797
       4578.8863      0.90375799
       4579.6033      0.89680544
       4580.3204      0.83374960
       4581.0375      0.64913711
       4581.7545      0.65560046
       4582.4716             NaN
       4583.1887             NaN
       4583.9058             NaN
       4584.6228             NaN
       4585.3399             NaN
       4586.0570             NaN
       4586.7740             NaN
       4587.4911             NaN
       4588.2082             NaN
       4588.9253             NaN
       4589.6423             NaN
       4590.3594             NaN
       4591.0765             NaN
       4591.7935             NaN
       4592.5106             NaN
       4593.2277             NaN
       4593.9447             NaN
       4594.6618             NaN
       4595.3789             NaN
       4596.0960             NaN
       4596.8130             NaN
       4597.5301             NaN
       4598.2472             NaN
       4598.9642             NaN
       4599.6813             NaN
       4600.3984             NaN
       4601.1155             NaN
       4601.8325             NaN
       4602.5496             NaN
       4603.2667             NaN
       4603.9837             NaN
       4604.7008             NaN
       4605.4179             NaN
       4606.1349             NaN
       4606.8520             NaN
       4607.5691             NaN
       4608.2862             NaN
       4609.0032             NaN
       4609.7203             NaN
       4610.4374             NaN
       4611.1544             NaN
       4611.8715             NaN
       4612.5886             NaN
       4613.3057             NaN
       4614.0227             NaN
       4614.7398             NaN
       4615.4569             NaN
       4616.1739             NaN
       4616.8910             NaN
       4617.6081             NaN
       4618.3251             NaN
       4619.0422             NaN
       4619.7593             NaN
       4620.4764             NaN
       4621.1934             NaN
       4621.9105             NaN
       4622.6276             NaN
       4623.3446             NaN
       4624.0617             NaN
       4624.7788             NaN
       4625.4959             NaN
       4626.2129             NaN
       4626.9300             NaN
       4627.6471             NaN
       4628.3641             NaN
       4629.0812             NaN
       4629.7983             NaN
       4630.5153             NaN
       4631.2324             NaN
       4631.9495             NaN
       4632.6666             NaN
       4633.3836             NaN
       4634.1007             NaN
       4634.8178             NaN
       4635.5348             NaN
       4636.2519             NaN
       4636.9690             NaN
       4637.6861             NaN
       4638.4031             NaN
       4639.1202             NaN
       4639.8373             NaN
       4640.5543             NaN
       4641.2714             NaN
       4641.9885             NaN
       4642.7055             NaN
       4643.4226             NaN
       4644.1397             NaN
       4644.8568             NaN
       4645.5738             NaN
       4646.2909       1.7621203
       4647.0080       1.7418362
       4647.7250       1.6734823
       4648.4421       1.8867606
       4649.1592       1.9868060
       4649.8763       1.9659870
       4650.5933       1.9045359
       4651.3104       1.6046998
       4652.0275       1.7442631
       4652.7445       1.5935614
       4653.4616       1.4652904
       4654.1787       1.5282802
       4654.8957       1.6359309
       4655.6128       1.6409051
       4656.3299       1.6790589
       4657.0470       1.6453495
       4657.7640       1.5961559
       4658.4811       1.6005436
       4659.1982       1.6954987
       4659.9152       1.5997479
       4660.6323       1.5879749
       4661.3494       1.7703046
       4662.0665       1.5865090
       4662.7835       1.5231132
       4663.5006       1.5633683
       4664.2177       1.5421276
       4664.9347       1.5750077
       4665.6518       1.5364566
       4666.3689       1.6610285
       4667.0859       1.5485010
       4667.8030       1.5899514
       4668.5201       1.5941563
       4669.2372       1.8103163
       4669.9542       1.6570676
       4670.6713       1.7723982
       4671.3884       1.8471439
       4672.1054       1.7870992
       4672.8225       1.5318901
       4673.5396       1.1809926
       4674.2567       1.2686009
       4674.9737       1.4236796
       4675.6908       1.4769835
       4676.4079       1.6355422
       4677.1249       1.6712808
       4677.8420       1.5136302
       4678.5591       1.7031999
       4679.2761       1.6094703
       4679.9932       1.5175160
       4680.7103       1.5669932
       4681.4274       1.6969573
       4682.1444       1.6305054
       4682.8615       1.5386502
       4683.5786       1.6422844
       4684.2956       1.6495113
       4685.0127       1.7213935
       4685.7298       1.5897066
       4686.4469       1.5328691
       4687.1639       1.6497346
       4687.8810       1.7910132
       4688.5981       1.4733708
       4689.3151       1.5342053
       4690.0322       1.5878454
       4690.7493       1.5927051
       4691.4663       1.5476530
       4692.1834       1.4303275
       4692.9005       1.4887459
       4693.6176       1.5629545
       4694.3346       1.4079136
       4695.0517       1.4913386
       4695.7688       1.6994142
       4696.4858       1.9752509
       4697.2029       1.8900632
       4697.9200       1.7427518
       4698.6371       2.0757819
       4699.3541       1.6721838
       4700.0712       1.3692049
       4700.7883       1.3266848
       4701.5053       1.2458148
       4702.2224       1.4464430
       4702.9395       1.6322100
       4703.6565       1.5482477
       4704.3736       1.5630298
       4705.0907       1.7418877
       4705.8078       1.6993655
       4706.5248       1.7162355
       4707.2419       1.5661320
       4707.9590       1.6896896
       4708.6760       1.5816668
       4709.3931       1.4621758
       4710.1102       1.4678719
       4710.8273       1.5503842
       4711.5443       1.6296373
       4712.2614       1.6189416
       4712.9785       1.6130313
       4713.6955       1.6164060
       4714.4126       1.5340896
       4715.1297       1.5867027
       4715.8467       1.7973308
       4716.5638       1.4333954
       4717.2809       1.2881402
       4717.9980       1.3679638
       4718.7150       1.4790928
       4719.4321       1.4399482
       4720.1492       1.5229175
       4720.8662       1.5890673
       4721.5833       1.6260965
       4722.3004       1.6505476
       4723.0175       1.4826839
       4723.7345       1.5010792
       4724.4516       1.6555705
       4725.1687       1.6089552
       4725.8857       1.5495317
       4726.6028       1.5327937
       4727.3199       1.4455081
       4728.0369       1.4865999
       4728.7540       1.4290469
       4729.4711       1.5335643
       4730.1882       1.3873307
       4730.9052       1.5920010
       4731.6223       1.6837946
       4732.3394       1.6546089
       4733.0564       1.5732840
       4733.7735       1.4387528
       4734.4906       1.6241010
       4735.2077       1.6058723
       4735.9247       1.4191742
       4736.6418       1.2949066
       4737.3589       1.3869561
       4738.0759       1.4517148
       4738.7930       1.5115443
       4739.5101       1.5704632
       4740.2271       1.6130223
       4740.9442       1.5606528
       4741.6613       1.4478805
       4742.3784       1.5367832
       4743.0954       1.7945418
       4743.8125       1.8418275
       4744.5296       1.6227884
       4745.2466       1.3808985
       4745.9637       1.3357557
       4746.6808       1.6749840
       4747.3979       1.5896870
       4748.1149       1.7087008
       4748.8320       1.6440792
       4749.5491       1.7561013
       4750.2661       1.8190434
       4750.9832       1.7507500
       4751.7003       1.6305549
       4752.4173       1.6626018
       4753.1344       1.5131222
       4753.8515       1.6711425
       4754.5686       1.6866834
       4755.2856       1.7348672
       4756.0027       1.7619765
       4756.7198       1.5745384
       4757.4368       1.5545141
       4758.1539       1.4804883
       4758.8710       1.4203900
       4759.5881       1.3655263
       4760.3051       1.5229772
       4761.0222       1.5266948
       4761.7393       1.5774700
       4762.4563       1.5289100
       4763.1734       1.5697883
       4763.8905       1.6299688
       4764.6075       1.5567184
       4765.3246       1.5919027
       4766.0417       1.6502090
       4766.7588       1.5791615
       4767.4758       1.7371454
       4768.1929       1.7081204
       4768.9100       1.6649327
       4769.6270       1.9236907
       4770.3441       1.9132904
       4771.0612       1.8297856
       4771.7783       1.7753179
       4772.4953       1.4352335
       4773.2124       1.4283415
       4773.9295       1.5179065
       4774.6465       1.4875291
       4775.3636       1.7085041
       4776.0807       1.4719453
       4776.7977       1.5325316
       4777.5148       1.3388957
       4778.2319       1.4906268
       4778.9490       1.5657401
       4779.6660       1.6308539
       4780.3831       1.6090365
       4781.1002       1.7611609
       4781.8172       1.7851346
       4782.5343       1.5324160
       4783.2514       1.5590517
       4783.9685       1.4347803
       4784.6855       1.4073854
       4785.4026       1.4538960
       4786.1197       1.6080487
       4786.8367       1.6796941
       4787.5538       1.5725430
       4788.2709       1.5705750
       4788.9879       1.5465243
       4789.7050       1.5342848
       4790.4221       1.6181376
       4791.1392       1.6490319
       4791.8562       1.6564526
       4792.5733       1.6660646
       4793.2904       1.6411956
       4794.0074       1.5859141
       4794.7245       1.5364866
       4795.4416       1.6630848
       4796.1587       1.7028612
       4796.8757       1.7596254
       4797.5928       1.8159904
       4798.3099       1.5679851
       4799.0269       1.6817205
       4799.7440       1.6476285
       4800.4611       1.5222232
       4801.1781       1.5701425
       4801.8952       1.1166070
       4802.6123      0.33618423
       4803.3294       1.1505288
       4804.0464       1.4520151
       4804.7635       1.5563137
       4805.4806       1.7039683
       4806.1976       1.7921847
       4806.9147       1.8029505
       4807.6318       1.8575074
       4808.3489       1.7847228
       4809.0659       1.8853956
       4809.7830       1.6776760
       4810.5001       1.4989184
       4811.2171       1.5526462
       4811.9342       1.4475814
       4812.6513       1.4114469
       4813.3683       1.4507497
       4814.0854       1.5611620
       4814.8025       1.6356051
       4815.5196       1.7669929
       4816.2366       1.6794880
       4816.9537       1.6548235
       4817.6708       1.6835701
       4818.3878       1.8719029
       4819.1049       1.9051014
       4819.8220       1.5189191
       4820.5391       1.2326517
       4821.2561       1.3088570
       4821.9732       1.5757301
       4822.6903       1.5126149
       4823.4073       1.5966090
       4824.1244       1.5807537
       4824.8415       1.6358405
       4825.5586       1.6982987
       4826.2756       1.5760650
       4826.9927       1.4915574
       4827.7098       1.6532905
       4828.4268       1.7944820
       4829.1439       1.6634493
       4829.8610       1.7876866
       4830.5780       1.6932040
       4831.2951       1.7653454
       4832.0122       1.8346252
       4832.7293       1.6886005
       4833.4463       1.5892587
       4834.1634       1.5544906
       4834.8805       1.6553972
       4835.5975       1.8301549
       4836.3146       1.8777717
       4837.0317       1.7495705
       4837.7488       1.8777959
       4838.4658       1.8451932
       4839.1829       1.8235530
       4839.9000       1.4477695
       4840.6170       1.3985029
       4841.3341       1.5546714
       4842.0512       1.5183709
       4842.7682       1.4837036
       4843.4853       1.5932759
       4844.2024       1.6814046
       4844.9195       1.7195172
       4845.6365       1.7712524
       4846.3536       1.6770864
       4847.0707       1.6599511
       4847.7877       1.7350481
       4848.5048       1.6187968
       4849.2219       1.7007699
       4849.9390       1.6166520
       4850.6560       1.7146048
       4851.3731       1.6547933
       4852.0902       1.8186884
       4852.8072       1.7829935
       4853.5243       1.7832564
       4854.2414       1.8154356
       4854.9584       1.8876271
       4855.6755       1.6859006
       4856.3926       1.4688550
       4857.1097       1.6479984
       4857.8267       1.7281260
       4858.5438       1.7610440
       4859.2609       1.6449447
       4859.9779       1.7142448
       4860.6950       1.5277701
       4861.4121       1.5126695
       4862.1292       1.5300926
       4862.8462       1.4672307
       4863.5633       1.3933082
       4864.2804       1.3686338
       4864.9974       1.0275819
       4865.7145       1.3670227
       4866.4316       1.3841733
       4867.1486       1.5988016
       4867.8657       1.4369893
       4868.5828       1.3957527
       4869.2999       1.4999612
       4870.0169       1.5470001
       4870.7340       1.5836703
       4871.4511       1.4923342
       4872.1681       1.5363432
       4872.8852       1.5254652
       4873.6023       1.4477940
       4874.3194       1.3961042
       4875.0364       1.5209247
       4875.7535       1.4912810
       4876.4706       1.6125875
       4877.1876       1.6840594
       4877.9047       1.4706062
       4878.6218       1.4771977
       4879.3388       1.4307990
       4880.0559       1.5080673
       4880.7730       1.3648627
       4881.4901       1.3312425
       4882.2071       1.2679062
       4882.9242       1.3265121
       4883.6413       1.3959268
       4884.3583       1.4410151
       4885.0754       1.2787279
       4885.7925       1.3070161
       4886.5096       1.1574963
       4887.2266       1.1906818
       4887.9437       1.2217670
       4888.6608       1.1859774
       4889.3778       1.1260294
       4890.0949       1.1635483
       4890.8120       1.1908210
       4891.5290       1.0836204
       4892.2461       1.1305843
       4892.9632       1.1393244
       4893.6803       1.1531109
       4894.3973       1.1071397
       4895.1144       1.2079257
       4895.8315       1.2333652
       4896.5485       1.2456230
       4897.2656       1.2641812
       4897.9827       1.2979815
       4898.6998       1.3759407
       4899.4168       1.3238467
       4900.1339       1.2427524
       4900.8510       1.3147507
       4901.5680       1.4174978
       4902.2851       1.3135482
       4903.0022       1.4026120
       4903.7192       1.4108460
       4904.4363       1.4323840
       4905.1534       1.3481818
       4905.8705       1.3609902
       4906.5875       1.2642184
       4907.3046       1.3998308
       4908.0217       1.4286774
       4908.7387       1.4952040
       4909.4558       1.5248249
       4910.1729       1.3823789
       4910.8900       1.6126124
       4911.6070       1.5416321
       4912.3241       1.4331833
       4913.0412       1.5953051
       4913.7582       1.5009705
       4914.4753       1.4382875
       4915.1924       1.4000927
       4915.9094       1.5025045
       4916.6265       1.4397235
       4917.3436       1.5721706
       4918.0607       1.5073766
       4918.7777       1.4626850
       4919.4948       1.4900044
       4920.2119       1.4729104
       4920.9289       1.4198916
       4921.6460       1.3980853
       4922.3631       1.4121670
       4923.0802       1.3776402
       4923.7972       1.6515165
       4924.5143       1.6369689
       4925.2314       1.5235477
       4925.9484       1.5177585
       4926.6655       1.5428419
       4927.3826       1.5997536
       4928.0996       1.5970249
       4928.8167       1.5581845
       4929.5338       1.5816458
       4930.2509       1.5806498
       4930.9679       1.5157790
       4931.6850       1.5914836
       4932.4021       1.5917043
       4933.1191       1.6544537
       4933.8362       1.5598600
       4934.5533       1.4714831
       4935.2704       1.6306629
       4935.9874       1.4215415
       4936.7045       1.5962627
       4937.4216       1.5440479
       4938.1386       1.4723806
       4938.8557       1.4598865
       4939.5728       1.5626553
       4940.2898       1.6404560
       4941.0069       1.6495094
       4941.7240       1.5153212
       4942.4411       1.6191472
       4943.1581       1.4873310
       4943.8752       1.6192605
       4944.5923       1.6184574
       4945.3093       1.5763515
       4946.0264       1.5576153
       4946.7435       1.5039479
       4947.4606       1.5255792
       4948.1776       1.6051238
       4948.8947       1.5307434
       4949.6118       1.4895776
       4950.3288       1.5267717
       4951.0459       1.6725850
       4951.7630       1.5952387
       4952.4800       1.5649813
       4953.1971       1.4969073
       4953.9142       1.6220617
       4954.6313       1.5807826
       4955.3483       1.4831264
       4956.0654       1.5840481
       4956.7825       1.5777997
       4957.4995       1.5692492
       4958.2166       1.5606804
       4958.9337       1.5623270
       4959.6508       1.4349919
       4960.3678       1.3503150
       4961.0849       1.4292058
       4961.8020       1.4333301
       4962.5190       1.5117314
       4963.2361       1.5928895
       4963.9532       1.5868150
       4964.6702       1.5703579
       4965.3873       1.5977710
       4966.1044       1.6419027
       4966.8215       1.5780886
       4967.5385       1.5825043
       4968.2556       1.4973369
       4968.9727       1.6003475
       4969.6897       1.5433914
       4970.4068       1.4873041
       4971.1239       1.7724175
       4971.8410       1.7974276
       4972.5580       1.7270342
       4973.2751       1.6341721
       4973.9922       1.6503445
       4974.7092       1.7386351
       4975.4263       1.7156853
       4976.1434       1.6331085
       4976.8604       1.6472136
       4977.5775       1.6181665
       4978.2946       1.7585942
       4979.0117       1.5754606
       4979.7287       1.6929811
       4980.4458       1.6243892
       4981.1629       1.7500224
       4981.8799       1.7211368
       4982.5970       1.7555054
       4983.3141       1.7123102
       4984.0312       1.5902565
       4984.7482       1.6551799
       4985.4653       1.6249901
       4986.1824       1.6175006
       4986.8994       1.5763836
       4987.6165       1.5766170
       4988.3336       1.7399317
       4989.0506       1.8028480
       4989.7677       2.0012865
       4990.4848       1.8895870
       4991.2019       1.6559040
       4991.9189       1.7610915
       4992.6360       1.7446723
       4993.3531       1.6994582
       4994.0701       1.5911060
       4994.7872       1.7162992
       4995.5043       1.6233077
       4996.2214       1.6762746
       4996.9384       1.6973925
       4997.6555       1.6096062
       4998.3726       1.4739712
       4999.0896       1.3472041
       4999.8067       1.7290370
       5000.5238       1.7319672
       5001.2408       1.6805310
       5001.9579       1.9168880
       5002.6750       2.1210900
       5003.3921       1.6673110
       5004.1091       1.3462786
       5004.8262       1.3971963
       5005.5433       1.3011338
       5006.2603       1.5536145
       5006.9774       1.5467661
       5007.6945       1.6248353
       5008.4116       1.6418436
       5009.1286       1.6942589
       5009.8457       1.5391977
       5010.5628       1.4252922
       5011.2798       1.4089625
       5011.9969       1.5836704
       5012.7140       1.5457344
       5013.4310       1.5634693
       5014.1481       1.4895773
       5014.8652       1.5029693
       5015.5823       1.5000637
       5016.2993       1.4985939
       5017.0164       1.4599692
       5017.7335       1.5628779
       5018.4505       1.6376304
       5019.1676       1.5502177
       5019.8847       1.6812205
       5020.6018       1.6810320
       5021.3188       1.8086639
       5022.0359       1.5746248
       5022.7530       1.5131957
       5023.4700       1.5551314
       5024.1871       1.6745510
       5024.9042       1.5484658
       5025.6212       1.6865386
       5026.3383       1.7085301
       5027.0554       1.6631008
       5027.7725       1.8887630
       5028.4895       2.2591428
       5029.2066       2.0003362
       5029.9237       1.9662040
       5030.6407       1.8928834
       5031.3578       1.5921819
       5032.0749       1.1822245
       5032.7920      0.98729358
       5033.5090       1.6178920
       5034.2261       1.6712046
       5034.9432       1.9812254
       5035.6602       1.8764206
       5036.3773       1.8357918
       5037.0944       1.6339622
       5037.8114       1.6807457
       5038.5285       1.6545344
       5039.2456       1.7300343
       5039.9627       1.7939249
       5040.6797       1.8126034
       5041.3968       1.9399193
       5042.1139       1.7970509
       5042.8309       1.6120273
       5043.5480       1.6106177
       5044.2651       1.4106624
       5044.9822       1.4939045
       5045.6992       1.5031076
       5046.4163       1.5296988
       5047.1334       1.4522481
       5047.8504       1.5186589
       5048.5675       1.4056995
       5049.2846       1.4002187
       5050.0016       1.5321348
       5050.7187       1.5595514
       5051.4358       1.4891809
       5052.1529       1.6998380
       5052.8699       1.7116795
       5053.5870       1.4268327
       5054.3041       1.4579054
       5055.0211       1.5592356
       5055.7382       1.5800275
       5056.4553       1.6348099
       5057.1724       1.5386336
       5057.8894       1.6747733
       5058.6065       1.6159393
       5059.3236       1.6044565
       5060.0406       1.6804782
       5060.7577       2.0020270
       5061.4748       1.8813379
       5062.1918       1.7429180
       5062.9089       1.6786286
       5063.6260       1.7579155
       5064.3431       1.1830676
       5065.0601       1.0610912
       5065.7772       1.3327501
       5066.4943       1.5488690
       5067.2113       1.5984937
       5067.9284       1.5925280
       5068.6455       1.4296104
       5069.3626       1.5000311
       5070.0796       1.6623312
       5070.7967       1.8391100
       5071.5138       1.8066549
       5072.2308       1.7757750
       5072.9479       1.7221396
       5073.6650       1.5757971
       5074.3820       1.5931334
       5075.0991       1.4219572
       5075.8162       1.6266345
       5076.5333       1.6650241
       5077.2503       1.7586423
       5077.9674       1.6441967
       5078.6845       1.6859607
       5079.4015       2.0765126
       5080.1186       2.3018818
       5080.8357       2.2421687
       5081.5528       2.0990061
       5082.2698       2.0565805
       5082.9869       1.0582121
       5083.7040       1.1151412
       5084.4210       1.3892423
       5085.1381       1.5559640
       5085.8552       1.6689896
       5086.5722       1.6177012
       5087.2893       1.7094140
       5088.0064       1.7996122
       5088.7235       1.6511878
       5089.4405       1.6334258
       5090.1576       1.6299859
       5090.8747       1.8024865
       5091.5917       1.6838572
       5092.3088       1.8274595
       5093.0259       1.8579093
       5093.7430       1.7865827
       5094.4600       1.7972417
       5095.1771       1.6235331
       5095.8942       1.5007012
       5096.6112       1.5114522
       5097.3283       1.4583676
       5098.0454       1.6180761
       5098.7624       1.5821987
       5099.4795       1.6417702
       5100.1966       1.8161107
       5100.9137       1.9025807
       5101.6307       1.7108177
       5102.3478       1.8333462
       5103.0649       1.9564117
       5103.7819       1.6530915
       5104.4990       1.1829383
       5105.2161       1.2000823
       5105.9332       1.4229090
       5106.6502       1.5644290
       5107.3673       1.4630440
       5108.0844       1.7157775
       5108.8014       1.7114947
       5109.5185       1.6825869
       5110.2356       1.5504036
       5110.9526       1.6645088
       5111.6697       1.6591130
       5112.3868       1.6921090
       5113.1039       1.6706376
       5113.8209       1.4942304
       5114.5380       1.7381452
       5115.2551       1.5972217
       5115.9721       1.5805284
       5116.6892       1.7672378
       5117.4063       1.7795573
       5118.1234       1.7736424
       5118.8404       1.7101471
       5119.5575       1.8159957
       5120.2746       1.6780095
       5120.9916       1.7565615
       5121.7087       1.6181511
       5122.4258       1.5812947
       5123.1428       1.6340263
       5123.8599       1.8123032
       5124.5770       1.7191109
       5125.2941       1.8109303
       5126.0111       1.9610654
       5126.7282       1.8663101
       5127.4453       1.6534010
       5128.1623       1.5204866
       5128.8794       1.2376492
       5129.5965       1.4564578
       5130.3136       1.7175886
       5131.0306       1.6096312
       5131.7477       1.6295079
       5132.4648       1.6586068
       5133.1818       1.6979742
       5133.8989       1.7346400
       5134.6160       1.7027901
       5135.3330       1.6533140
       5136.0501       1.5983934
       5136.7672       1.5994509
       5137.4843       1.6660013
       5138.2013       1.5818712
       5138.9184       1.6338984
       5139.6355       1.6165817
       5140.3525       1.6605908
       5141.0696       1.6128164
       5141.7867       1.6126725
       5142.5038       1.6750608
       5143.2208       1.7736348
       5143.9379       1.7063993
       5144.6550       1.6918650
       5145.3720       1.7668887
       5146.0891       1.6579810
       5146.8062       1.7608159
       5147.5232       1.7359853
       5148.2403       1.6119848
       5148.9574       1.6713447
       5149.6745       1.6395756
       5150.3915       1.7189780
       5151.1086       1.6303499
       5151.8257       1.7021880
       5152.5427       1.7002924
       5153.2598       1.6733966
       5153.9769       1.6698901
       5154.6940       1.4180045
       5155.4110       1.3988003
       5156.1281       1.4848708
       5156.8452       1.6267414
       5157.5622       1.5763008
       5158.2793       1.6123778
       5158.9964       1.6938905
       5159.7134       1.4953983
       5160.4305       1.5745452
       5161.1476       1.6945947
       5161.8647       1.5107770
       5162.5817       1.5384778
       5163.2988       1.5573465
       5164.0159       1.5814401
       5164.7329       1.6612214
       5165.4500       1.7188867
       5166.1671       1.6734541
       5166.8842       1.5978303
       5167.6012       1.6358854
       5168.3183       1.7574538
       5169.0354       1.6801095
       5169.7524       1.6271540
       5170.4695       1.6742993
       5171.1866       1.5942286
       5171.9036       1.6537578
       5172.6207       1.6786656
       5173.3378       1.7040056
       5174.0549       1.6324401
       5174.7719       1.6990949
       5175.4890       1.7180687
       5176.2061       1.7215135
       5176.9231       1.7885383
       5177.6402       1.6229610
       5178.3573       1.7567701
       5179.0744       1.6018338
       5179.7914       1.6969719
       5180.5085       1.6235515
       5181.2256       1.7413170
       5181.9426       1.6078620
       5182.6597       1.7473407
       5183.3768       1.6501402
       5184.0938       1.5937457
       5184.8109       1.5299358
       5185.5280       1.5486635
       5186.2451       1.6900748
       5186.9621       1.7050286
       5187.6792       1.7300184
       5188.3963       1.6627603
       5189.1133       1.5283013
       5189.8304       1.6894134
       5190.5475       1.6943827
       5191.2646       1.6200463
       5191.9816       1.6337252
       5192.6987       1.8185577
       5193.4158       1.6883887
       5194.1328       1.5273450
       5194.8499       1.5431396
       5195.5670       1.5967453
       5196.2840       1.4447707
       5197.0011       1.5872787
       5197.7182       1.6090188
       5198.4353       1.4198583
       5199.1523       1.4767704
       5199.8694       1.2218295
       5200.5865       1.2553802
       5201.3035       1.3880418
       5202.0206      0.91418818
       5202.7377       1.4862297
       5203.4548       1.5883187
       5204.1718       1.3878012
       5204.8889       1.3512342
       5205.6060       1.6138905
       5206.3230       1.5654998
       5207.0401       1.5076283
       5207.7572       1.5571821
       5208.4742       1.3805239
       5209.1913       1.6408675
       5209.9084       1.5973044
       5210.6255       1.4867624
       5211.3425       1.6099584
       5212.0596       1.6492824
       5212.7767       1.8288872
       5213.4937       1.6300088
       5214.2108       1.9637044
       5214.9279       1.7187215
       5215.6450       1.6599566
       5216.3620       1.6750035
       5217.0791       1.4501439
       5217.7962       1.8329037
       5218.5132       1.7225629
       5219.2303       1.5892030
       5219.9474       1.7614782
       5220.6645       1.5428391
       5221.3815       1.6532063
       5222.0986       1.6819886
       5222.8157       1.4580568
       5223.5327       1.4311571
       5224.2498       1.6907119
       5224.9669       1.8182452
       5225.6839       1.6448643
       5226.4010       1.6731702
       5227.1181       1.6818458
       5227.8352       1.7724559
       5228.5522       1.5786049
       5229.2693       1.7109554
       5229.9864       1.8014057
       5230.7034       1.6364577
       5231.4205       1.6632279
       5232.1376       1.5295471
       5232.8547       1.6283355
       5233.5717       1.4816722
       5234.2888       1.6515790
       5235.0059       1.6532144
       5235.7229       1.6638444
       5236.4400       1.6424089
       5237.1571       1.6689994
       5237.8741       1.5965621
       5238.5912       1.6566374
       5239.3083       1.7842988
       5240.0254       1.7390140
       5240.7424       1.7227683
       5241.4595       1.6738494
       5242.1766       1.6845003
       5242.8936       1.6948646
       5243.6107       1.7075769
       5244.3278       1.6883353
       5245.0449       1.6559822
       5245.7619       1.6810026
       5246.4790       1.7881909
       5247.1961       1.8750668
       5247.9131       1.7775965
       5248.6302       1.6254755
       5249.3473       1.7541887
       5250.0643       1.5790148
       5250.7814       1.6690901
       5251.4985       1.6915752
       5252.2156       1.8144615
       5252.9326       1.6610174
       5253.6497       1.5108335
       5254.3668       1.5384949
       5255.0838       1.5773756
       5255.8009       1.6888700
       5256.5180       1.7281394
       5257.2351       1.6451611
       5257.9521       1.7649175
       5258.6692       1.5704269
       5259.3863       1.6682713
       5260.1033       1.7870629
       5260.8204       1.7988826
       5261.5375       1.8648220
       5262.2545       1.6084016
       5262.9716       1.6947311
       5263.6887       1.7454924
       5264.4058       1.6397418
       5265.1228       1.5117482
       5265.8399       1.7313477
       5266.5570       1.7581448
       5267.2740       1.7592522
       5267.9911       1.7714681
       5268.7082       1.7493734
       5269.4253       1.8280286
       5270.1423       1.7382111
       5270.8594       1.8911275
       5271.5765       1.6911836
       5272.2935       1.8492417
       5273.0106       1.7995503
       5273.7277       1.7265321
       5274.4447       1.8222016
       5275.1618       1.6970433
       5275.8789       1.7066773
       5276.5960       1.6972869
       5277.3130       1.9785851
       5278.0301       1.9552203
       5278.7472       2.1032013
       5279.4642       1.9848117
       5280.1813       1.7440357
       5280.8984       2.1601038
       5281.6155       1.8441683
       5282.3325       1.7909192
       5283.0496       2.0262964
       5283.7667       2.2659484
       5284.4837       2.2907091
       5285.2008       1.8585043
       5285.9179       1.4552788
       5286.6349       1.5291756
       5287.3520       1.7216250
       5288.0691       2.3617929
       5288.7862       2.2554720
       5289.5032       2.1490848
       5290.2203       2.0120299
       5290.9374       1.7206411
       5291.6544       1.3282290
       5292.3715       1.2836935
       5293.0886       1.3737998
       5293.8057       1.4743379
       5294.5227       1.6896819
       5295.2398       1.7332333
       5295.9569       1.9136311
       5296.6739       1.8398815
       5297.3910       1.8138649
       5298.1081       1.7969240
       5298.8251       1.7603548
       5299.5422       1.6461627
       5300.2593       1.4706970
       5300.9764       1.5611757
       5301.6934       1.6901737
       5302.4105       1.7131213
       5303.1276       1.7190655
       5303.8446       1.7015845
       5304.5617       1.7767989
       5305.2788       1.6569986
       5305.9959       1.6519880
       5306.7129       1.8071366
       5307.4300       1.8720818
       5308.1471       1.8416103
       5308.8641       1.8247250
       5309.5812       1.7996183
       5310.2983       1.7300777
       5311.0153       1.8620273
       5311.7324       1.6570053
       5312.4495       1.7464226
       5313.1666       1.8867189
       5313.8836       1.8433058
       5314.6007       1.8763398
       5315.3178       1.9450573
       5316.0348       2.0063260
       5316.7519       2.1661918
       5317.4690       3.1693800
       5318.1861       2.3134088
       5318.9031       2.6033659
       5319.6202       2.6319670
       5320.3373       2.3827697
       5321.0543       1.2267620
       5321.7714      0.68472523
       5322.4885       1.5471016
       5323.2055       2.0751779
       5323.9226       2.1671362
       5324.6397       2.0350249
       5325.3568       1.9995562
       5326.0738       1.8120099
       5326.7909       1.4744402
       5327.5080       1.5325629
       5328.2250       1.5713458
       5328.9421       1.8026719
       5329.6592       1.8458958
       5330.3763       2.0398542
       5331.0933       2.0257797
       5331.8104       2.0692843
       5332.5275       2.0560696
       5333.2445       2.0279114
       5333.9616       1.9573866
       5334.6787       1.8945617
       5335.3957       1.8277195
       5336.1128       1.7597211
       5336.8299       1.8199261
       5337.5470       1.9638559
       5338.2640       1.8808365
       5338.9811       1.9720281
       5339.6982       2.0843801
       5340.4152       1.9982803
       5341.1323       2.0858004
       5341.8494       2.1657695
       5342.5665       2.3642028
       5343.2835       2.0818758
       5344.0006       1.9394258
       5344.7177       1.9394060
       5345.4347       1.5841415
       5346.1518       1.7311884
       5346.8689       1.8991497
       5347.5859       1.9401136
       5348.3030       1.9611126
       5349.0201       2.0463762
       5349.7372       1.9678983
       5350.4542       1.8221023
       5351.1713       1.9371096
       5351.8884       1.9964290
       5352.6054       2.1463703
       5353.3225       2.5208676
       5354.0396       2.5940083
       5354.7567       2.0589335
       5355.4737       2.1246208
       5356.1908       1.0129024
       5356.9079       1.2484293
       5357.6249       1.2752017
       5358.3420       1.6200064
       5359.0591       1.7497461
       5359.7761       1.8918171
       5360.4932       1.9556511
       5361.2103       1.9024639
       5361.9274       1.9555797
       5362.6444       1.9256996
       5363.3615       2.0096852
       5364.0786       2.1303032
       5364.7956       2.2596471
       5365.5127       2.0214661
       5366.2298       1.8864906
       5366.9469       1.6607103
       5367.6639       1.7985409
       5368.3810       1.7888108
       5369.0981       1.9785349
       5369.8151       1.8238561
       5370.5322       1.8980344
       5371.2493       2.0434848
       5371.9663       2.4040681
       5372.6834       3.2786631
       5373.4005       3.2558338
       5374.1176       2.0833229
       5374.8346       2.5838717
       5375.5517       2.3380685
       5376.2688       1.5009489
       5376.9858       1.1053331
       5377.7029       1.5268028
       5378.4200       1.7662038
       5379.1371       1.8560386
       5379.8541       2.0846292
       5380.5712       1.8997262
       5381.2883       2.1205053
       5382.0053       1.9631739
       5382.7224       1.9787347
       5383.4395       1.9269928
       5384.1565       2.1048035
       5384.8736       2.1105050
       5385.5907       2.0351165
       5386.3078       1.9735330
       5387.0248       2.4452797
       5387.7419       2.3145401
       5388.4590       2.2384227
       5389.1760       2.0394329
       5389.8931       1.7374982
       5390.6102       2.1078594
       5391.3273       1.7376165
       5392.0443       1.9310488
       5392.7614       1.9587694
       5393.4785       1.9768503
       5394.1955       1.8739773
       5394.9126       1.9280207
       5395.6297       2.2367006
       5396.3467       2.4149163
       5397.0638       2.4957900
       5397.7809       2.0966244
       5398.4980       2.3594902
       5399.2150       1.7514298
       5399.9321      0.87520341
       5400.6492       1.3536402
       5401.3662       1.6829545
       5402.0833       1.7548800
       5402.8004       1.8343128
       5403.5175       1.9104856
       5404.2345       1.9013251
       5404.9516       1.9512012
       5405.6687       1.8961791
       5406.3857       1.8970134
       5407.1028       1.9473826
       5407.8199       1.8327455
       5408.5369       1.8308483
       5409.2540       1.9219167
       5409.9711       1.8855726
       5410.6882       1.8996162
       5411.4052       1.7744135
       5412.1223       2.0917252
       5412.8394       1.9625572
       5413.5564       2.0132968
       5414.2735       1.7815837
       5414.9906       1.7983334
       5415.7077       1.8377647
       5416.4247       1.8610331
       5417.1418       1.5234612
       5417.8589       1.5767717
       5418.5759       1.4269754
       5419.2930       1.8271371
       5420.0101       2.0569483
       5420.7271       1.8229853
       5421.4442       2.1904703
       5422.1613       2.0872815
       5422.8784       2.2557019
       5423.5954       1.7857775
       5424.3125       2.2309661
       5425.0296       2.0455306
       5425.7466       1.4425780
       5426.4637       1.7253806
       5427.1808       1.6638729
       5427.8979       1.7666702
       5428.6149       1.8389636
       5429.3320       1.9644707
       5430.0491       1.9239133
       5430.7661       1.8886828
       5431.4832       1.7053328
       5432.2003       1.7510735
       5432.9173       1.8773693
       5433.6344       1.8525957
       5434.3515       2.0249961
       5435.0686       1.8711325
       5435.7856       1.8558473
       5436.5027       1.7487894
       5437.2198       1.8182130
       5437.9368       1.7992441
       5438.6539       1.8212651
       5439.3710       1.8873107
       5440.0881       1.8821647
       5440.8051       1.7445621
       5441.5222       1.8094307
       5442.2393       1.9221154
       5442.9563       1.8843852
       5443.6734       1.9275387
       5444.3905       1.8501163
       5445.1075       1.9698007
       5445.8246       2.0941770
       5446.5417       2.0383031
       5447.2588       2.2385071
       5447.9758       1.8175009
       5448.6929       1.9580209
       5449.4100       2.0953612
       5450.1270       1.9063494
       5450.8441       2.1894906
       5451.5612       2.3388871
       5452.2783       2.3090007
       5452.9953       2.0970372
       5453.7124       1.8874399
       5454.4295       1.9825693
       5455.1465       1.8300923
       5455.8636       1.8899422
       5456.5807       1.7783618
       5457.2977       1.9433118
       5458.0148       1.9678035
       5458.7319       1.9158542
       5459.4490       1.9599366
       5460.1660       1.8461408
       5460.8831       1.8841609
       5461.6002       2.0403204
       5462.3172       1.9458935
       5463.0343       1.7984701
       5463.7514       1.8309979
       5464.4685       1.9248342
       5465.1855       1.9173325
       5465.9026       1.9562287
       5466.6197       1.8063977
       5467.3367       1.8953488
       5468.0538       1.8902375
       5468.7709       1.9744063
       5469.4879       1.9336337
       5470.2050       1.9187335
       5470.9221       1.7767562
       5471.6392       1.8597804
       5472.3562       1.9208903
       5473.0733       1.8865169
       5473.7904       1.8669095
       5474.5074       1.9681584
       5475.2245       1.8434184
       5475.9416       2.0466806
       5476.6587       1.9230833
       5477.3757       2.1026664
       5478.0928       2.1857723
       5478.8099       2.0291410
       5479.5269       1.9085280
       5480.2440       1.8800720
       5480.9611       1.9935691
       5481.6781       1.8638502
       5482.3952       2.1298086
       5483.1123       2.2177008
       5483.8294       1.9413874
       5484.5464       2.0036237
       5485.2635       2.0827624
       5485.9806       1.9291930
       5486.6976       1.7246630
       5487.4147       1.9393531
       5488.1318       1.8126472
       5488.8489       1.9487746
       5489.5659       2.0062091
       5490.2830       1.9461963
       5491.0001       2.1006464
       5491.7171       2.0010724
       5492.4342       1.9954143
       5493.1513       1.9243659
       5493.8683       1.9699310
       5494.5854       1.9819072
       5495.3025       1.9515566
       5496.0196       2.1658504
       5496.7366       2.0481499
       5497.4537       1.9361102
       5498.1708       1.9623367
       5498.8878       1.9452582
       5499.6049       1.9310748
       5500.3220       1.9828322
       5501.0391       1.9929742
       5501.7561       1.7745841
       5502.4732       1.8260531
       5503.1903       1.8555760
       5503.9073       1.8338010
       5504.6244       1.9332613
       5505.3415       1.8468372
       5506.0585       1.9873849
       5506.7756       2.0807512
       5507.4927       2.1455763
       5508.2098       1.9838509
       5508.9268       2.1070719
       5509.6439       2.0294316
       5510.3610       2.0058016
       5511.0780       2.0977070
       5511.7951       1.9680436
       5512.5122       2.2282033
       5513.2293       1.9051477
       5513.9463       2.0523824
       5514.6634       1.8779471
       5515.3805       2.0294789
       5516.0975       2.1340743
       5516.8146       1.8733256
       5517.5317       1.9120204
       5518.2487       2.2661567
       5518.9658       2.0912862
       5519.6829       2.0530531
       5520.4000       1.9987595
       5521.1170       2.0571448
       5521.8341       1.9935662
       5522.5512       1.9476829
       5523.2682       2.1260072
       5523.9853       1.9751155
       5524.7024       2.1331267
       5525.4195       2.0194472
       5526.1365       2.0186752
       5526.8536       2.0070749
       5527.5707       1.8821779
       5528.2877       1.9470291
       5529.0048       1.8600094
       5529.7219       2.0234443
       5530.4389       2.0619685
       5531.1560       2.0301718
       5531.8731       2.1034996
       5532.5902       2.0727682
       5533.3072       2.0648540
       5534.0243       2.2108172
       5534.7414       2.2016303
       5535.4584       2.1668126
       5536.1755       2.1811375
       5536.8926       2.2308161
       5537.6097       2.0796383
       5538.3267       2.0134462
       5539.0438       2.0801854
       5539.7609       1.9337679
       5540.4779       2.1060981
       5541.1950       2.0195792
       5541.9121       2.2497268
       5542.6291       2.1630676
       5543.3462       2.0864630
       5544.0633       2.2493497
       5544.7804       2.1015385
       5545.4974       2.2682888
       5546.2145       2.0371350
       5546.9316       2.0265411
       5547.6486       2.1734148
       5548.3657       2.2066095
       5549.0828       2.2926151
       5549.7999       2.1325175
       5550.5169       2.2327459
       5551.2340       2.0703878
       5551.9511       2.1244130
       5552.6681       2.2261540
       5553.3852       2.0890376
       5554.1023       2.0822172
       5554.8193       2.2236285
       5555.5364       2.1557958
       5556.2535       2.1433926
       5556.9706       2.0933548
       5557.6876       2.1592507
       5558.4047       2.1288365
       5559.1218       2.0470375
       5559.8388       2.0936124
       5560.5559       2.2146747
       5561.2730       2.1959584
       5561.9901       2.1700005
       5562.7071       2.1327085
       5563.4242       2.2225879
       5564.1413       2.1254648
       5564.8583       2.1654903
       5565.5754       2.1111330
       5566.2925       2.2474746
       5567.0095       2.1961528
       5567.7266       2.1603655
       5568.4437       2.1150981
       5569.1608       2.1586736
       5569.8778       2.1534973
       5570.5949       2.1456960
       5571.3120       2.2070221
       5572.0290       2.1821462
       5572.7461       2.0897457
       5573.4632       2.0275555
       5574.1803       2.0995933
       5574.8973       2.1855802
       5575.6144       2.1510431
       5576.3315       2.2161404
       5577.0485       2.1172981
       5577.7656       2.1609655
       5578.4827       2.2511175
       5579.1997       2.2276032
       5579.9168       2.3653034
       5580.6339       2.3216206
       5581.3510       2.1029894
       5582.0680       2.1499442
       5582.7851       2.3023995
       5583.5022       2.2193569
       5584.2192       2.1280686
       5584.9363       2.2091210
       5585.6534       2.0918841
       5586.3705       2.1107313
       5587.0875       2.2195572
       5587.8046       2.1716835
       5588.5217       2.0702595
       5589.2387       2.0428517
       5589.9558       2.1647711
       5590.6729       1.9218580
       5591.3899       2.2241135
       5592.1070       2.0929931
       5592.8241       2.0861562
       5593.5412       2.1090366
       5594.2582       2.3365527
       5594.9753       2.0240429
       5595.6924       2.1193446
       5596.4094       2.0593993
       5597.1265       2.0994757
       5597.8436       2.1837171
       5598.5607       2.0641544
       5599.2777       2.0085594
       5599.9948       1.8733641
       5600.7119       2.1029562
       5601.4289       1.9177767
       5602.1460       1.9041776
       5602.8631       1.7261492
       5603.5802       2.4025484
       5604.2972       2.6163164
       5605.0143       2.9306929
       5605.7314       2.3035696
       5606.4484       2.0264001
       5607.1655       2.5176924
       5607.8826       1.6970504
       5608.5996       2.0784670
       5609.3167       2.3584961
       5610.0338       2.4170195
       5610.7509       2.1469518
       5611.4679       1.4927231
       5612.1850      0.65255345
       5612.9021      0.92760550
       5613.6191       1.9656503
       5614.3362       2.2799575
       5615.0533       1.9063984
       5615.7704       2.1461649
       5616.4874       1.9062938
       5617.2045       1.5145599
       5617.9216      0.82794995
       5618.6386      0.63097875
       5619.3557       1.5817229
       5620.0728       1.7896304
       5620.7898       1.8702222
       5621.5069       1.6830996
       5622.2240       1.5247412
       5622.9411       1.5643276
       5623.6581       1.7795725
       5624.3752       1.4670124
       5625.0923       1.5813461
       5625.8093       1.7998570
       5626.5264      0.82614426
       5627.2435      0.95928186
       5627.9606       1.0283922
       5628.6776       1.1699419
       5629.3947       1.5070388
       5630.1118       1.6378426
       5630.8288       1.9944730
       5631.5459       1.9349960
       5632.2630       2.0354836
       5632.9800       1.7301061
       5633.6971       1.6195826
       5634.4142       1.4981947
       5635.1313       1.3243520
       5635.8483       1.3544786
       5636.5654       1.5425972
       5637.2825       1.6053112
       5637.9995       1.6817104
       5638.7166       1.9466242
       5639.4337       1.7430063
       5640.1508       1.7612783
       5640.8678       1.4860773
       5641.5849       1.6420210
       5642.3020       1.4931775
       5643.0190       1.4260254
       5643.7361       1.4041286
       5644.4532       1.5933849
       5645.1702       2.3224596
       5645.8873       4.0356664
       5646.6044       1.7314566
       5647.3215       1.6577731
       5648.0385       1.3515322
       5648.7556      0.19464260
       5649.4727      -2.0661706
       5650.1897     -0.46990564
       5650.9068      0.94138100
       5651.6239       1.5785924
       5652.3410       1.7260726
       5653.0580       1.7593879
       5653.7751       1.7499816
       5654.4922       1.7765584
       5655.2092       1.6433262
       5655.9263       1.9423085
       5656.6434       1.9880755
       5657.3604       2.0674056
       5658.0775       2.2054169
       5658.7946       2.2272601
       5659.5117       2.0750780
       5660.2287       1.9890852
       5660.9458       2.2669457
       5661.6629       2.3687709
       5662.3799       2.0110464
       5663.0970       1.9088978
       5663.8141       2.4873160
       5664.5312       1.8941652
       5665.2482       1.6827490
       5665.9653       1.6601002
       5666.6824       1.8119252
       5667.3994       1.7678093
       5668.1165       1.7293021
       5668.8336       1.9063336
       5669.5506       1.9554925
       5670.2677       2.0920807
       5670.9848       1.9745759
       5671.7019       2.3391475
       5672.4189       2.2845523
       5673.1360       2.1476032
       5673.8531       2.3101358
       5674.5701       2.7273332
       5675.2872       1.8268608
       5676.0043       1.4312373
       5676.7214       1.6088354
       5677.4384       1.5255270
       5678.1555       1.2923708
       5678.8726       1.3867393
       5679.5896       1.4697914
       5680.3067       1.8513728
       5681.0238       1.9254501
       5681.7408       2.0903134
       5682.4579       1.9857716
       5683.1750       2.5048122
       5683.8921       3.4353938
       5684.6091       2.5378292
       5685.3262       2.0118448
       5686.0433       2.4810120
       5686.7603       1.7574869
       5687.4774     -0.45982006
       5688.1945      0.26689424
       5688.9116       1.7127779
       5689.6286       1.7445001
       5690.3457       1.8927770
       5691.0628       1.9116087
       5691.7798       1.9583011
       5692.4969       1.8320887
       5693.2140       1.8856479
       5693.9310       1.8027289
       5694.6481       2.1419287
       5695.3652       2.0855927
       5696.0823       2.1867344
       5696.7993       2.0947809
       5697.5164       1.8787896
       5698.2335       1.7196475
       5698.9505      0.46896283
       5699.6676       1.4788762
       5700.3847       1.8027215
       5701.1018       2.1739514
       5701.8188       1.9249625
       5702.5359       2.0543514
       5703.2530       2.0051576
       5703.9700       1.9862336
       5704.6871       1.7628973
       5705.4042       2.7417650
       5706.1212       3.5390209
       5706.8383       3.3644505
       5707.5554       3.4172608
       5708.2725       2.1218679
       5708.9895       1.9714989
       5709.7066     -0.57219038
       5710.4237     -0.46635809
       5711.1407       1.1605423
       5711.8578       1.4480188
       5712.5749       2.0346670
       5713.2920       2.0908518
       5714.0090       2.0683381
       5714.7261       2.1084610
       5715.4432       2.0777943
       5716.1602       2.2613440
       5716.8773       1.9874889
       5717.5944       1.5491799
       5718.3114       1.4133169
       5719.0285       1.4996061
       5719.7456       1.6901133
       5720.4627       1.6732677
       5721.1797       2.2788012
       5721.8968       2.2104595
       5722.6139       2.2433802
       5723.3309       2.3634457
       5724.0480       2.1982578
       5724.7651       2.0675479
       5725.4822       1.8645639
       5726.1992       2.2018377
       5726.9163       2.0042694
       5727.6334       2.3414656
       5728.3504       2.1466093
       5729.0675       2.3161425
       5729.7846       2.0621196
       5730.5016       2.1113666
       5731.2187       2.2110202
       5731.9358       2.7443244
       5732.6529       2.0831662
       5733.3699       2.1322577
       5734.0870       1.7395279
       5734.8041       1.5592024
       5735.5211      0.18661034
       5736.2382       1.3847109
       5736.9553       1.8779478
       5737.6724       1.9740571
       5738.3894       1.8630120
       5739.1065       2.1297140
       5739.8236       1.8217388
       5740.5406       2.2968948
       5741.2577       2.0653277
       5741.9748       2.0841193
       5742.6918       2.0215635
       5743.4089       1.9204330
       5744.1260       2.1015884
       5744.8431       1.9162709
       5745.5601       1.9454253
       5746.2772       1.9844020
       5746.9943       1.9714193
       5747.7113       1.7797247
       5748.4284       1.9901170
       5749.1455       1.8925024
       5749.8626       2.0248496
       5750.5796       2.3017463
       5751.2967       2.6880340
       5752.0138       2.2120147
       5752.7308       2.6280755
       5753.4479       1.9038641
       5754.1650       2.3173397
       5754.8820       1.5211265
       5755.5991       1.5255538
       5756.3162       1.9132859
       5757.0333       2.1874569
       5757.7503       2.1956349
       5758.4674       2.1786512
       5759.1845       2.1937494
       5759.9015       2.0009782
       5760.6186       2.2081911
       5761.3357       2.2574081
       5762.0528       2.3095276
       5762.7698       2.0585783
       5763.4869       1.2194503
       5764.2040       1.5739333
       5764.9210       2.3993457
       5765.6381       2.1320063
       5766.3552       2.2684404
       5767.0722       2.4198181
       5767.7893       2.2828698
       5768.5064       2.1367494
       5769.2235       2.0414502
       5769.9405       2.1336640
       5770.6576       1.9152638
       5771.3747       2.2342718
       5772.0917       2.3076703
       5772.8088       2.0864939
       5773.5259       2.2389688
       5774.2430       1.8304704
       5774.9600       1.8473896
       5775.6771       1.9115991
       5776.3942       1.8921307
       5777.1112       2.0522043
       5777.8283       2.1134774
       5778.5454       1.9244179
       5779.2624       2.2100467
       5779.9795       1.9838393
       5780.6966       2.1113090
       5781.4137       2.2344795
       5782.1307       2.2275112
       5782.8478       2.4614973
       5783.5649       2.2423832
       5784.2819       2.1322900
       5784.9990       2.3856118
       5785.7161       2.3105084
       5786.4332       2.3335556
       5787.1502       2.4955225
       5787.8673       2.4651588
       5788.5844       2.3181164
       5789.3014       2.3699147
       5790.0185       2.3217571
       5790.7356       2.2810307
       5791.4526       2.4677484
       5792.1697       2.4509344
       5792.8868       2.2169439
       5793.6039       2.1576201
       5794.3209       2.3985232
       5795.0380       2.2516251
       5795.7551       1.9525189
       5796.4721       1.7427708
       5797.1892       2.0274512
       5797.9063       2.0838957
       5798.6234       2.2203199
       5799.3404       2.2690143
       5800.0575       2.4888447
       5800.7746       2.2829176
       5801.4916       2.2108802
       5802.2087       2.2809751
       5802.9258       2.0708171
       5803.6428       2.0291809
       5804.3599       2.0775399
       5805.0770       2.2074002
       5805.7941       2.1170476
       5806.5111       2.1263829
       5807.2282       2.0929757
       5807.9453       2.1628625
       5808.6623       1.8740885
       5809.3794       2.1601197
       5810.0965       2.0792116
       5810.8136       2.1658818
       5811.5306       2.1927155
       5812.2477       2.1298048
       5812.9648       2.4125548
       5813.6818       2.2172379
       5814.3989       2.0861944
       5815.1160       2.3722405
       5815.8330       2.2216109
       5816.5501       2.0980749
       5817.2672       2.0655943
       5817.9843       2.2137627
       5818.7013       2.0550998
       5819.4184       2.0793130
       5820.1355       2.1220367
       5820.8525       2.4534149
       5821.5696       2.2232194
       5822.2867       2.4520791
       5823.0038       2.1913093
       5823.7208       2.4669006
       5824.4379       2.0164282
       5825.1550       1.9413207
       5825.8720       2.5650263
       5826.5891       2.4833160
       5827.3062       2.5424084
       5828.0232       2.5439719
       5828.7403       2.5455090
       5829.4574       2.5724607
       5830.1745       2.7981457
       5830.8915       2.9310258
       5831.6086       2.2118605
       5832.3257       1.6186123
       5833.0427       2.1737213
       5833.7598       2.4229409
       5834.4769       2.4704230
       5835.1940       2.5025123
       5835.9110       2.5362207
       5836.6281       2.3787313
       5837.3452       2.4120212
       5838.0622       2.2871310
       5838.7793       2.7624651
       5839.4964       2.9501337
       5840.2134       2.8671961
       5840.9305       2.6327496
       5841.6476       2.4067755
       5842.3647       2.1184167
       5843.0817       1.7786024
       5843.7988       2.5021045
       5844.5159       2.4073157
       5845.2329       2.4437910
       5845.9500       2.5961323
       5846.6671       2.9276446
       5847.3842       2.2149271
       5848.1012       2.4631744
       5848.8183       2.5916283
       5849.5354       2.2637229
       5850.2524       1.8292679
       5850.9695       2.7120215
       5851.6866       2.8556461
       5852.4036       2.5986537
       5853.1207       3.0297917
       5853.8378       3.0100076
       5854.5549       2.4805929
       5855.2719       1.5022933
       5855.9890       2.0596151
       5856.7061       2.0762549
       5857.4231       2.3251592
       5858.1402       2.3502843
       5858.8573       2.4826156
       5859.5744       2.3898107
       5860.2914       2.4440751
       5861.0085       2.4349416
       5861.7256       2.3696755
       5862.4426       2.6097184
       5863.1597       2.6586944
       5863.8768       2.3659688
       5864.5938       2.2478183
       5865.3109       2.3721864
       5866.0280       2.0512666
       5866.7451       2.1881884
       5867.4621       2.2287373
       5868.1792       2.5565233
       5868.8963       2.4106316
       5869.6133       2.3450993
       5870.3304       1.7779846
       5871.0475       1.9167670
       5871.7646       2.0264552
       5872.4816       2.1976581
       5873.1987       2.3957908
       5873.9158       2.2332229
       5874.6328       2.2945633
       5875.3499       2.4661219
       5876.0670       2.4067786
       5876.7840       2.4295412
       5877.5011       2.3284035
       5878.2182       2.3293059
       5878.9353       2.2469937
       5879.6523       2.3605387
       5880.3694       2.4054440
       5881.0865       2.4499891
       5881.8035       2.5951074
       5882.5206       2.6537578
       5883.2377       2.6626854
       5883.9548       2.3378755
       5884.6718       2.2120420
       5885.3889       2.2962168
       5886.1060       2.2105250
       5886.8230       2.0950937
       5887.5401       2.2890223
       5888.2572       2.1656496
       5888.9742       2.3063480
       5889.6913       2.3551841
       5890.4084       2.4047482
       5891.1255       2.3043726
       5891.8425       2.3584931
       5892.5596       2.2917050
       5893.2767       3.0894427
       5893.9937       3.4008883
       5894.7108       3.1102183
       5895.4279       3.1000011
       5896.1450       3.5405657
       5896.8620       2.4745103
       5897.5791       1.0085835
       5898.2962       1.3036838
       5899.0132       2.4233257
       5899.7303       2.5154792
       5900.4474       2.9094896
       5901.1644       2.3680786
       5901.8815       2.6322276
       5902.5986       2.4974065
       5903.3157       2.1782208
       5904.0327       2.5362967
       5904.7498       2.4874018
       5905.4669       2.4047538
       5906.1839       2.4065377
       5906.9010       2.3068259
       5907.6181       2.5764416
       5908.3352       2.6005152
       5909.0522       2.0253883
       5909.7693       2.3359407
       5910.4864       2.1212942
       5911.2034       2.2005645
       5911.9205       2.2081516
       5912.6376       2.0082345
       5913.3546       1.9839594
       5914.0717       1.8983387
       5914.7888       1.7342781
       5915.5059       1.9595251
       5916.2229       1.7554298
       5916.9400       1.8479138
       5917.6571       1.9014779
       5918.3741       1.8306698
       5919.0912       2.0418759
       5919.8083       1.7950638
       5920.5254       1.5589426
       5921.2424       1.5668675
       5921.9595       1.6970746
       5922.6766       1.8582602
       5923.3936       1.8482051
       5924.1107       1.7565387
       5924.8278       1.8989435
       5925.5448       1.6659333
       5926.2619       1.9628901
       5926.9790       2.0728443
       5927.6961       2.3030508
       5928.4131       2.5406566
       5929.1302       2.3694017
       5929.8473       2.5074808
       5930.5643       2.3781105
       5931.2814       2.4314719
       5931.9985       2.2352697
       5932.7156       1.7476578
       5933.4326       2.2549662
       5934.1497       2.3105817
       5934.8668       2.2758686
       5935.5838       2.3791788
       5936.3009       2.2673426
       5937.0180       2.3438305
       5937.7350       2.4458690
       5938.4521       2.2055719
       5939.1692       2.1079039
       5939.8863       2.2824762
       5940.6033       2.2535923
       5941.3204       2.4109056
       5942.0375       2.9064728
       5942.7545       3.0706755
       5943.4716       3.1608394
       5944.1887       3.1702184
       5944.9058       2.8304255
       5945.6228       1.6293976
       5946.3399      0.40526855
       5947.0570      0.55798605
       5947.7740       2.3343296
       5948.4911       2.1674729
       5949.2082       2.1985307
       5949.9252       2.2653352
       5950.6423       2.3346448
       5951.3594       2.5052092
       5952.0765       2.3723280
       5952.7935       2.4776826
       5953.5106       2.0212305
       5954.2277       1.9302362
       5954.9447       2.2431855
       5955.6618       2.9715404
       5956.3789       2.4695984
       5957.0960       2.3866751
       5957.8130       2.4649782
       5958.5301       2.1671115
       5959.2472       2.1904954
       5959.9642       1.8440486
       5960.6813       1.6941917
       5961.3984       2.2189209
       5962.1154       2.3306319
       5962.8325       2.2270835
       5963.5496       2.0883333
       5964.2667       2.3805649
       5964.9837       2.3205334
       5965.7008       2.5091639
       5966.4179       2.4275086
       5967.1349       2.2699524
       5967.8520       2.6802016
       5968.5691       3.5751303
       5969.2862       4.1094407
       5970.0032       3.5761239
       5970.7203       2.2933316
       5971.4374       1.1362340
       5972.1544      0.26976590
       5972.8715       1.7232764
       5973.5886       2.2653120
       5974.3056       2.2057627
       5975.0227       2.2244342
       5975.7398       2.3553010
       5976.4569       2.2000624
       5977.1739       2.1743227
       5977.8910       2.1822788
       5978.6081       2.2533563
       5979.3251       2.3438223
       5980.0422       2.2876783
       5980.7593       2.4864257
       5981.4764       2.2392421
       5982.1934       2.2015956
       5982.9105       2.0439131
       5983.6276       2.3814815
       5984.3446       2.8140137
       5985.0617       3.4915514
       5985.7788       2.3773377
       5986.4959       1.7992806
       5987.2129       2.7294783
       5987.9300       2.8597010
       5988.6471       1.6431858
       5989.3641       2.8883648
       5990.0812       1.8045503
       5990.7983       1.1487070
       5991.5153       1.1166484
       5992.2324       1.6430034
       5992.9495       2.3253112
       5993.6666       2.9985967
       5994.3836       2.6372118
       5995.1007       2.7723517
       5995.8178       1.8848030
       5996.5348       3.2848970
       5997.2519       1.9480387
       5997.9690       2.1059617
       5998.6861       2.4945420
       5999.4031       1.4031021
       6000.1202       1.4908458
       6000.8373       1.5101560
       6001.5543       2.1015973
       6002.2714       2.4012511
       6002.9885       2.1444135
       6003.7055       2.4227277
       6004.4226       2.2029143
       6005.1397       2.3507544
       6005.8568       2.0655932
       6006.5738       1.9216670
       6007.2909       1.9433660
       6008.0080       2.2601693
       6008.7250       1.9887041
       6009.4421       1.9192942
       6010.1592       2.1533120
       6010.8763       1.9372775
       6011.5933       1.9282225
       6012.3104       2.2101484
       6013.0275       1.8824913
       6013.7445       1.9197979
       6014.4616       2.1870305
       6015.1787       2.1154956
       6015.8957       2.0388014
       6016.6128       2.0106219
       6017.3299       1.9286418
       6018.0470       2.1150814
       6018.7640       2.2285854
       6019.4811       2.4148742
       6020.1982       2.2770025
       6020.9152       1.8663840
       6021.6323       2.1117886
       6022.3494       1.7416651
       6023.0665       1.9515822
       6023.7835       2.0476301
       6024.5006       1.9359042
       6025.2177       2.1610980
       6025.9347       2.3382083
