# wavelength flux
       2444.1322     0.042191473
       2444.9724    -0.014921034
       2445.8125     0.021271828
       2446.6527     0.032718306
       2447.4928     0.021203984
       2448.3330     0.046831174
       2449.1731    0.0024031698
       2450.0133     0.045578562
       2450.8534     0.035304553
       2451.6936     0.043645680
       2452.5337     0.022768611
       2453.3738    0.0059848630
       2454.2140     0.029642625
       2455.0541     0.038521392
       2455.8943    -0.019909471
       2456.7344     0.030539248
       2457.5746     0.032631098
       2458.4147     0.021636173
       2459.2549     0.031282903
       2460.0950     0.021703351
       2460.9352     0.047661744
       2461.7753     0.048191981
       2462.6155     0.054981522
       2463.4556     0.032079239
       2464.2958     0.041412925
       2465.1359    0.0074281168
       2465.9761   -0.0093175650
       2466.8162     0.013927444
       2467.6564     0.036449718
       2468.4965     0.026445407
       2469.3367     0.014087366
       2470.1768     0.051749393
       2471.0170    0.0054216600
       2471.8571     0.035115321
       2472.6973     0.042196733
       2473.5374     0.023721422
       2474.3776     0.016898875
       2475.2177     0.059534051
       2476.0579    -0.012578906
       2476.8980     0.026542543
       2477.7381     0.057519831
       2478.5783     0.052379793
       2479.4184     0.058405134
       2480.2586     0.046411848
       2481.0987     0.024150501
       2481.9389   0.00092260996
       2482.7790     0.023359811
       2483.6192     0.045816779
       2484.4593    0.0056695298
       2485.2995     0.019469903
       2486.1396     0.056954155
       2486.9798     0.032801932
       2487.8199     0.021879186
       2488.6601     0.036439496
       2489.5002     0.019444169
       2490.3404    0.0028583752
       2491.1805    -0.013639033
       2492.0207     0.047635482
       2492.8608     0.053224196
       2493.7010     0.054745347
       2494.5411     0.042731901
       2495.3813     0.041145781
       2496.2214     0.041137200
       2497.0616     0.042817217
       2497.9017     0.047411068
       2498.7419     0.051574241
       2499.5820   -0.0066014347
       2500.4222     0.020281078
       2501.2623     0.013079155
       2502.1024     0.028741695
       2502.9426     0.015792000
       2503.7827     0.046850809
       2504.6229     0.028644260
       2505.4630     0.025394598
       2506.3032     0.047930844
       2507.1433    0.0027681562
       2507.9835     0.024772894
       2508.8236    -0.016105002
       2509.6638     0.021375126
       2510.5039     0.027162078
       2511.3441    0.0092561781
       2512.1842     0.052094994
       2513.0244     0.045514749
       2513.8645     0.084917615
       2514.7047     0.022325434
       2515.5448     0.043119145
       2516.3850     0.047389792
       2517.2251     0.038840664
       2518.0653     0.043427117
       2518.9054     0.050581611
       2519.7456     0.022904616
       2520.5857     0.035394042
       2521.4259     0.051859541
       2522.2660     0.059978411
       2523.1062     0.026648647
       2523.9463     0.034072925
       2524.7865     0.071513217
       2525.6266     0.085866336
       2526.4668     0.040221575
       2527.3069     0.032260579
       2528.1470    -0.015522495
       2528.9872     0.025392466
       2529.8273     0.058526387
       2530.6675    0.0069244374
       2531.5076    0.0023571050
       2532.3478    0.0045858603
       2533.1879    -0.015217584
       2534.0281    0.0069925795
       2534.8682     0.050285835
       2535.7084     0.034302232
       2536.5485     0.018197324
       2537.3887     0.042945463
       2538.2288    0.0037391648
       2539.0690    0.0020506678
       2539.9091     0.074128764
       2540.7493     0.018044856
       2541.5894     0.056529065
       2542.4296     0.012602984
       2543.2697     0.042962299
       2544.1099     0.054542003
       2544.9500     0.056928572
       2545.7902   -0.0046998653
       2546.6303     0.031755289
       2547.4705     0.025059201
       2548.3106     0.034850027
       2549.1508     0.052511711
       2549.9909     0.037342987
       2550.8311     0.059812308
       2551.6712     0.033245500
       2552.5113     0.053393507
       2553.3515     0.081557940
       2554.1916     0.016234085
       2555.0318     0.084891392
       2555.8719     0.048239875
       2556.7121     0.018113985
       2557.5522     0.041326543
       2558.3924     0.032325224
       2559.2325     0.046962101
       2560.0727     0.037329114
       2560.9128     0.040314404
       2561.7530     0.040470690
       2562.5931     0.060228472
       2563.4333    0.0037294566
       2564.2734    0.0030432746
       2565.1136    0.0014507432
       2565.9537     0.052377284
       2566.7939    0.0097612929
       2567.6340     0.048514759
       2568.4742     0.035417947
       2569.3143     0.049044857
       2570.1545     0.040772748
       2570.9946     0.022437840
       2571.8348     0.050326551
       2572.6749     0.039933373
       2573.5151     0.035229934
       2574.3552     0.037331501
       2575.1954     0.017474753
       2576.0355     0.013098199
       2576.8756     0.058096225
       2577.7158     0.045076328
       2578.5559     0.055890664
       2579.3961     0.044986875
       2580.2362     0.036535863
       2581.0764     0.028441418
       2581.9165    -0.017880866
       2582.7567     0.039425321
       2583.5968     0.028151007
       2584.4370     0.051197407
       2585.2771     0.028646414
       2586.1173     0.015025464
       2586.9574     0.040244416
       2587.7976     0.045533033
       2588.6377     0.024326560
       2589.4779    0.0057279574
       2590.3180     0.017194477
       2591.1582     0.032036396
       2591.9983     0.057989054
       2592.8385     0.030383096
       2593.6786     0.047574333
       2594.5188     0.048759536
       2595.3589     0.067272158
       2596.1991     0.061149389
       2597.0392     0.042526253
       2597.8794     0.067750390
       2598.7195     0.054505350
       2599.5597     0.035590738
       2600.3998     0.026260481
       2601.2400     0.046589628
       2602.0801     0.027256927
       2602.9202     0.033296756
       2603.7604     0.041622463
       2604.6005    0.0031154936
       2605.4407     0.059502956
       2606.2808     0.023546304
       2607.1210     0.082932535
       2607.9611     0.036285148
       2608.8013     0.066771042
       2609.6414    0.0090763243
       2610.4816     0.046596946
       2611.3217     0.024194924
       2612.1619     0.044661515
       2613.0020     0.058052762
       2613.8422     0.077582279
       2614.6823    0.0096269164
       2615.5225     0.034394016
       2616.3626     0.057558880
       2617.2028     0.052678243
       2618.0429     0.058344935
       2618.8831     0.050776135
       2619.7232     0.045071258
       2620.5634     0.053607259
       2621.4035     0.025707812
       2622.2437     0.071004099
       2623.0838     0.043015987
       2623.9240     0.063008203
       2624.7641     0.040230905
       2625.6043     0.023697014
       2626.4444     0.015503220
       2627.2845     0.062512504
       2628.1247     0.037008133
       2628.9648     0.020919149
       2629.8050     0.058383976
       2630.6451     0.043308908
       2631.4853    0.0058689701
       2632.3254     0.038251752
       2633.1656     0.028854613
       2634.0057     0.024335695
       2634.8459     0.030021303
       2635.6860     0.035376473
       2636.5262     0.039053013
       2637.3663     0.018602787
       2638.2065     0.034535660
       2639.0466     0.033520364
       2639.8868     0.024830548
       2640.7269     0.045089845
       2641.5671     0.060026220
       2642.4072     0.050876730
       2643.2474     0.049830734
       2644.0875     0.052758866
       2644.9277     0.049452090
       2645.7678     0.043276303
       2646.6080     0.033593821
       2647.4481     0.055772649
       2648.2883     0.049136797
       2649.1284     0.065024869
       2649.9686     0.025647981
       2650.8087     0.043895037
       2651.6488     0.011018854
       2652.4890     0.025376759
       2653.3291     0.080626997
       2654.1693     0.048901980
       2655.0094     0.044440903
       2655.8496     0.053377266
       2656.6897     0.057080588
       2657.5299     0.033950945
       2658.3700     0.048991208
       2659.2102     0.067371195
       2660.0503     0.038494708
       2660.8905     0.052456696
       2661.7306     0.026382711
       2662.5708     0.027551047
       2663.4109     0.027151302
       2664.2511     0.051695517
       2665.0912     0.035593983
       2665.9314     0.068858876
       2666.7715     0.046999423
       2667.6117     0.029303718
       2668.4518     0.043762672
       2669.2920     0.036519076
       2670.1321     0.051770199
       2670.9723   0.00044769051
       2671.8124     0.028533673
       2672.6526     0.023795541
       2673.4927     0.021694404
       2674.3329     0.068333003
       2675.1730     0.037630854
       2676.0132     0.044906911
       2676.8533     0.055801987
       2677.6934     0.054835545
       2678.5336     0.019865974
       2679.3737     0.032884956
       2680.2139     0.026039927
       2681.0540     0.026373326
       2681.8942     0.026978283
       2682.7343     0.043829235
       2683.5745     0.055668408
       2684.4146     0.049948018
       2685.2548     0.061021844
       2686.0949     0.024767183
       2686.9351     0.019198572
       2687.7752     0.035244742
       2688.6154     0.066151834
       2689.4555     0.042664891
       2690.2957     0.031737284
       2691.1358     0.046266610
       2691.9760     0.024854233
       2692.8161     0.020981433
       2693.6563     0.032179249
       2694.4964     0.064726714
       2695.3366     0.032189801
       2696.1767     0.041227561
       2697.0169     0.022814185
       2697.8570     0.022865690
       2698.6972     0.041695961
       2699.5373     0.038138027
       2700.3775     0.080858614
       2701.2176     0.052615648
       2702.0577     0.051484531
       2702.8979     0.051973425
       2703.7380    0.0068667575
       2704.5782     0.036832496
       2705.4183     0.063476140
       2706.2585     0.044886793
       2707.0986     0.028750114
       2707.9388     0.019911718
       2708.7789     0.027339839
       2709.6191     0.076683712
       2710.4592     0.068393987
       2711.2994     0.077089549
       2712.1395     0.050880458
       2712.9797     0.042541553
       2713.8198     0.044777605
       2714.6600     0.067924323
       2715.5001     0.049201599
       2716.3403     0.035982310
       2717.1804     0.020116511
       2718.0206     0.042646316
       2718.8607     0.041180262
       2719.7009     0.043366822
       2720.5410     0.047672788
       2721.3812     0.038574242
       2722.2213     0.018613919
       2723.0615     0.029209938
       2723.9016     0.046563558
       2724.7418     0.061213239
       2725.5819     0.040346401
       2726.4221     0.040161811
       2727.2622     0.031070750
       2728.1023     0.042291132
       2728.9425     0.055299727
       2729.7826     0.028885412
       2730.6228     0.047794261
       2731.4629     0.063858530
       2732.3031     0.029393672
       2733.1432     0.051762562
       2733.9834     0.071158075
       2734.8235     0.038042006
       2735.6637     0.018502657
       2736.5038     0.023184696
       2737.3440     0.037701635
       2738.1841     0.056676080
       2739.0243     0.048807012
       2739.8644     0.050857572
       2740.7046     0.024078262
       2741.5447     0.038621100
       2742.3849    0.0099414456
       2743.2250     0.031704709
       2744.0652     0.065936243
       2744.9053     0.039412451
       2745.7455     0.029959377
       2746.5856     0.044601257
       2747.4258     0.036062091
       2748.2659     0.018169747
       2749.1061     0.046233279
       2749.9462     0.038461600
       2750.7864     0.021463167
       2751.6265     0.045425918
       2752.4666     0.062495536
       2753.3068    0.0035158113
       2754.1469     0.044732435
       2754.9871     0.018921176
       2755.8272     0.026676756
       2756.6674     0.021545160
       2757.5075     0.017971020
       2758.3477     0.066335828
       2759.1878     0.075766873
       2760.0280     0.061686402
       2760.8681     0.065999777
       2761.7083     0.029400787
       2762.5484     0.025497152
       2763.3886     0.053551105
       2764.2287     0.035725604
       2765.0689     0.038054090
       2765.9090     0.040359356
       2766.7492     0.062589201
       2767.5893     0.039942539
       2768.4295     0.056946307
       2769.2696     0.035915322
       2770.1098     0.060189939
       2770.9499     0.051195739
       2771.7901     0.049323157
       2772.6302     0.026747714
       2773.4704     0.057897793
       2774.3105     0.050004543
       2775.1507     0.037949772
       2775.9908     0.036548486
       2776.8309     0.035602080
       2777.6711     0.040924358
       2778.5112     0.044412116
       2779.3514     0.059095383
       2780.1915     0.046082054
       2781.0317     0.046490493
       2781.8718     0.048037083
       2782.7120     0.023260385
       2783.5521     0.039131489
       2784.3923     0.055969314
       2785.2324     0.067143565
       2786.0726     0.067424081
       2786.9127     0.062082915
       2787.7529     0.049870962
       2788.5930     0.054645780
       2789.4332     0.023975959
       2790.2733     0.024652379
       2791.1135     0.022254356
       2791.9536     0.045667465
       2792.7938     0.067047000
       2793.6339     0.053786367
       2794.4741     0.032974439
       2795.3142     0.030718278
       2796.1544     0.034578021
       2796.9945     0.061415312
       2797.8347     0.064222349
       2798.6748     0.080066911
       2799.5150     0.057939078
       2800.3551     0.038662347
       2801.1953     0.047451141
       2802.0354     0.021605005
       2802.8755     0.038374968
       2803.7157     0.037029425
       2804.5558     0.020997930
       2805.3960     0.029785821
       2806.2361     0.042580138
       2807.0763     0.038422049
       2807.9164     0.044856936
       2808.7566     0.041733828
       2809.5967     0.061418397
       2810.4369     0.024054751
       2811.2770     0.043798598
       2812.1172     0.075335608
       2812.9573     0.045146210
       2813.7975     0.051962872
       2814.6376     0.046299517
       2815.4778     0.073836430
       2816.3179     0.059969422
       2817.1581     0.037360801
       2817.9982     0.013358080
       2818.8384    -0.011757486
       2819.6785     0.057413747
       2820.5187     0.030777876
       2821.3588     0.048542651
       2822.1990     0.066420565
       2823.0391     0.059215390
       2823.8793     0.049586596
       2824.7194     0.043194579
       2825.5596     0.049110328
       2826.3997     0.031337077
       2827.2398     0.027487713
       2828.0800     0.048011714
       2828.9201     0.055020007
       2829.7603     0.030334870
       2830.6004     0.049242984
       2831.4406     0.041993161
       2832.2807     0.025508284
       2833.1209     0.072186095
       2833.9610     0.057565617
       2834.8012     0.046053612
       2835.6413     0.046587992
       2836.4815     0.072865568
       2837.3216     0.041667495
       2838.1618     0.039034450
       2839.0019     0.046203955
       2839.8421     0.067730593
       2840.6822     0.033802058
       2841.5224     0.045733809
       2842.3625     0.058547964
       2843.2027     0.036527395
       2844.0428     0.038594659
       2844.8830     0.047490311
       2845.7231     0.014101676
       2846.5633     0.037742662
       2847.4034     0.087637859
       2848.2436     0.018492960
       2849.0837     0.044933928
       2849.9239     0.017680334
       2850.7640     0.068486368
       2851.6041     0.037253125
       2852.4443     0.036730807
       2853.2844     0.034657225
       2854.1246     0.055342355
       2854.9647     0.044264018
       2855.8049     0.039786346
       2856.6450     0.049826837
       2857.4852     0.031822496
       2858.3253     0.033638848
       2859.1655     0.059687582
       2860.0056     0.042966215
       2860.8458     0.031641997
       2861.6859     0.068488428
       2862.5261     0.049534103
       2863.3662     0.023526488
       2864.2064     0.037917146
       2865.0465     0.039434129
       2865.8867     0.060109531
       2866.7268     0.066671548
       2867.5670     0.048662100
       2868.4071     0.049107128
       2869.2473     0.056255400
       2870.0874     0.049830466
       2870.9276     0.048669061
       2871.7677     0.038159421
       2872.6079     0.049709019
       2873.4480     0.048361637
       2874.2882     0.047256495
       2875.1283     0.042216469
       2875.9685     0.036993375
       2876.8086     0.052486015
       2877.6487     0.038448651
       2878.4889     0.027516869
       2879.3290     0.023407970
       2880.1692     0.021596756
       2881.0093     0.022010962
       2881.8495     0.059823595
       2882.6896     0.033170707
       2883.5298     0.038504874
       2884.3699     0.057039382
       2885.2101     0.072739833
       2886.0502     0.049234616
       2886.8904     0.035169301
       2887.7305     0.037980193
       2888.5707     0.046091776
       2889.4108     0.027686076
       2890.2510     0.047911812
       2891.0911     0.034016900
       2891.9313     0.040143197
       2892.7714     0.026746971
       2893.6116     0.025645698
       2894.4517     0.064555325
       2895.2919     0.064912118
       2896.1320     0.052652763
       2896.9722     0.068681424
       2897.8123     0.050311881
       2898.6525     0.041257410
       2899.4926     0.054315375
       2900.3328     0.031736258
       2901.1729     0.016159416
       2902.0130     0.062185283
       2902.8532     0.042020190
       2903.6933     0.071106726
       2904.5335     0.042629492
       2905.3736     0.040586406
       2906.2138     0.033079076
       2907.0539     0.018261689
       2907.8941    0.0087381313
       2908.7342     0.058718649
       2909.5744     0.047543118
       2910.4145     0.028053485
       2911.2547     0.038052042
       2912.0948     0.050063555
       2912.9350     0.065405844
       2913.7751     0.053747770
       2914.6153     0.033132947
       2915.4554     0.043497414
       2916.2956     0.043166277
       2917.1357     0.056119514
       2917.9759     0.052942332
       2918.8160     0.019193380
       2919.6562     0.025602950
       2920.4963     0.038657172
       2921.3365     0.062726001
       2922.1766     0.046135467
       2923.0168     0.056008017
       2923.8569     0.023496259
       2924.6971     0.054532688
       2925.5372     0.045731296
       2926.3773     0.034510463
       2927.2175     0.012992041
       2928.0576     0.057054187
       2928.8978     0.043610869
       2929.7379     0.029580132
       2930.5781     0.020781620
       2931.4182     0.041581693
       2932.2584     0.050044518
       2933.0985     0.033733614
       2933.9387     0.047297796
       2934.7788     0.044777862
       2935.6190     0.041397946
       2936.4591     0.036818818
       2937.2993     0.042603358
       2938.1394     0.050928379
       2938.9796     0.076797682
       2939.8197     0.062917904
       2940.6599     0.051261394
       2941.5000     0.063969903
       2942.3402     0.051572586
       2943.1803     0.032237026
       2944.0205     0.065845145
       2944.8606     0.072217239
       2945.7008     0.047051816
       2946.5409     0.018052537
       2947.3811     0.052832706
       2948.2212     0.061473032
       2949.0614     0.050404826
       2949.9015     0.067756907
       2950.7417     0.078773783
       2951.5818     0.045035722
       2952.4219     0.044259529
       2953.2621     0.025141166
       2954.1022     0.052679809
       2954.9424     0.044674449
       2955.7825     0.038257565
       2956.6227     0.054775406
       2957.4628     0.049297416
       2958.3030     0.037897114
       2959.1431     0.044230624
       2959.9833     0.043229590
       2960.8234     0.035402547
       2961.6636     0.057463140
       2962.5037     0.070672916
       2963.3439     0.026982696
       2964.1840     0.045815138
       2965.0242     0.057653529
       2965.8643     0.049064281
       2966.7045     0.027393651
       2967.5446     0.030998806
       2968.3848     0.030524286
       2969.2249     0.025363511
       2970.0651     0.060773985
       2970.9052     0.022331775
       2971.7454     0.051635603
       2972.5855     0.035761803
       2973.4257     0.051729642
       2974.2658     0.050175047
       2975.1060     0.054491421
       2975.9461     0.045032487
       2976.7862     0.046651035
       2977.6264     0.023890185
       2978.4665     0.063862029
       2979.3067     0.043965519
       2980.1468     0.052638372
       2980.9870     0.045745848
       2981.8271     0.045691135
       2982.6673     0.024972978
       2983.5074     0.043082529
       2984.3476     0.040371001
       2985.1877     0.040691521
       2986.0279     0.049412820
       2986.8680     0.055345343
       2987.7082     0.066039827
       2988.5483     0.056337095
       2989.3885     0.036351144
       2990.2286     0.056425360
       2991.0688     0.015854464
       2991.9089     0.046993827
       2992.7491     0.035096931
       2993.5892     0.017984828
       2994.4294     0.072024214
       2995.2695     0.046070373
       2996.1097     0.051876674
       2996.9498     0.041337415
       2997.7900     0.054844546
       2998.6301     0.037991682
       2999.4703     0.025651858
       3000.3104     0.042932688
       3001.1505     0.055180350
       3001.9907     0.040268743
       3002.8308     0.040598879
       3003.6710     0.027244715
       3004.5111     0.039546881
       3005.3513     0.035138518
       3006.1914     0.043343220
       3007.0316     0.051486162
       3007.8717     0.032493441
       3008.7119     0.043865466
       3009.5520     0.044907603
       3010.3922     0.036763898
       3011.2323     0.053382682
       3012.0725     0.047079189
       3012.9126     0.033119663
       3013.7528     0.050384487
       3014.5929     0.038591810
       3015.4331     0.038312581
       3016.2732     0.049000038
       3017.1134     0.047871920
       3017.9535     0.042246719
       3018.7937     0.040521696
       3019.6338     0.046165987
       3020.4740     0.041107339
       3021.3141     0.064786212
       3022.1543     0.054296992
       3022.9944     0.038291654
       3023.8346     0.054950622
       3024.6747     0.036174037
       3025.5149     0.010896581
       3026.3550     0.035919410
       3027.1951     0.056815737
       3028.0353     0.046619410
       3028.8754     0.024721442
       3029.7156     0.060277358
       3030.5557     0.062121518
       3031.3959     0.028309646
       3032.2360     0.046950878
       3033.0762     0.049489877
       3033.9163     0.019575927
       3034.7565     0.042149575
       3035.5966     0.053929918
       3036.4368     0.042642433
       3037.2769     0.045562200
       3038.1171     0.038413273
       3038.9572     0.032435849
       3039.7974     0.041784089
       3040.6375     0.056611767
       3041.4777     0.033652009
       3042.3178     0.038098596
       3043.1580     0.023142429
       3043.9981     0.057381807
       3044.8383     0.071138175
       3045.6784     0.043747852
       3046.5186     0.052181827
       3047.3587     0.043739956
       3048.1989     0.049415745
       3049.0390     0.049268616
       3049.8792     0.055463786
       3050.7193     0.049007456
       3051.5594     0.051129130
       3052.3996     0.041365290
       3053.2397     0.045102125
       3054.0799     0.032709765
       3054.9200     0.043812141
       3055.7602     0.042446696
       3056.6003     0.052472390
       3057.4405     0.039316930
       3058.2806     0.044697797
       3059.1208     0.036844313
       3059.9609     0.034622925
       3060.8011     0.033569806
       3061.6412     0.067283112
       3062.4814     0.044582580
       3063.3215     0.048218613
       3064.1617     0.029234603
       3065.0018     0.039971261
       3065.8420     0.022213633
       3066.6821     0.049233625
       3067.5223     0.031879969
       3068.3624     0.052671298
       3069.2026     0.036544179
       3070.0427     0.051888968
       3070.8829     0.045627874
       3071.7230     0.035451250
       3072.5632     0.057498612
       3073.4033     0.015832368
       3074.2435     0.047804803
       3075.0836     0.031861926
       3075.9238     0.016215867
       3076.7639     0.026721264
       3077.6040     0.052648151
       3078.4442     0.033937231
       3079.2843     0.038609946
       3080.1245     0.026846327
       3080.9646     0.026678636
       3081.8048     0.047433163
       3082.6449     0.065292711
       3083.4851     0.048388350
       3084.3252     0.036351418
       3085.1654     0.032498854
       3086.0055     0.027243608
       3086.8457     0.048885247
       3087.6858     0.025738619
       3088.5260     0.053066841
       3089.3661     0.031853950
       3090.2063     0.036283737
       3091.0464     0.040499233
       3091.8866     0.055099076
       3092.7267     0.047882713
       3093.5669     0.056749747
       3094.4070     0.040214594
       3095.2472     0.021091801
       3096.0873     0.060704576
       3096.9275     0.030414308
       3097.7676     0.054546600
       3098.6078     0.049391463
       3099.4479     0.033422606
       3100.2881     0.052628992
       3101.1282     0.050660279
       3101.9683     0.084790861
       3102.8085     0.061639769
       3103.6486     0.045651648
       3104.4888     0.040423952
       3105.3289     0.048172470
       3106.1691     0.040738865
       3107.0092     0.055176713
       3107.8494     0.038734734
       3108.6895     0.025854818
       3109.5297     0.044758190
       3110.3698     0.033118681
       3111.2100     0.039413096
       3112.0501     0.045967486
       3112.8903     0.016110001
       3113.7304     0.060295494
       3114.5706     0.020703288
       3115.4107     0.047575176
       3116.2509     0.048543213
       3117.0910     0.050578007
       3117.9312     0.034425523
       3118.7713     0.045130893
       3119.6115     0.033660313
       3120.4516     0.026366721
       3121.2918     0.077818182
       3122.1319     0.065714486
       3122.9721     0.051135423
       3123.8122     0.055951096
       3124.6524     0.044746618
       3125.4925     0.043201556
       3126.3326     0.045246220
       3127.1728     0.059510165
       3128.0129     0.047452749
       3128.8531     0.033911604
       3129.6932     0.055588488
       3130.5334     0.045688109
       3131.3735     0.041944667
       3132.2137     0.027079539
       3133.0538     0.037370957
       3133.8940     0.019635327
       3134.7341     0.031908026
       3135.5743     0.038561374
       3136.4144     0.049760279
       3137.2546     0.041373170
       3138.0947     0.043984412
       3138.9349     0.052570593
       3139.7750     0.025172564
       3140.6152     0.031910877
       3141.4553     0.061898937
       3142.2955     0.031033004
       3143.1356     0.020947055
       3143.9758     0.057786539
       3144.8159     0.049721402
       3145.6561     0.065094806
       3146.4962     0.042175844
       3147.3364     0.056907635
       3148.1765     0.034578791
       3149.0167     0.064151623
       3149.8568     0.041843404
       3150.6970     0.025130360
       3151.5371     0.051546964
       3152.3772     0.036649090
       3153.2174     0.041859986
       3154.0575     0.025636321
       3154.8977     0.049305866
       3155.7378     0.048499301
       3156.5780     0.029247160
       3157.4181     0.034497517
       3158.2583     0.062904946
       3159.0984     0.056583914
       3159.9386     0.062616406
       3160.7787     0.034180392
       3161.6189     0.038475190
       3162.4590     0.048022557
       3163.2992     0.042684567
       3164.1393     0.059356921
       3164.9795     0.084272984
       3165.8196     0.034976951
       3166.6598     0.032034210
       3167.4999     0.054131399
       3168.3401     0.038179571
       3169.1802     0.047018556
       3170.0204     0.057309496
       3170.8605     0.050317642
       3171.7007     0.051473338
       3172.5408     0.035007221
       3173.3810     0.042298654
       3174.2211     0.036731515
       3175.0613     0.025487797
       3175.9014     0.045861861
       3176.7415     0.052251536
       3177.5817     0.054249045
       3178.4218     0.026023872
       3179.2620     0.041234061
       3180.1021     0.064355348
       3180.9423     0.023687482
       3181.7824     0.061149416
       3182.6226     0.050511135
       3183.4627     0.030702718
       3184.3029     0.047124420
       3185.1430     0.040991902
       3185.9832     0.016248764
       3186.8233     0.029189832
       3187.6635     0.011767711
       3188.5036     0.043082873
       3189.3438     0.035557707
       3190.1839     0.022483387
       3191.0241     0.034652987
       3191.8642     0.066119531
       3192.7044     0.034293096
       3193.5445     0.055818460
       3194.3847     0.068543100
       3195.2248     0.051380806
       3196.0650     0.055128139
       3196.9051     0.043266029
       3197.7453     0.013265635
       3198.5854     0.039330621
       3199.4256     0.048318579
       3200.2657     0.046791788
       3201.1058     0.028351512
       3201.9460     0.047733451
       3202.7861     0.038743266
       3203.6263     0.017984782
       3204.4664     0.038618168
       3205.3066     0.065780488
       3206.1467     0.037947326
       3206.9869     0.034346085
       3207.8270     0.070272250
       3208.6672     0.045358461
       3209.5073     0.071533762
       3210.3475     0.062327834
       3211.1876     0.056380542
       3212.0278     0.038526615
       3212.8679     0.016441602
       3213.7081     0.050880034
       3214.5482     0.033884861
       3215.3884     0.046678580
       3216.2285     0.040053884
       3217.0687     0.032808174
       3217.9088     0.047912696
       3218.7490     0.027638007
       3219.5891     0.042006885
       3220.4293     0.051949496
       3221.2694     0.048314027
       3222.1096     0.033435349
       3222.9497     0.070824224
       3223.7899     0.041610433
       3224.6300     0.030137447
       3225.4702     0.043285450
       3226.3103     0.048013231
       3227.1504     0.043312495
       3227.9906     0.038136418
       3228.8307     0.029415430
       3229.6709     0.058311548
       3230.5110     0.067276089
       3231.3512     0.032404584
       3232.1913     0.039912762
       3233.0315     0.046172779
       3233.8716     0.040491631
       3234.7118     0.034757077
       3235.5519     0.024235495
       3236.3921     0.042260478
       3237.2322     0.024927993
       3238.0724     0.050451584
       3238.9125     0.037785985
       3239.7527     0.044121283
       3240.5928     0.036158798
       3241.4330     0.051454033
       3242.2731     0.055348110
       3243.1133     0.035616588
       3243.9534     0.042253286
       3244.7936     0.046925960
       3245.6337     0.013688356
       3246.4739     0.063956929
       3247.3140     0.035659561
       3248.1542     0.053210557
       3248.9943     0.027859083
       3249.8345     0.051899422
       3250.6746     0.051714078
       3251.5147     0.046280635
       3252.3549     0.049762220
       3253.1950     0.028811154
       3254.0352     0.048357077
       3254.8753     0.046543016
       3255.7155     0.030506566
       3256.5556     0.080173253
       3257.3958     0.055406671
       3258.2359     0.065753694
       3259.0761     0.065228783
       3259.9162     0.056205325
       3260.7564     0.049797592
       3261.5965     0.048386853
       3262.4367     0.043104221
       3263.2768     0.051510846
       3264.1170     0.048992114
       3264.9571     0.048978846
       3265.7973     0.048170135
       3266.6374     0.040188994
       3267.4776     0.033310375
       3268.3177     0.022244905
       3269.1579     0.034649408
       3269.9980     0.062090319
       3270.8382     0.019405311
       3271.6783     0.041891654
       3272.5185     0.047075688
       3273.3586     0.016408475
       3274.1988     0.045539891
       3275.0389     0.039431808
       3275.8790     0.073679965
       3276.7192     0.060924190
       3277.5593     0.024136128
       3278.3995     0.045511281
       3279.2396     0.038699985
       3280.0798     0.029279197
       3280.9199     0.035207748
       3281.7601     0.039233537
       3282.6002     0.053655647
       3283.4404     0.050305742
       3284.2805     0.042733727
       3285.1207     0.052955045
       3285.9608     0.043528256
       3286.8010     0.033903633
       3287.6411     0.064137949
       3288.4813     0.051065192
       3289.3214     0.046112384
       3290.1616     0.022461625
       3291.0017     0.052689419
       3291.8419     0.043958945
       3292.6820     0.057978554
       3293.5222     0.035722636
       3294.3623     0.056764762
       3295.2025     0.022074403
       3296.0426     0.046704635
       3296.8828     0.042813480
       3297.7229     0.061988037
       3298.5631     0.038761479
       3299.4032     0.052914963
       3300.2434     0.063511087
       3301.0835     0.027606421
       3301.9236     0.030414369
       3302.7638     0.060380130
       3303.6039     0.066325988
       3304.4441     0.073173985
       3305.2842     0.061428751
       3306.1244     0.057626619
       3306.9645     0.071650579
       3307.8047     0.038521769
       3308.6448     0.050158266
       3309.4850     0.043918658
       3310.3251     0.049475313
       3311.1653     0.052960575
       3312.0054     0.049185184
       3312.8456     0.047831065
       3313.6857     0.052272653
       3314.5259     0.056529449
       3315.3660     0.031154157
       3316.2062     0.019842803
       3317.0463     0.062999135
       3317.8865     0.060027618
       3318.7266     0.038021111
       3319.5668     0.039165504
       3320.4069     0.052010716
       3321.2471     0.062162127
       3322.0872     0.090695819
       3322.9274     0.060453240
       3323.7675     0.061758401
       3324.6077     0.057035067
       3325.4478     0.085785430
       3326.2879     0.070529242
       3327.1281     0.046397159
       3327.9682     0.035172499
       3328.8084     0.051191338
       3329.6485     0.059597740
       3330.4887     0.040230270
       3331.3288     0.020711171
       3332.1690     0.069284588
       3333.0091     0.030901237
       3333.8493     0.035641382
       3334.6894     0.060906011
       3335.5296     0.059409682
       3336.3697     0.042530234
       3337.2099     0.050841521
       3338.0500     0.067878778
       3338.8902     0.045155557
       3339.7303     0.049854733
       3340.5705     0.026768951
       3341.4106     0.061322640
       3342.2508     0.061590361
       3343.0909     0.051866152
       3343.9311     0.068685427
       3344.7712     0.063886319
       3345.6114     0.050418847
       3346.4515     0.026741227
       3347.2917     0.020085603
       3348.1318     0.049147543
       3348.9720     0.052679037
       3349.8121     0.030362149
       3350.6522     0.050483229
       3351.4924     0.060318505
       3352.3325     0.039227561
       3353.1727     0.055863892
       3354.0128     0.054433091
       3354.8530     0.046764679
       3355.6931     0.037545121
       3356.5333     0.035068723
       3357.3734     0.059184687
       3358.2136     0.032694719
       3359.0537     0.050802780
       3359.8939     0.040535310
       3360.7340     0.055107227
       3361.5742     0.038738291
       3362.4143     0.037982119
       3363.2545     0.047162080
       3364.0946     0.072614015
       3364.9348     0.063679834
       3365.7749     0.062886500
       3366.6151     0.043515766
       3367.4552     0.018201747
       3368.2954     0.078471367
       3369.1355     0.027754496
       3369.9757     0.053000814
       3370.8158     0.062907439
       3371.6560     0.039316886
       3372.4961     0.062091227
       3373.3363     0.044879298
       3374.1764     0.035920836
       3375.0166     0.037993693
       3375.8567     0.049406011
       3376.6968     0.033864899
       3377.5370     0.058265091
       3378.3771     0.066304748
       3379.2173     0.040612897
       3380.0574     0.051732297
       3380.8976     0.035929476
       3381.7377     0.029611620
       3382.5779     0.047895164
       3383.4180     0.018516128
       3384.2582     0.025191313
       3385.0983     0.029742982
       3385.9385     0.048002929
       3386.7786     0.041254808
       3387.6188     0.049493921
       3388.4589     0.028597627
       3389.2991     0.041778294
       3390.1392     0.034767797
       3390.9794     0.069395456
       3391.8195     0.024865206
       3392.6597     0.051652078
       3393.4998     0.054042474
       3394.3400     0.020394977
       3395.1801     0.035568168
       3396.0203     0.043425289
       3396.8604     0.050700152
       3397.7006     0.043269408
       3398.5407     0.079753126
       3399.3809     0.039426009
       3400.2210     0.042184347
       3401.0611     0.052862568
       3401.9013     0.032037816
       3402.7414     0.058108051
       3403.5816     0.059121021
       3404.4217     0.011380623
       3405.2619     0.038232278
       3406.1020     0.041251712
       3406.9422     0.037219814
       3407.7823     0.065019330
       3408.6225     0.049587274
       3409.4626     0.084289852
       3410.3028     0.042254301
       3411.1429     0.041714609
       3411.9831     0.038469224
       3412.8232     0.045644700
       3413.6634     0.031960930
       3414.5035     0.060991210
       3415.3437     0.070398725
       3416.1838     0.055449948
       3417.0240     0.051231162
       3417.8641     0.035660805
       3418.7043     0.034091928
       3419.5444     0.039852465
       3420.3846     0.038769818
       3421.2247     0.040724314
       3422.0649     0.056754970
       3422.9050     0.071051429
       3423.7452     0.066433925
       3424.5853     0.045121714
       3425.4255     0.044905656
       3426.2656     0.042453599
       3427.1057     0.033524236
       3427.9459     0.046994743
       3428.7860     0.058129396
       3429.6262     0.056351445
       3430.4663     0.040657902
       3431.3065     0.039183344
       3432.1466     0.026032662
       3432.9868     0.031190062
       3433.8269     0.050708727
       3434.6671     0.062283620
       3435.5072     0.078627117
       3436.3474     0.056021804
       3437.1875     0.036590808
       3438.0277     0.026446228
       3438.8678     0.074976135
       3439.7080     0.079630751
       3440.5481     0.052046960
       3441.3883     0.023279798
       3442.2284     0.077112868
       3443.0686     0.046090238
       3443.9087     0.047520586
       3444.7489     0.015555252
       3445.5890     0.014470205
       3446.4292     0.037176440
       3447.2693     0.054745217
       3448.1095     0.036589935
       3448.9496     0.038688230
       3449.7898     0.034137596
       3450.6299     0.021020619
       3451.4700     0.050278065
       3452.3102     0.053929175
       3453.1503     0.044776441
       3453.9905     0.040039983
       3454.8306     0.039245531
       3455.6708     0.047586907
       3456.5109     0.045902897
       3457.3511     0.017295185
       3458.1912     0.063053961
       3459.0314     0.067210430
       3459.8715     0.026032505
       3460.7117     0.041544331
       3461.5518     0.050557276
       3462.3920     0.082477389
       3463.2321     0.023120272
       3464.0723     0.066684158
       3464.9124     0.028667582
       3465.7526     0.019151244
       3466.5927     0.047723568
       3467.4329     0.058701028
       3468.2730     0.039182583
       3469.1132     0.049419881
       3469.9533     0.071846767
       3470.7935     0.056414643
       3471.6336     0.018670668
       3472.4738     0.029076799
       3473.3139     0.036951122
       3474.1541     0.052163298
       3474.9942     0.047005029
       3475.8343     0.055440110
       3476.6745     0.070713154
       3477.5146     0.048648102
       3478.3548     0.062045186
       3479.1949     0.016568566
       3480.0351     0.064109372
       3480.8752     0.034925330
       3481.7154     0.054530174
       3482.5555     0.038776753
       3483.3957     0.067761361
       3484.2358     0.053580114
       3485.0760     0.032364682
       3485.9161     0.064007561
       3486.7563     0.070161466
       3487.5964     0.048331109
       3488.4366     0.046125540
       3489.2767     0.020038644
       3490.1169     0.044058019
       3490.9570     0.061963538
       3491.7972     0.049940850
       3492.6373     0.043866441
       3493.4775     0.065223277
       3494.3176     0.051903648
       3495.1578     0.046567737
       3495.9979     0.044330981
       3496.8381     0.051475690
       3497.6782     0.053300007
       3498.5184     0.030080160
       3499.3585     0.033696461
       3500.1987     0.061562683
       3501.0388     0.028764075
       3501.8789     0.031281405
       3502.7191     0.057172948
       3503.5592     0.044302402
       3504.3994     0.037035549
       3505.2395     0.032107294
       3506.0797     0.042720112
       3506.9198     0.021999841
       3507.7600     0.036091685
       3508.6001     0.046283329
       3509.4403     0.047898214
       3510.2804     0.079927461
       3511.1206     0.037828629
       3511.9607     0.046359353
       3512.8009     0.039331459
       3513.6410     0.050194821
       3514.4812     0.050666347
       3515.3213     0.047562345
       3516.1615     0.038244695
       3517.0016     0.064645072
       3517.8418     0.039555285
       3518.6819     0.059384822
       3519.5221     0.046205045
       3520.3622     0.047429848
       3521.2024     0.053506508
       3522.0425     0.031415185
       3522.8827     0.050040990
       3523.7228     0.045930572
       3524.5630     0.052598040
       3525.4031     0.044627944
       3526.2432     0.051523498
       3527.0834     0.037341236
       3527.9235     0.046403232
       3528.7637     0.038964036
       3529.6038     0.056630542
       3530.4440     0.029107268
       3531.2841     0.036224619
       3532.1243     0.037290309
       3532.9644     0.033273296
       3533.8046     0.082419368
       3534.6447     0.054644918
       3535.4849     0.040403333
       3536.3250     0.049325280
       3537.1652     0.026384159
       3538.0053     0.046248566
       3538.8455     0.065027356
       3539.6856     0.050000845
       3540.5258     0.050311767
       3541.3659     0.041753367
       3542.2061     0.055191426
       3543.0462     0.070819741
       3543.8864     0.058077998
       3544.7265     0.075723479
       3545.5667     0.040715150
       3546.4068     0.070881499
       3547.2470     0.026011795
       3548.0871     0.086531453
       3548.9273     0.053404535
       3549.7674     0.067461350
       3550.6075     0.075357499
       3551.4477     0.082173925
       3552.2878     0.020797381
       3553.1280     0.063573275
       3553.9681     0.052993278
       3554.8083     0.037058401
       3555.6484     0.055434575
       3556.4886     0.042954246
       3557.3287    0.0086773261
       3558.1689     0.053682548
       3559.0090     0.059105671
       3559.8492     0.043419367
       3560.6893     0.047186068
       3561.5295     0.088887621
       3562.3696     0.064309966
       3563.2098     0.050885166
       3564.0499     0.041024734
       3564.8901     0.050644924
       3565.7302     0.053015406
       3566.5704     0.051144931
       3567.4105     0.044628502
       3568.2507     0.042156823
       3569.0908     0.034351687
       3569.9310     0.051825063
       3570.7711     0.071273328
       3571.6113     0.042404289
       3572.4514     0.055284680
       3573.2916     0.057231054
       3574.1317     0.058148944
       3574.9719     0.090693391
       3575.8120     0.039576591
       3576.6521     0.054849348
       3577.4923     0.055687837
       3578.3324     0.050022331
       3579.1726     0.061086649
       3580.0127     0.052580200
       3580.8529     0.054598604
       3581.6930     0.018848115
       3582.5332     0.041257247
       3583.3733     0.043797629
       3584.2135     0.032186271
       3585.0536     0.047096404
       3585.8938     0.066162173
       3586.7339     0.053040732
       3587.5741     0.054567833
       3588.4142     0.041325976
       3589.2544     0.038123969
       3590.0945     0.070098297
       3590.9347     0.029124164
       3591.7748     0.037060573
       3592.6150     0.065524249
       3593.4551     0.033770183
       3594.2953     0.073408583
       3595.1354     0.058447102
       3595.9756     0.037098835
       3596.8157     0.024775915
       3597.6559     0.069389581
       3598.4960     0.060931744
       3599.3362     0.047030850
       3600.1763     0.037080700
       3601.0164     0.052327893
       3601.8566     0.030025016
       3602.6967     0.029685270
       3603.5369     0.052147397
       3604.3770     0.078012564
       3605.2172     0.057205598
       3606.0573     0.044151238
       3606.8975     0.052234895
       3607.7376     0.057831903
       3608.5778     0.053948993
       3609.4179     0.033888978
       3610.2581     0.039858642
       3611.0982     0.050902342
       3611.9384     0.037578771
       3612.7785     0.061459949
       3613.6187     0.056600756
       3614.4588     0.036540490
       3615.2990     0.063072223
       3616.1391     0.040889741
       3616.9793     0.061172359
       3617.8194     0.074052911
       3618.6596     0.044836699
       3619.4997     0.019464223
       3620.3399     0.064314512
       3621.1800     0.056546414
       3622.0202     0.072919878
       3622.8603     0.069399569
       3623.7005     0.080372469
       3624.5406     0.051771569
       3625.3807     0.031219833
       3626.2209     0.059551290
       3627.0610     0.027043612
       3627.9012     0.043950381
       3628.7413     0.040315934
       3629.5815     0.072139838
       3630.4216     0.038500775
       3631.2618     0.061247379
       3632.1019     0.074521935
       3632.9421     0.041607689
       3633.7822     0.055692258
       3634.6224    0.0081467217
       3635.4625     0.034925232
       3636.3027     0.036430171
       3637.1428     0.076511527
       3637.9830     0.049263727
       3638.8231     0.046962884
       3639.6633     0.071314572
       3640.5034     0.050956623
       3641.3436     0.072723577
       3642.1837     0.039807634
       3643.0239     0.046451229
       3643.8640     0.041922302
       3644.7042     0.032181186
       3645.5443     0.059037384
       3646.3845     0.035697440
       3647.2246     0.088078786
       3648.0648     0.031964505
       3648.9049     0.025322771
       3649.7451     0.021867072
       3650.5852     0.045413474
       3651.4253     0.046308871
       3652.2655     0.046103698
       3653.1056     0.031604667
       3653.9458     0.054695631
       3654.7859     0.021229958
       3655.6261     0.037804402
       3656.4662     0.024812841
       3657.3064     0.043064676
       3658.1465     0.063991819
       3658.9867     0.045336868
       3659.8268     0.064851400
       3660.6670     0.072095971
       3661.5071     0.025689584
       3662.3473     0.068822277
       3663.1874     0.028065530
       3664.0276     0.036853021
       3664.8677     0.082434970
       3665.7079     0.042812784
       3666.5480     0.067881147
       3667.3882     0.045278022
       3668.2283     0.043134629
       3669.0685    0.0089339679
       3669.9086     0.046436447
       3670.7488     0.030835666
       3671.5889     0.072492131
       3672.4291     0.031271032
       3673.2692     0.047237669
       3674.1094     0.056921868
       3674.9495     0.072990198
       3675.7896     0.063492024
       3676.6298     0.072088159
       3677.4699     0.058415458
       3678.3101     0.025312287
       3679.1502     0.049057356
       3679.9904     0.031389435
       3680.8305     0.043116043
       3681.6707     0.075907021
       3682.5108     0.059390904
       3683.3510     0.021324763
       3684.1911     0.053543420
       3685.0313     0.052163727
       3685.8714     0.059590329
       3686.7116     0.049098552
       3687.5517     0.081158192
       3688.3919     0.032852074
       3689.2320     0.055598404
       3690.0722     0.061763370
       3690.9123     0.049072648
       3691.7525     0.030591301
       3692.5926     0.072738963
       3693.4328     0.045888652
       3694.2729     0.026011925
       3695.1131     0.040277630
       3695.9532     0.016443954
       3696.7934     0.037348186
       3697.6335     0.039713372
       3698.4737     0.030608336
       3699.3138     0.066729241
       3700.1539     0.076941886
       3700.9941     0.036419013
       3701.8342     0.028010192
       3702.6744     0.063499312
       3703.5145    0.0085174391
       3704.3547     0.040438181
       3705.1948     0.025671720
       3706.0350     0.052554932
       3706.8751     0.041551096
       3707.7153     0.029814692
       3708.5554     0.042218657
       3709.3956     0.043082378
       3710.2357     0.089260952
       3711.0759     0.051007183
       3711.9160     0.054014708
       3712.7562     0.051551257
       3713.5963     0.024351872
       3714.4365     0.045928328
       3715.2766     0.032679470
       3716.1168     0.056130689
       3716.9569     0.058908209
       3717.7971     0.072908647
       3718.6372     0.014754077
       3719.4774     0.045093385
       3720.3175     0.028025361
       3721.1577     0.048430085
       3721.9978     0.096423519
       3722.8380      0.13570101
       3723.6781      0.17684275
       3724.5183      0.25504865
       3725.3584      0.29496785
       3726.1985      0.33748518
       3727.0387      0.32712288
       3727.8788      0.32939869
       3728.7190      0.25596370
       3729.5591      0.21434008
       3730.3993      0.12426306
       3731.2394     0.098090980
       3732.0796     0.048365306
       3732.9197     0.075444536
       3733.7599     0.055245502
       3734.6000     0.064566894
       3735.4402     0.060060775
       3736.2803     0.051794756
       3737.1205     0.082601223
       3737.9606     0.081936222
       3738.8008     0.088049497
       3739.6409     0.089498365
       3740.4811     0.077841950
       3741.3212     0.073820005
       3742.1614     0.096539034
       3743.0015     0.053847734
       3743.8417     0.077785482
       3744.6818     0.061096215
       3745.5220     0.045445167
       3746.3621     0.029171361
       3747.2023     0.068816745
       3748.0424     0.021318065
       3748.8826     0.055597741
       3749.7227     0.084407802
       3750.5628     0.060533838
       3751.4030     0.043352864
       3752.2431     0.037184779
       3753.0833     0.051228025
       3753.9234     0.075274939
       3754.7636     0.061387369
       3755.6037     0.038525382
       3756.4439      0.10193383
       3757.2840     0.067573510
       3758.1242     0.046348692
       3758.9643     0.062696120
       3759.8045     0.063564067
       3760.6446     0.093500465
       3761.4848     0.048125407
       3762.3249     0.080836896
       3763.1651     0.049150695
       3764.0052     0.045775781
       3764.8454     0.069812518
       3765.6855     0.050760630
       3766.5257     0.063120619
       3767.3658     0.063757485
       3768.2060     0.044259308
       3769.0461     0.087348871
       3769.8863     0.061739530
       3770.7264     0.049486651
       3771.5666     0.025496000
       3772.4067     0.081036233
       3773.2469     0.070663127
       3774.0870     0.062055948
       3774.9272     0.066586506
       3775.7673     0.068949766
       3776.6074     0.081696704
       3777.4476     0.096210218
       3778.2877     0.089079395
       3779.1279     0.073537858
       3779.9680     0.070085229
       3780.8082     0.049836688
       3781.6483     0.060208078
       3782.4885     0.059946514
       3783.3286      0.10069770
       3784.1688     0.050309007
       3785.0089     0.025917407
       3785.8491     0.058031263
       3786.6892     0.051836738
       3787.5294     0.064927128
       3788.3695     0.070183441
       3789.2097     0.071227565
       3790.0498     0.045041244
       3790.8900     0.055460740
       3791.7301     0.042122330
       3792.5703     0.063092431
       3793.4104     0.052297062
       3794.2506     0.085781034
       3795.0907     0.036679474
       3795.9309     0.067348745
       3796.7710     0.060692594
       3797.6112     0.066600622
       3798.4513     0.066585670
       3799.2915     0.085092953
       3800.1316     0.069608824
       3800.9717     0.058310070
       3801.8119     0.041877351
       3802.6520     0.067150388
       3803.4922     0.085666073
       3804.3323     0.034943481
       3805.1725     0.088257117
       3806.0126      0.11558976
       3806.8528     0.070867669
       3807.6929     0.069787277
       3808.5331     0.045583666
       3809.3732     0.061306525
       3810.2134     0.088521350
       3811.0535     0.097612984
       3811.8937     0.032871183
       3812.7338     0.059024526
       3813.5740     0.088405193
       3814.4141     0.064524548
       3815.2543     0.085569922
       3816.0944     0.063925255
       3816.9346     0.073759544
       3817.7747     0.076006298
       3818.6149     0.093975737
       3819.4550     0.089443938
       3820.2952      0.11233159
       3821.1353      0.10258008
       3821.9755     0.062764583
       3822.8156     0.092054267
       3823.6558     0.097912184
       3824.4959     0.050561242
       3825.3360      0.10792312
       3826.1762     0.072644531
       3827.0163     0.042571843
       3827.8565     0.053901720
       3828.6966     0.045446736
       3829.5368     0.056773518
       3830.3769     0.060456431
       3831.2171     0.087338809
       3832.0572     0.075205490
       3832.8974     0.077343294
       3833.7375     0.077086762
       3834.5777     0.077280794
       3835.4178     0.059895890
       3836.2580     0.056895337
       3837.0981     0.083242096
       3837.9383     0.068691363
       3838.7784     0.097597792
       3839.6186     0.042334161
       3840.4587     0.066336678
       3841.2989     0.047885628
       3842.1390     0.072359716
       3842.9792     0.074957310
       3843.8193     0.097028969
       3844.6595     0.091736716
       3845.4996     0.053025344
       3846.3398     0.032047056
       3847.1799     0.074973433
       3848.0201     0.040868467
       3848.8602     0.049541518
       3849.7004     0.072119213
       3850.5405     0.066314846
       3851.3806     0.094260080
       3852.2208     0.077678120
       3853.0609     0.096726864
       3853.9011      0.10418288
       3854.7412     0.093677565
       3855.5814     0.029818475
       3856.4215     0.056597512
       3857.2617     0.093273595
       3858.1018     0.092161962
       3858.9420     0.076259608
       3859.7821      0.12384271
       3860.6223      0.10143243
       3861.4624      0.10481909
       3862.3026     0.076394155
       3863.1427      0.14795004
       3863.9829      0.13834441
       3864.8230      0.13176775
       3865.6632      0.10965452
       3866.5033     0.083096470
       3867.3435     0.031830854
       3868.1836     0.091480849
       3869.0238      0.10713123
       3869.8639     0.072512150
       3870.7041     0.067856934
       3871.5442     0.075093824
       3872.3844     0.074856639
       3873.2245     0.069925404
       3874.0647     0.059885054
       3874.9048     0.067385745
       3875.7449     0.048151216
       3876.5851     0.078269748
       3877.4252     0.061287818
       3878.2654     0.075130562
       3879.1055     0.086980648
       3879.9457     0.066377328
       3880.7858     0.086974736
       3881.6260     0.084257669
       3882.4661     0.094287416
       3883.3063     0.066052263
       3884.1464     0.062840993
       3884.9866     0.052253552
       3885.8267     0.063534454
       3886.6669     0.049493979
       3887.5070     0.060560021
       3888.3472     0.061893247
       3889.1873     0.040995621
       3890.0275     0.067321728
       3890.8676     0.080250189
       3891.7078     0.064946198
       3892.5479     0.058998319
       3893.3881     0.075330140
       3894.2282     0.042425033
       3895.0684     0.071616188
       3895.9085     0.082614336
       3896.7487     0.076757389
       3897.5888     0.067322326
       3898.4290     0.081274452
       3899.2691     0.065023250
       3900.1092     0.017703029
       3900.9494     0.062352152
       3901.7895     0.095852045
       3902.6297     0.060784211
       3903.4698     0.031474168
       3904.3100     0.065548392
       3905.1501     0.084600430
       3905.9903     0.086248619
       3906.8304     0.084768853
       3907.6706      0.10335219
       3908.5107      0.12501187
       3909.3509      0.10295994
       3910.1910     0.070896668
       3911.0312     0.090867509
       3911.8713     0.068994432
       3912.7115     0.091631352
       3913.5516     0.077291720
       3914.3918     0.087840056
       3915.2319     0.062862810
       3916.0721     0.047079623
       3916.9122     0.087823426
       3917.7524     0.071933870
       3918.5925     0.063062038
       3919.4327     0.092671415
       3920.2728     0.078979010
       3921.1130     0.085205523
       3921.9531     0.093194655
       3922.7933     0.063672349
       3923.6334     0.093461602
       3924.4736     0.050131759
       3925.3137     0.092611280
       3926.1538     0.047922463
       3926.9940     0.059390366
       3927.8341     0.046861256
       3928.6743      0.10194006
       3929.5144     0.075309646
       3930.3546     0.062202425
       3931.1947     0.076755450
       3932.0349      0.12145585
       3932.8750     0.076726021
       3933.7152     0.084295846
       3934.5553     0.064328278
       3935.3955     0.086824209
       3936.2356     0.072320712
       3937.0758     0.083732032
       3937.9159     0.064815367
       3938.7561     0.094285931
       3939.5962      0.13287708
       3940.4364     0.067538730
       3941.2765     0.079441251
       3942.1167     0.051339273
       3942.9568     0.062670765
       3943.7970     0.099013381
       3944.6371     0.074680245
       3945.4773      0.10370373
       3946.3174     0.088862643
       3947.1576     0.091655471
       3947.9977     0.070719360
       3948.8379     0.069837348
       3949.6780     0.069894623
       3950.5181     0.083500983
       3951.3583     0.078623223
       3952.1984     0.046770335
       3953.0386     0.036408439
       3953.8787     0.058458053
       3954.7189     0.045701818
       3955.5590     0.058842816
       3956.3992     0.069974091
       3957.2393     0.050537503
       3958.0795     0.044999027
       3958.9196      0.10299863
       3959.7598     0.089824753
       3960.5999     0.073889669
       3961.4401     0.090928723
       3962.2802     0.093534124
       3963.1204     0.075773888
       3963.9605     0.064771125
       3964.8007     0.068267353
       3965.6408     0.046686141
       3966.4810     0.037256051
       3967.3211     0.066515073
       3968.1613     0.039086124
       3969.0014     0.047487411
       3969.8416     0.024564905
       3970.6817     0.056811187
       3971.5219     0.055686001
       3972.3620     0.049888877
       3973.2022     0.069361846
       3974.0423     0.099486678
       3974.8824     0.067543295
       3975.7226     0.056487727
       3976.5627     0.064407605
       3977.4029     0.097332590
       3978.2430     0.078254286
       3979.0832     0.071945663
       3979.9233     0.076958237
       3980.7635      0.13697041
       3981.6036     0.072581599
       3982.4438     0.066732668
       3983.2839     0.083120780
       3984.1241     0.066393731
       3984.9642      0.11736939
       3985.8044      0.10319773
       3986.6445     0.055367566
       3987.4847     0.097319748
       3988.3248     0.097641326
       3989.1650      0.13275203
       3990.0051     0.077691619
       3990.8453     0.075195228
       3991.6854      0.10431879
       3992.5256     0.062340932
       3993.3657     0.088494206
       3994.2059     0.057816405
       3995.0460     0.035720524
       3995.8862     0.098962350
       3996.7263     0.097778035
       3997.5665     0.079546862
       3998.4066      0.10231699
       3999.2468     0.092967775
       4000.0869     0.099566455
       4000.9270     0.098226586
       4001.7672     0.072506922
       4002.6073     0.081592593
       4003.4475      0.10199378
       4004.2876     0.087907055
       4005.1278     0.061126791
       4005.9679     0.053949524
       4006.8081     0.080637636
       4007.6482     0.032293567
       4008.4884     0.052735638
       4009.3285     0.083137763
       4010.1687     0.080550763
       4011.0088     0.071601458
       4011.8490      0.11650564
       4012.6891     0.093495433
       4013.5293     0.071100801
       4014.3694      0.10717733
       4015.2096     0.074085361
       4016.0497     0.083262763
       4016.8899     0.078954151
       4017.7300     0.070901376
       4018.5702     0.095136587
       4019.4103     0.060822555
       4020.2505     0.099074626
       4021.0906     0.077884691
       4021.9308     0.082333884
       4022.7709     0.097326230
       4023.6111      0.11744466
       4024.4512     0.085008248
       4025.2913      0.10004545
       4026.1315     0.036777602
       4026.9716     0.069219198
       4027.8118     0.063897320
       4028.6519     0.055326747
       4029.4921     0.046823058
       4030.3322     0.073999852
       4031.1724     0.082213620
       4032.0125     0.035492158
       4032.8527     0.096991237
       4033.6928      0.10213151
       4034.5330      0.11628995
       4035.3731     0.083816392
       4036.2133     0.096511918
       4037.0534     0.077282258
       4037.8936     0.072834650
       4038.7337     0.084716211
       4039.5739     0.060399676
       4040.4140     0.069324003
       4041.2542     0.075946391
       4042.0943     0.090678498
       4042.9345     0.083533122
       4043.7746      0.11267944
       4044.6148     0.079177458
       4045.4549      0.10238550
       4046.2951      0.12332760
       4047.1352     0.079001619
       4047.9754     0.087136495
       4048.8155     0.078630134
       4049.6557     0.063854294
       4050.4958     0.071493729
       4051.3359      0.10721536
       4052.1761     0.064543493
       4053.0162     0.055196544
       4053.8564     0.085386199
       4054.6965     0.058974979
       4055.5367     0.088446294
       4056.3768     0.078512480
       4057.2170     0.079070222
       4058.0571      0.10358825
       4058.8973     0.085254707
       4059.7374     0.075706746
       4060.5776      0.12508957
       4061.4177     0.086908421
       4062.2579      0.10994733
       4063.0980      0.10194448
       4063.9382     0.097151279
       4064.7783      0.10608191
       4065.6185     0.098661208
       4066.4586     0.092433119
       4067.2988     0.058593283
       4068.1389     0.056797591
       4068.9791     0.099493978
       4069.8192     0.038794763
       4070.6594     0.088451341
       4071.4995      0.10440500
       4072.3397     0.091171641
       4073.1798     0.045980024
       4074.0200     0.060129279
       4074.8601     0.070849840
       4075.7002     0.051851261
       4076.5404     0.068902484
       4077.3805     0.049197978
       4078.2207     0.070389266
       4079.0608     0.064495338
       4079.9010     0.083706553
       4080.7411     0.026424951
       4081.5813     0.059795267
       4082.4214     0.058191545
       4083.2616     0.034191990
       4084.1017     0.049049923
       4084.9419     0.044014034
       4085.7820     0.073469507
       4086.6222     0.070820699
       4087.4623     0.070473400
       4088.3025      0.12525426
       4089.1426     0.095043100
       4089.9828     0.053567094
       4090.8229     0.081738492
       4091.6631     0.063304099
       4092.5032     0.064164606
       4093.3434     0.064106055
       4094.1835     0.040046210
       4095.0237     0.042794589
       4095.8638     0.082158936
       4096.7040     0.044469510
       4097.5441     0.039220825
       4098.3843     0.064662359
       4099.2244     0.079770175
       4100.0645     0.051026187
       4100.9047     0.057372354
       4101.7448     0.046824281
       4102.5850     0.085929707
       4103.4251     0.060437531
       4104.2653     0.084818270
       4105.1054     0.094443154
       4105.9456     0.071573917
       4106.7857     0.080166693
       4107.6259     0.087631493
       4108.4660      0.10700131
       4109.3062     0.064467247
       4110.1463     0.075707917
       4110.9865     0.078032307
       4111.8266     0.075039647
       4112.6668     0.070592232
       4113.5069     0.074095180
       4114.3471      0.10484287
       4115.1872     0.082445303
       4116.0274     0.078548585
       4116.8675     0.086722611
       4117.7077     0.057767106
       4118.5478     0.086855202
       4119.3880     0.078627247
       4120.2281     0.087106532
       4121.0683     0.060355673
       4121.9084     0.070892912
       4122.7486     0.088153932
       4123.5887     0.047679206
       4124.4289     0.050213034
       4125.2690     0.098448151
       4126.1091     0.083357997
       4126.9493     0.095175355
       4127.7894     0.071803244
       4128.6296     0.080084302
       4129.4697     0.080110463
       4130.3099     0.074248610
       4131.1500     0.050757514
       4131.9902     0.076714006
       4132.8303     0.058644576
       4133.6705     0.038338483
       4134.5106     0.092972329
       4135.3508     0.073048537
       4136.1909      0.11874303
       4137.0311     0.080709177
       4137.8712     0.084223223
       4138.7114     0.095145713
       4139.5515     0.077749178
       4140.3917      0.11202192
       4141.2318     0.062780278
       4142.0720     0.071353039
       4142.9121     0.069437887
       4143.7523     0.071428380
       4144.5924     0.080526526
       4145.4326     0.085557745
       4146.2727     0.082304843
       4147.1129      0.10182786
       4147.9530     0.067149282
       4148.7932     0.072895318
       4149.6333     0.068101064
       4150.4734      0.11979782
       4151.3136     0.049777652
       4152.1537     0.057117985
       4152.9939     0.067612354
       4153.8340      0.12241427
       4154.6742     0.061442423
       4155.5143     0.061595804
       4156.3545      0.13098718
       4157.1946     0.076960174
       4158.0348     0.058754059
       4158.8749      0.10019487
       4159.7151     0.093265084
       4160.5552     0.081270550
       4161.3954     0.092594055
       4162.2355     0.063173283
       4163.0757     0.081619467
       4163.9158     0.058800059
       4164.7560     0.073901725
       4165.5961     0.066648541
       4166.4363     0.065666741
       4167.2764     0.089436641
       4168.1166     0.080448488
       4168.9567     0.080180480
       4169.7969     0.078053358
       4170.6370      0.10452403
       4171.4772     0.085510652
       4172.3173     0.038960822
       4173.1575      0.10102487
       4173.9976     0.078472598
       4174.8377     0.078275553
       4175.6779     0.069829754
       4176.5180     0.077836655
       4177.3582     0.090895409
       4178.1983     0.053292509
       4179.0385      0.10256640
       4179.8786     0.074349204
       4180.7188     0.086371262
       4181.5589     0.085989240
       4182.3991     0.056345360
       4183.2392      0.10821078
       4184.0794     0.081813756
       4184.9195     0.074855715
       4185.7597     0.051359419
       4186.5998     0.079734271
       4187.4400     0.070590071
       4188.2801     0.081265943
       4189.1203     0.072866557
       4189.9604     0.093106140
       4190.8006     0.066453707
       4191.6407     0.053920630
       4192.4809     0.085009070
       4193.3210     0.094026542
       4194.1612     0.075428961
       4195.0013     0.082105271
       4195.8415     0.085305469
       4196.6816     0.090635805
       4197.5218     0.097411029
       4198.3619     0.076762464
       4199.2021     0.046720841
       4200.0422     0.063391577
       4200.8823     0.091885289
       4201.7225     0.096478514
       4202.5626     0.093064190
       4203.4028     0.083873933
       4204.2429      0.11016624
       4205.0831     0.082452883
       4205.9232     0.094795238
       4206.7634      0.10881985
       4207.6035     0.063955965
       4208.4437     0.077120525
       4209.2838     0.086892682
       4210.1240     0.045675013
       4210.9641     0.070675323
       4211.8043     0.089035395
       4212.6444     0.088661300
       4213.4846     0.051295429
       4214.3247     0.086500254
       4215.1649     0.067210409
       4216.0050     0.088508275
       4216.8452     0.071048245
       4217.6853     0.090651404
       4218.5255     0.080316752
       4219.3656     0.097733017
       4220.2058     0.081605464
       4221.0459     0.070760269
       4221.8861     0.059565129
       4222.7262     0.046241633
       4223.5664     0.078795472
       4224.4065     0.074036763
       4225.2466      0.10301384
       4226.0868     0.075776032
       4226.9269     0.065498194
       4227.7671     0.062704971
       4228.6072     0.064931123
       4229.4474      0.10133195
       4230.2875     0.076428787
       4231.1277     0.054610640
       4231.9678     0.050089943
       4232.8080     0.071288082
       4233.6481     0.081794454
       4234.4883     0.080500566
       4235.3284     0.063057940
       4236.1686     0.054688928
       4237.0087     0.069040073
       4237.8489     0.072858755
       4238.6890     0.066087549
       4239.5292     0.095281871
       4240.3693      0.11248908
       4241.2095     0.070102566
       4242.0496     0.070967962
       4242.8898     0.037953449
       4243.7299     0.073364638
       4244.5701     0.077182209
       4245.4102     0.085361461
       4246.2504     0.069251507
       4247.0905     0.051880402
       4247.9307     0.051780981
       4248.7708     0.040530283
       4249.6109     0.074661761
       4250.4511     0.083516665
       4251.2912     0.064585810
       4252.1314     0.076361273
       4252.9715     0.074192036
       4253.8117      0.10098795
       4254.6518     0.041305293
       4255.4920     0.067863831
       4256.3321     0.072795617
       4257.1723      0.10019700
       4258.0124     0.096482663
       4258.8526     0.034619738
       4259.6927     0.074669716
       4260.5329      0.10067214
       4261.3730     0.067367563
       4262.2132     0.076562530
       4263.0533     0.065308615
       4263.8935     0.057828670
       4264.7336     0.061380144
       4265.5738     0.086689347
       4266.4139     0.094469162
       4267.2541     0.077978445
       4268.0942      0.12848677
       4268.9344     0.057541432
       4269.7745     0.096466872
       4270.6147     0.068927843
       4271.4548     0.092314431
       4272.2950     0.079311925
       4273.1351      0.10176749
       4273.9753     0.093233316
       4274.8154     0.070399598
       4275.6555     0.070115202
       4276.4957     0.043946721
       4277.3358      0.11924061
       4278.1760     0.060529281
       4279.0161     0.037691090
       4279.8563     0.058817922
       4280.6964     0.059421438
       4281.5366     0.050864920
       4282.3767     0.072471570
       4283.2169      0.10670433
       4284.0570     0.037150807
       4284.8972     0.057891075
       4285.7373     0.070132705
       4286.5775     0.022648561
       4287.4176     0.026459935
       4288.2578     0.085717568
       4289.0979     0.077270664
       4289.9381     0.086701519
       4290.7782     0.055009741
       4291.6184      0.10256641
       4292.4585     0.050061021
       4293.2987     0.051705623
       4294.1388     0.080197950
       4294.9790     0.065985834
       4295.8191     0.077449700
       4296.6593     0.081677982
       4297.4994    0.0096017967
       4298.3396    -0.043283342
       4299.1797     -0.10669512
       4300.0198     -0.12071897
       4300.8600     -0.14874910
       4301.7001    -0.078765427
       4302.5403      0.10899562
       4303.3804      0.16709811
       4304.2206      0.21707385
       4305.0607      0.13444179
       4305.9009     0.093862428
       4306.7410     0.098315181
       4307.5812      0.11325377
       4308.4213     0.080214107
       4309.2615     0.062282921
       4310.1016     0.053358078
       4310.9418     0.074146296
       4311.7819     0.050201206
       4312.6221     0.025662327
       4313.4622     0.036649440
       4314.3024     0.075843352
       4315.1425     0.064947191
       4315.9827     0.098623834
       4316.8228      0.12088602
       4317.6630     0.074961542
       4318.5031     0.083059334
       4319.3433     0.097691138
       4320.1834     0.077146441
       4321.0236     0.053147661
       4321.8637     0.068925336
       4322.7039     0.088388690
       4947.2892      0.17428523
       4948.2097      0.19225219
       4949.1301      0.11329032
       4950.0506      0.11984892
       4950.9710      0.15561453
       4951.8914      0.22364264
       4952.8119      0.15273107
       4953.7323      0.17776220
       4954.6528      0.11800866
       4955.5732      0.16933459
       4956.4937      0.11762883
       4957.4141      0.14191335
       4958.3346     0.076181675
       4959.2550     0.024381874
       4960.1755      0.15570704
       4961.0959      0.20167632
       4962.0164     0.036266336
       4962.9368      0.11974024
       4963.8573     0.037640697
       4964.7777     0.094532259
       4965.6981      0.10281376
       4966.6186      0.23496328
       4967.5390      0.18840851
       4968.4595      0.15640321
       4969.3799      0.22102216
       4970.3004      0.24710270
       4971.2208      0.15069124
       4972.1413      0.18424500
       4973.0617      0.13865351
       4973.9822      0.21480132
       4974.9026      0.15171669
       4975.8231      0.16326328
       4976.7435      0.24013436
       4977.6640      0.30846119
       4978.5844      0.64106215
       4979.5048       1.0534328
       4980.4253       1.5341518
       4981.3457       1.9482138
       4982.2662       1.8593936
       4983.1866       1.3327748
       4984.1071      0.73837810
       4985.0275      0.54164820
       4985.9480      0.32916547
       4986.8684     0.097637042
       4987.7889      0.12675654
       4988.7093      0.29868115
       4989.6298      0.18521280
       4990.5502      0.13487450
       4991.4706      0.20076376
       4992.3911      0.19200956
       4993.3115      0.14097311
       4994.2320      0.23793094
       4995.1524      0.26403606
       4996.0729      0.10733826
       4996.9933      0.13908114
       4997.9138      0.11453217
       4998.8342      0.23877986
       4999.7547      0.17265915
       5000.6751      0.21772661
       5001.5956      0.13509508
       5002.5160      0.21631972
       5003.4365      0.22118726
       5004.3569      0.16888544
       5005.2773      0.17118309
       5006.1978      0.11471616
       5007.1182     0.068999705
       5008.0387      0.11139273
       5008.9591     0.091763012
       5009.8796      0.11870613
       5010.8000      0.13393076
       5011.7205      0.19445611
       5012.6409      0.13273267
       5013.5614      0.10854670
       5014.4818      0.15816673
       5015.4023     0.054511638
       5016.3227     0.087116366
       5017.2432      0.20618689
       5018.1636      0.15894271
       5019.0840      0.10093391
       5020.0045   -0.0044770042
       5020.9249      0.18965435
       5021.8454      0.16173066
       5022.7658      0.24003565
       5023.6863      0.27126013
       5024.6067      0.15686885
       5025.5272      0.16900374
       5026.4476      0.19515526
       5027.3681      0.16626716
       5028.2885      0.12554473
       5029.2090      0.13586184
       5030.1294      0.11759089
       5031.0498     0.085517379
       5031.9703      0.11035930
       5032.8907      0.12017735
       5033.8112      0.22852879
       5034.7316      0.21982046
       5035.6521     0.065323919
       5036.5725      0.13029033
       5037.4930      0.18766592
       5038.4134     0.074690682
       5039.3339      0.11689387
       5040.2543     0.094622769
       5041.1748      0.11590553
       5042.0952      0.19686915
       5043.0157      0.22390653
       5043.9361      0.17237196
       5044.8565      0.16295193
       5045.7770      0.10238254
       5046.6974      0.12540361
       5047.6179      0.17253420
       5048.5383      0.19484050
       5049.4588      0.18997111
       5050.3792      0.19010942
       5051.2997      0.16685997
       5052.2201     0.099169555
       5053.1406      0.15859631
       5054.0610      0.13958779
       5054.9815      0.22737535
       5055.9019      0.11986234
       5056.8224      0.11947032
       5057.7428      0.15814384
       5058.6632     0.063533449
       5059.5837      0.12551583
       5060.5041      0.10451445
       5061.4246      0.13745507
       5062.3450      0.18311584
       5063.2655      0.15178468
       5064.1859      0.11698494
       5065.1064      0.12316151
       5066.0268      0.13856388
       5066.9473      0.17132094
       5067.8677      0.11943372
       5068.7882      0.15310387
       5069.7086      0.10093534
       5070.6290      0.20460284
       5071.5495      0.20607139
       5072.4699      0.12585881
       5073.3904      0.14624843
       5074.3108      0.13744651
       5075.2313      0.17158479
       5076.1517      0.16361983
       5077.0722      0.16553928
       5077.9926      0.19119036
       5078.9131      0.20323042
       5079.8335      0.14065786
       5080.7540      0.16936797
       5081.6744      0.16392578
       5082.5949      0.16845565
       5083.5153      0.14362044
       5084.4357      0.16806266
       5085.3562      0.10919867
       5086.2766      0.14453269
       5087.1971     0.091392284
       5088.1175      0.17340601
       5089.0380      0.17044108
       5089.9584      0.12100883
       5090.8789      0.11526457
       5091.7993      0.18977274
       5092.7198      0.16351716
       5093.6402      0.10400364
       5094.5607      0.18892585
       5095.4811      0.17719739
       5096.4016      0.14861070
       5097.3220      0.11643459
       5098.2424      0.10717216
       5099.1629      0.15810555
       5100.0833      0.18009967
       5101.0038      0.23874462
       5101.9242      0.19684158
       5102.8447      0.18324382
       5103.7651     0.081050155
       5104.6856      0.11016767
       5105.6060      0.22299495
       5106.5265      0.15654681
       5107.4469      0.12357255
       5108.3674      0.20379343
       5109.2878     0.096576415
       5110.2082      0.16735612
       5111.1287      0.18128554
       5112.0491      0.15520844
       5112.9696      0.10945005
       5113.8900      0.15501970
       5114.8105     0.095158454
       5115.7309      0.14213685
       5116.6514      0.12995849
       5117.5718      0.16689303
       5118.4923      0.15041565
       5119.4127      0.19266080
       5120.3332      0.21088212
       5121.2536      0.15556554
       5122.1741     0.055968206
       5123.0945      0.12511916
       5124.0149      0.15216707
       5124.9354      0.18312070
       5125.8558      0.14219534
       5126.7763     0.096613475
       5127.6967     0.081479424
       5128.6172     0.071054746
       5129.5376      0.12222653
       5130.4581      0.23225614
       5131.3785      0.13718114
       5132.2990      0.15062572
       5133.2194      0.15416392
       5134.1399      0.18076011
       5135.0603     0.090474242
       5135.9808      0.14322210
       5136.9012      0.12245554
       5137.8216      0.13877972
       5138.7421      0.17943766
       5139.6625      0.17145561
       5140.5830      0.10886203
       5141.5034      0.16265657
       5142.4239      0.17709184
       5143.3443      0.12154605
       5144.2648      0.14516331
       5145.1852     0.078290397
       5146.1057     0.088922685
       5147.0261      0.11533791
       5147.9466      0.12123933
       5148.8670      0.12737546
       5149.7874     0.093140511
       5150.7079      0.20568066
       5151.6283     0.082118874
       5152.5488      0.14695978
       5153.4692      0.13895071
       5154.3897      0.10621058
       5155.3101      0.20846693
       5156.2306      0.19645292
       5157.1510      0.11293466
       5158.0715      0.16014714
       5158.9919      0.15764636
       5159.9124     0.096425650
       5160.8328      0.13136125
       5161.7533      0.13286522
       5162.6737     0.052651093
       5163.5941      0.13881676
       5164.5146     0.078117906
       5165.4350      0.12932067
       5166.3555      0.21346355
       5167.2759      0.17418509
       5168.1964      0.13360520
       5169.1168      0.17653095
       5170.0373      0.14954816
       5170.9577      0.10547175
       5171.8782      0.12764232
       5172.7986     0.061869075
       5173.7191     0.095958013
       5174.6395     0.076416356
       5175.5600      0.12721549
       5176.4804      0.13593634
       5177.4008      0.15620605
       5178.3213      0.17992321
       5179.2417      0.15113209
       5180.1622      0.16544221
       5181.0826      0.13853650
       5182.0031      0.13751778
       5182.9235      0.11148747
       5183.8440      0.14618923
       5184.7644      0.16756086
       5185.6849      0.11032033
       5186.6053      0.13488525
       5187.5258      0.14794159
       5188.4462      0.14851875
       5189.3666      0.16178913
       5190.2871      0.26419292
       5191.2075      0.10639223
       5192.1280     0.079328985
       5193.0484      0.11377108
       5193.9689     0.059742005
       5194.8893      0.11953733
       5195.8098      0.13855867
       5196.7302      0.15457302
       5197.6507      0.19799622
       5198.5711      0.21235033
       5199.4916      0.14179187
       5200.4120      0.20525769
       5201.3325      0.16109245
       5202.2529      0.10519468
       5203.1733     0.033692318
       5204.0938      0.16417507
       5205.0142      0.14528001
       5205.9347     0.099273091
       5206.8551      0.17933251
       5207.7756      0.11587740
       5208.6960      0.14402535
       5209.6165      0.10568902
       5210.5369      0.14394037
       5211.4574     0.065822877
       5212.3778      0.11300994
       5213.2983      0.16960169
       5214.2187      0.19676288
       5215.1392      0.12945521
       5216.0596      0.14242625
       5216.9800      0.11129651
       5217.9005      0.10585667
       5218.8209      0.11473182
       5219.7414     0.084303804
       5220.6618      0.15976628
       5221.5823     0.086662034
       5222.5027      0.13614009
       5223.4232      0.18250821
       5224.3436     0.077534462
       5225.2641      0.14612051
       5226.1845     0.096205921
       5227.1050      0.13740682
       5228.0254      0.18570898
       5228.9458      0.14250918
       5229.8663     0.089367111
       5230.7867      0.10418365
       5231.7072     0.087612471
       5232.6276     0.091871317
       5233.5481     0.088791079
       5234.4685      0.12606966
       5235.3890      0.11081841
       5236.3094      0.10697300
       5237.2299      0.18037628
       5238.1503      0.20952343
       5239.0708      0.13353236
       5239.9912      0.14638872
       5240.9117     0.090075487
       5241.8321      0.22793567
       5242.7525      0.12486945
       5243.6730     0.093696436
       5244.5934      0.15368823
       5245.5139      0.17730757
       5246.4343      0.15707754
       5247.3548      0.18027123
       5248.2752      0.10071474
       5249.1957      0.18304699
       5250.1161      0.16226149
       5251.0366      0.16040208
       5251.9570      0.16887214
       5252.8775      0.17156764
       5253.7979      0.10652250
       5254.7184      0.14592162
       5255.6388      0.15648698
       5256.5592      0.12911914
       5257.4797      0.13485612
       5258.4001      0.15204533
       5259.3206      0.16254686
       5260.2410      0.12861472
       5261.1615      0.13355623
       5262.0819      0.14929569
       5263.0024      0.18920236
       5263.9228      0.21390379
       5264.8433      0.15955025
       5265.7637      0.14803978
       5266.6842      0.22516699
       5267.6046      0.10845668
       5268.5251      0.18835529
       5269.4455      0.15703880
       5270.3659     0.088689698
       5271.2864     0.086064511
       5272.2068      0.16902960
       5273.1273      0.19563718
       5274.0477      0.10951260
       5274.9682      0.13821597
       5275.8886      0.14745707
       5276.8091      0.13064031
       5277.7295     0.065961606
       5278.6500      0.12398646
       5279.5704     0.016341571
       5280.4909     0.028605168
       5281.4113     0.036674704
       5282.3317     0.081644221
       5283.2522     0.053439596
       5284.1726      0.11505607
       5285.0931      0.17097411
       5286.0135      0.10793131
       5286.9340     0.088763670
       5287.8544     0.017121907
       5288.7749     0.057277465
       5289.6953      0.11086862
       5290.6158      0.17720165
       5291.5362      0.13188103
       5292.4567      0.25385245
       5293.3771      0.15241191
       5294.2976      0.17452442
       5295.2180      0.16475733
       5296.1384     0.091152684
       5297.0589      0.12924111
       5297.9793      0.16169529
       5298.8998      0.15175465
       5299.8202      0.20173771
       5300.7407      0.15518935
       5301.6611     0.072602748
       5302.5816     0.040555345
       5303.5020    0.0084204932
       5304.4225     0.036380271
       5305.3429  -0.00093466184
       5306.2634      0.10627880
       5307.1838      0.11214485
       5308.1043      0.13655743
       5309.0247      0.17406494
       5309.9451      0.13996094
       5310.8656      0.12186480
       5311.7860     0.052709477
       5312.7065      0.10694706
       5313.6269     0.070856604
       5314.5474      0.12017634
       5315.4678      0.10046015
       5316.3883      0.14664621
       5317.3087      0.10738313
       5318.2292     0.026316780
       5319.1496      0.15295410
       5320.0701     0.049391102
       5320.9905     0.082960262
       5321.9109      0.15344969
       5322.8314     0.099785958
       5323.7518      0.16937157
       5324.6723      0.21453871
       5325.5927      0.12303644
       5326.5132      0.11213430
       5327.4336     0.095710238
       5328.3541      0.17407086
       5329.2745      0.18855920
       5330.1950      0.17299857
       5331.1154      0.12359523
       5332.0359     0.092397067
       5332.9563      0.16490181
       5333.8768      0.13658342
       5334.7972      0.17061792
       5335.7176      0.11870446
       5336.6381      0.17333359
       5337.5585      0.14610609
       5338.4790      0.17731330
       5339.3994     0.072772186
       5340.3199      0.15356899
       5341.2403     0.089679556
       5342.1608      0.10325163
       5343.0812      0.13555737
       5344.0017      0.15206492
       5344.9221      0.17306901
       5345.8426      0.15347571
       5346.7630      0.17485667
       5347.6835      0.25525641
       5348.6039      0.11090918
       5349.5243      0.12497038
       5350.4448     0.071691091
       5351.3652      0.15314589
       5352.2857      0.11753728
       5353.2061     0.096508666
       5354.1266     0.085830661
       5355.0470      0.13605471
       5355.9675      0.16134891
       5356.8879      0.19192952
       5357.8084      0.14345235
       5358.7288     0.083402939
       5359.6493      0.10546037
       5360.5697      0.14840265
       5361.4901      0.19909632
       5362.4106      0.11287182
       5363.3310      0.10448979
       5364.2515      0.18138570
       5365.1719      0.14970536
       5366.0924      0.19170314
       5367.0128      0.19446535
       5367.9333      0.15757061
       5368.8537     0.082533248
       5369.7742      0.10399840
       5370.6946      0.15296025
       5371.6151      0.26779885
       5372.5355      0.16492711
       5373.4560      0.12217325
       5374.3764      0.28649380
       5375.2968      0.23350123
       5376.2173      0.12353797
       5377.1377     0.085903943
       5378.0582      0.17957116
       5378.9786      0.13994010
       5379.8991      0.17373189
       5380.8195      0.16839080
       5381.7400     0.093314886
       5382.6604      0.18195642
       5383.5809      0.13896249
       5384.5013      0.13301055
       5385.4218      0.10720257
       5386.3422     0.074719393
       5387.2627      0.12615743
       5388.1831      0.12178319
       5389.1035      0.15800076
       5390.0240      0.15112990
       5390.9444      0.12179460
       5391.8649      0.13864307
       5392.7853      0.11403536
       5393.7058      0.13805080
       5394.6262     0.098691092
       5395.5467     0.028868563
       5396.4671      0.11372557
       5397.3876      0.16371194
       5398.3080      0.14057473
       5399.2285      0.21172798
       5400.1489      0.15394464
       5401.0693      0.21826378
       5401.9898      0.15183114
       5402.9102      0.14112160
       5403.8307      0.19258221
       5404.7511      0.21115587
       5405.6716      0.16186701
       5406.5920      0.15747811
       5407.5125      0.19805184
       5408.4329      0.20530248
       5409.3534      0.11548624
       5410.2738      0.15783325
       5411.1943      0.16851262
       5412.1147      0.14579721
       5413.0352      0.13297718
       5413.9556      0.18836066
       5414.8760      0.21458989
       5415.7965      0.14397045
       5416.7169      0.16859390
       5417.6374      0.15895189
       5418.5578      0.10148510
       5419.4783      0.14200079
       5420.3987      0.12967055
       5421.3192      0.12120864
       5422.2396      0.17764634
       5423.1601     0.030874524
       5424.0805      0.15241388
       5425.0010     0.096846092
       5425.9214     0.054599167
       5426.8419      0.11808235
       5427.7623      0.16802446
       5428.6827      0.12534589
       5429.6032      0.12018452
       5430.5236      0.18943036
       5431.4441      0.11262815
       5432.3645      0.15008372
       5433.2850      0.14472685
       5434.2054      0.18438854
       5435.1259      0.17258408
       5436.0463      0.17072261
       5436.9668     0.097844084
       5437.8872      0.12744718
       5438.8077      0.13851067
       5439.7281      0.15063364
       5440.6485      0.14239913
       5441.5690      0.14346250
       5442.4894      0.16342647
       5443.4099      0.15852022
       5444.3303      0.10869683
       5445.2508      0.14484503
       5446.1712      0.12504119
       5447.0917     0.083605108
       5448.0121      0.18954947
       5448.9326      0.13686326
       5449.8530      0.11335508
       5450.7735      0.13718222
       5451.6939      0.12423417
       5452.6144      0.17555812
       5453.5348      0.12916867
       5454.4552      0.21138222
       5455.3757      0.18018599
       5456.2961      0.12917025
       5457.2166      0.19831755
       5458.1370      0.21619454
       5459.0575      0.13540556
       5459.9779      0.15808207
       5460.8984      0.18559559
       5461.8188      0.12714965
       5462.7393      0.17751047
       5463.6597      0.14896552
       5464.5802     0.065269693
       5465.5006      0.12443614
       5466.4211      0.11097878
       5467.3415      0.16429367
       5468.2619      0.16830243
       5469.1824      0.18035148
       5470.1028      0.20234694
       5471.0233      0.14078833
       5471.9437     0.025418343
       5472.8642      0.15853295
       5473.7846      0.17797275
       5474.7051      0.16340865
       5475.6255      0.13562942
       5476.5460      0.17687527
       5477.4664      0.14618175
       5478.3869      0.20935293
       5479.3073      0.25931199
       5480.2277      0.22890235
       5481.1482      0.16546524
       5482.0686     0.046558431
       5482.9891      0.13849240
       5483.9095      0.17439963
       5484.8300     0.091870945
       5485.7504      0.16993177
       5486.6709      0.18949574
       5487.5913      0.24749859
       5488.5118      0.20012610
       5489.4322      0.16396811
       5490.3527      0.14210646
       5491.2731      0.12435344
       5492.1936      0.14307592
       5493.1140      0.15287986
       5494.0344      0.20275492
       5494.9549      0.17010193
       5495.8753      0.12864253
       5496.7958      0.19476117
       5497.7162      0.14180719
       5498.6367      0.13310416
       5499.5571      0.19967242
       5500.4776      0.19382264
       5501.3980      0.21743237
       5502.3185     0.088268533
       5503.2389     0.087875396
       5504.1594      0.11917529
       5505.0798     0.051500706
       5506.0003      0.15935631
       5506.9207     0.089887631
       5507.8411      0.13494310
       5508.7616      0.10657912
       5509.6820      0.14827612
       5510.6025      0.16103357
       5511.5229      0.21607087
       5512.4434      0.17125782
       5513.3638      0.17507651
       5514.2843     0.099013687
       5515.2047     0.074264935
       5516.1252      0.10511628
       5517.0456      0.14012391
       5517.9661      0.19754282
       5518.8865      0.13355708
       5519.8069      0.13028113
       5520.7274      0.22872627
       5521.6478      0.12091402
       5522.5683      0.17355437
       5523.4887     0.089611789
       5524.4092      0.18456060
       5525.3296      0.14056203
       5526.2501     0.083694888
       5527.1705      0.10710436
       5528.0910      0.23019576
       5529.0114     0.085147392
       5529.9319      0.16864660
       5530.8523      0.12564823
       5531.7728      0.16255710
       5532.6932      0.13270979
       5533.6136      0.16622995
       5534.5341      0.19789087
       5535.4545      0.17293151
       5536.3750     0.091541361
       5537.2954      0.16465370
       5538.2159      0.15750821
       5539.1363     0.093850557
       5540.0568     0.099939608
       5540.9772      0.15187313
       5541.8977      0.11807049
       5542.8181      0.12798952
       5543.7386      0.15352304
       5544.6590      0.21978115
       5545.5795      0.17571017
       5546.4999      0.19815682
       5547.4203      0.22134123
       5548.3408      0.18126271
       5549.2612      0.13889865
       5550.1817      0.13628760
       5551.1021      0.11795452
       5552.0226      0.11855761
       5552.9430      0.17735994
       5553.8635      0.17301125
       5554.7839      0.17970661
       5555.7044      0.23363435
       5556.6248      0.18500133
       5557.5453      0.16100453
       5558.4657      0.18669748
       5559.3861      0.17422322
       5560.3066      0.10011470
       5561.2270      0.12606096
       5562.1475      0.16877465
       5563.0679      0.14718615
       5563.9884      0.16109778
       5564.9088      0.15945430
       5565.8293      0.10015719
       5566.7497      0.17907825
       5567.6702      0.21771763
       5568.5906      0.18339326
       5569.5111      0.10437644
       5570.4315     0.098719222
       5571.3520      0.11840239
       5572.2724      0.14460677
       5573.1928      0.13516557
       5574.1133     0.042523469
       5575.0337      0.12966439
       5575.9542      0.20642524
       5576.8746      0.12635082
       5577.7951      0.12956832
       5578.7155     0.090851778
       5579.6360      0.14193069
       5580.5564      0.19701527
       5581.4769      0.19014271
       5582.3973      0.15766312
       5583.3178     0.097414989
       5584.2382     0.080591475
       5585.1587      0.20180495
       5586.0791      0.16409480
       5586.9995     0.088767862
       5587.9200     0.086222497
       5588.8404      0.10257614
       5589.7609     0.090032636
       5590.6813     0.038237502
       5591.6018      0.11931085
       5592.5222     0.055546140
       5593.4427     0.080086576
       5594.3631      0.17027550
       5595.2836      0.17364563
       5596.2040      0.16554134
       5597.1245      0.14031674
       5598.0449      0.10868290
       5598.9653      0.15274409
       5599.8858      0.15733345
       5600.8062      0.14705778
       5601.7267      0.15473857
       5602.6471      0.10463962
       5603.5676     0.092858949
       5604.4880      0.15900672
       5605.4085      0.18599630
       5606.3289      0.18530961
       5607.2494      0.21327907
       5608.1698     0.028163593
       5609.0903      0.13837570
       5610.0107      0.14522853
       5610.9312      0.20128393
       5611.8516      0.25178408
       5612.7720      0.12364603
       5613.6925      0.17285001
       5614.6129      0.20340748
       5615.5334     0.095758221
       5616.4538      0.17175461
       5617.3743      0.25127510
       5618.2947      0.20142395
       5619.2152      0.13939811
       5620.1356      0.12727270
       5621.0561      0.18822598
       5621.9765      0.27504684
       5622.8970      0.12944621
       5623.8174     0.082502636
       5624.7379      0.17695765
       5625.6583      0.17892492
       5626.5787     0.090158062
       5627.4992      0.11010278
       5628.4196     0.058409290
       5629.3401      0.12470153
       5630.2605      0.11155557
       5631.1810   -0.0051096000
       5632.1014     0.052193852
       5633.0219      0.10793362
       5633.9423      0.19427467
       5634.8628     0.068747430
       5635.7832      0.32174123
       5636.7037      0.20398002
       5637.6241     0.092717482
       5638.5445      0.17150817
       5639.4650      0.22858701
       5640.3854      0.19053975
       5641.3059      0.22033467
       5642.2263      0.38494381
       5643.1468      0.19543460
       5644.0672      0.20187795
       5644.9877      0.20498425
       5645.9081      0.19264498
       5646.8286      0.13594090
       5647.7490      0.16653773
       5648.6695      0.18223834
       5649.5899     0.098661653
       5650.5104      0.12697129
       5651.4308      0.18862927
       5652.3512      0.11347462
       5653.2717     0.086405726
       5654.1921     0.091723662
       5655.1126      0.13615800
       5656.0330      0.10492686
       5656.9535      0.15978002
       5657.8739      0.14639945
       5658.7944      0.14924603
       5659.7148      0.17473817
       5660.6353      0.15775704
       5661.5557     0.081168502
       5662.4762    0.0056293082
       5663.3966      0.13262838
       5664.3171      0.31755645
       5665.2375      0.27590542
       5666.1579      0.22103843
       5667.0784      0.16015011
       5667.9988     0.098584041
       5668.9193      0.27344448
       5669.8397      0.12671991
       5670.7602      0.10763825
       5671.6806      0.17988975
       5672.6011      0.15340280
       5673.5215      0.20058761
       5674.4420      0.13056360
       5675.3624      0.14736906
       5676.2829      0.20315927
       5677.2033      0.25927564
       5678.1237      0.18451793
       5679.0442      0.27159777
       5679.9646      0.15207647
       5680.8851      0.11491456
       5681.8055      0.16648717
       5682.7260     0.096313845
       5683.6464      0.15654149
       5684.5669     0.055600755
       5685.4873      0.22593674
       5686.4078      0.16001353
       5687.3282      0.30540394
       5688.2487      0.13132746
       5689.1691      0.11555924
       5690.0896      0.16059808
       5691.0100      0.18230646
       5691.9304     0.056160390
       5692.8509      0.13995603
       5693.7713      0.21340632
       5694.6918      0.12960442
       5695.6122      0.16945938
       5696.5327      0.14942639
       5697.4531      0.16211668
       5698.3736      0.15506877
       5699.2940      0.10689175
       5700.2145      0.12974048
       5701.1349      0.18467836
       5702.0554      0.12638466
       5702.9758      0.10931597
       5703.8963      0.12543014
       5704.8167      0.18751836
       5705.7371      0.23352009
       5706.6576      0.13653890
       5707.5780      0.18995890
       5708.4985      0.24438630
       5709.4189      0.30871190
       5710.3394      0.26238229
       5711.2598      0.28125039
       5712.1803      0.18913889
       5713.1007      0.10661105
       5714.0212      0.11076307
       5714.9416      0.15162750
       5715.8621      0.17850585
       5716.7825      0.17684036
       5717.7030      0.13213416
       5718.6234      0.19102751
       5719.5438      0.18435364
       5720.4643      0.18153136
       5721.3847      0.22110559
       5722.3052      0.24384016
       5723.2256      0.18896740
       5724.1461      0.14395554
       5725.0665      0.16754462
       5725.9870      0.23300408
       5726.9074      0.13975074
       5727.8279      0.24759186
       5728.7483      0.19678378
       5729.6688      0.11400608
       5730.5892      0.15931515
       5731.5096      0.16374211
       5732.4301      0.15826538
       5733.3505      0.10905760
       5734.2710      0.17785478
       5735.1914      0.10147290
       5736.1119     0.049928032
       5737.0323      0.23742668
       5737.9528      0.17825527
       5738.8732      0.19333453
       5739.7937      0.22345824
       5740.7141      0.18513687
       5741.6346      0.18696779
       5742.5550      0.12884990
       5743.4755      0.24122040
       5744.3959      0.18940204
       5745.3163      0.21933555
       5746.2368      0.14011768
       5747.1572      0.15581060
       5748.0777     0.084694645
       5748.9981      0.17506346
       5749.9186      0.16311968
       5750.8390      0.20602572
       5751.7595      0.14473645
       5752.6799      0.24397118
       5753.6004      0.10289544
       5754.5208      0.15237267
       5755.4413      0.18285197
       5756.3617      0.22325566
       5757.2822      0.16157814
       5758.2026     0.048412241
       5759.1230      0.15321255
       5760.0435      0.20591561
       5760.9639      0.22382857
       5761.8844      0.21783359
       5762.8048      0.14715566
       5763.7253      0.20068163
       5764.6457      0.27322314
       5765.5662      0.16817200
       5766.4866      0.16589743
       5767.4071      0.25151245
       5768.3275     0.095132194
       5769.2480      0.17289592
       5770.1684      0.19625814
       5771.0888      0.29171920
       5772.0093      0.20027522
       5772.9297      0.20524479
       5773.8502      0.17846107
       5774.7706      0.16813953
       5775.6911      0.20432484
       5776.6115      0.17116390
       5777.5320      0.26001023
       5778.4524      0.14418707
       5779.3729      0.23158551
       5780.2933      0.21334200
       5781.2138      0.26676605
       5782.1342      0.22293723
       5783.0547      0.18843547
       5783.9751      0.22877602
       5784.8955      0.21924753
       5785.8160      0.24943781
       5786.7364      0.27065413
       5787.6569      0.16232619
       5788.5773      0.14012723
       5789.4978      0.19206551
       5790.4182      0.22596423
       5791.3387      0.17619880
       5792.2591      0.23747110
       5793.1796      0.31814817
       5794.1000      0.20041165
       5795.0205      0.14756514
       5795.9409      0.14686856
       5796.8614     0.079340289
       5797.7818     0.070280478
       5798.7022      0.26532380
       5799.6227      0.19690976
       5800.5431      0.15958281
       5801.4636      0.23897855
       5802.3840      0.12228967
       5803.3045      0.21548793
       5804.2249      0.16826689
       5805.1454      0.13765091
       5806.0658      0.14374107
       5806.9863      0.15132544
       5807.9067      0.25196594
       5808.8272      0.20210988
       5809.7476     0.091785803
       5810.6680      0.15361107
       5811.5885      0.24143506
       5812.5089      0.26260999
       5813.4294      0.17235764
       5814.3498      0.19685867
       5815.2703      0.17571914
       5816.1907      0.21168427
       5817.1112      0.17498980
       5818.0316      0.18342657
       5818.9521      0.25382440
       5819.8725      0.22739672
       5820.7930      0.14486176
       5821.7134      0.20189438
       5822.6339      0.14215765
       5823.5543      0.19368514
       5824.4747      0.19874482
       5825.3952      0.21463647
       5826.3156      0.12161604
       5827.2361     0.078105322
       5828.1565      0.17605289
       5829.0770      0.10014204
       5829.9974     0.097977244
       5830.9179      0.16975988
       5831.8383      0.23252806
       5832.7588      0.16487304
       5833.6792      0.19796012
       5834.5997     0.079012353
       5835.5201      0.23019759
       5836.4406      0.28390003
       5837.3610      0.15603022
       5838.2814      0.15106843
       5839.2019      0.15019256
       5840.1223      0.15225104
       5841.0428      0.21942560
       5841.9632      0.21511598
       5842.8837      0.22213619
       5843.8041      0.19491465
       5844.7246      0.22515406
       5845.6450      0.19271270
       5846.5655      0.20349348
       5847.4859      0.21381106
       5848.4064      0.26187070
       5849.3268      0.19731500
       5850.2472      0.11671386
       5851.1677      0.26011975
       5852.0881      0.17585151
       5853.0086      0.15967782
       5853.9290      0.23025517
       5854.8495      0.16229524
       5855.7699      0.17710977
       5856.6904      0.24502686
       5857.6108      0.34224824
       5858.5313      0.26206357
       5859.4517      0.10794436
       5860.3722      0.19655729
       5861.2926      0.12554137
       5862.2131      0.21695546
       5863.1335      0.13722186
       5864.0539      0.25919141
       5864.9744      0.22381133
       5865.8948      0.23710508
       5866.8153      0.21963073
       5867.7357      0.21335168
       5868.6562      0.21457173
       5869.5766      0.36672099
       5870.4971      0.27499533
       5871.4175      0.10219960
       5872.3380      0.19173823
       5873.2584      0.17113568
       5874.1789      0.19070254
       5875.0993      0.19471517
       5876.0198      0.33475809
       5876.9402      0.14407252
       5877.8606      0.26712478
       5878.7811      0.14030213
       5879.7015      0.23684046
       5880.6220      0.27732675
       5881.5424      0.34611800
       5882.4629      0.10362695
       5883.3833      0.27705371
       5884.3038      0.11036094
       5885.2242      0.13620386
       5886.1447      0.16060314
       5887.0651     0.066685855
       5887.9856     0.047482283
       5888.9060      0.21500370
       5889.8264      0.11424561
       5890.7469      0.18221134
       5891.6673             NaN
       5892.5878             NaN
       5893.5082             NaN
       5894.4287             NaN
       5895.3491             NaN
       5896.2696             NaN
       5897.1900             NaN
       5898.1105             NaN
       5899.0309             NaN
       5899.9514             NaN
       5900.8718             NaN
       5901.7923             NaN
       5902.7127             NaN
       5903.6331             NaN
       5904.5536             NaN
       5905.4740             NaN
       5906.3945             NaN
       5907.3149             NaN
       5908.2354             NaN
       5909.1558             NaN
       5910.0763             NaN
       5910.9967             NaN
       5911.9172             NaN
       5912.8376             NaN
       5913.7581             NaN
       5914.6785             NaN
       5915.5990             NaN
       5916.5194             NaN
       5917.4398             NaN
       5918.3603             NaN
       5919.2807             NaN
       5920.2012             NaN
       5921.1216             NaN
       5922.0421             NaN
       5922.9625             NaN
       5923.8830             NaN
       5924.8034             NaN
       5925.7239             NaN
       5926.6443             NaN
       5927.5648             NaN
       5928.4852             NaN
       5929.4056             NaN
       5930.3261             NaN
       5931.2465             NaN
       5932.1670             NaN
       5933.0874             NaN
       5934.0079             NaN
       5934.9283             NaN
       5935.8488             NaN
       5936.7692             NaN
       5937.6897             NaN
       5938.6101             NaN
       5939.5306             NaN
       5940.4510             NaN
       5941.3715             NaN
       5942.2919             NaN
       5943.2123             NaN
       5944.1328             NaN
       5945.0532             NaN
       5945.9737             NaN
       5946.8941             NaN
       5947.8146             NaN
       5948.7350             NaN
       5949.6555             NaN
       5950.5759             NaN
       5951.4964             NaN
       5952.4168             NaN
       5953.3373             NaN
       5954.2577             NaN
       5955.1782             NaN
       5956.0986             NaN
       5957.0190             NaN
       5957.9395             NaN
       5958.8599             NaN
       5959.7804             NaN
       5960.7008             NaN
       5961.6213             NaN
       5962.5417             NaN
       5963.4622             NaN
       5964.3826             NaN
       5965.3031             NaN
       5966.2235             NaN
       5967.1440             NaN
       5968.0644             NaN
       5968.9848             NaN
       5969.9053             NaN
       5970.8257             NaN
       5971.7462             NaN
       5972.6666             NaN
       5973.5871    -0.014758275
       5974.5075      0.11180794
       5975.4280     0.039416931
       5976.3484    -0.077453553
       5977.2689     0.098262261
       5978.1893    -0.065071007
       5979.1098      0.17879248
       5980.0302      0.20700404
       5980.9507      0.29249316
       5981.8711      0.40860398
       5982.7915      0.17115079
       5983.7120      0.25024169
       5984.6324      0.22386976
       5985.5529      0.20809875
       5986.4733      0.13326029
       5987.3938      0.25531518
       5988.3142      0.33138713
       5989.2347      0.17637235
       5990.1551      0.31082079
       5991.0756      0.18612644
       5991.9960      0.12829112
       5992.9165      0.23032943
       5993.8369      0.17722484
       5994.7574      0.29380428
       5995.6778     0.080101439
       5996.5982      0.27015973
       5997.5187      0.13895550
       5998.4391      0.19722893
       5999.3596      0.16410012
       6000.2800      0.21433840
       6001.2005      0.21709401
       6002.1209      0.28420945
       6003.0414      0.12480719
       6003.9618      0.22085754
       6004.8823      0.14228517
       6005.8027      0.14457505
       6006.7232     0.076053003
       6007.6436      0.40564254
       6008.5640    -0.041832460
       6009.4845      0.39090531
       6010.4049      0.14747089
       6011.3254     0.039183550
       6012.2458      0.34134100
       6013.1663      0.16576462
       6014.0867      0.20471369
       6015.0072      0.34688009
       6015.9276      0.13678467
       6016.8481      0.23398763
       6017.7685      0.18068873
       6018.6890      0.17680105
       6019.6094     0.058655915
       6020.5299      0.21170943
       6021.4503      0.19783158
       6022.3707      0.15176650
       6023.2912      0.22011132
       6024.2116     0.010464433
       6025.1321      0.22678127
       6026.0525      0.20656802
       6026.9730      0.13130404
       6027.8934      0.10697716
       6028.8139      0.25249606
       6029.7343      0.19297147
       6030.6548      0.25019163
       6031.5752     0.090687300
       6032.4957      0.25575839
       6033.4161      0.18937482
       6034.3366      0.14135529
       6035.2570      0.37203268
       6036.1774      0.19070976
       6037.0979      0.18059917
       6038.0183    -0.056490730
       6038.9388     0.056569480
       6039.8592      0.19852306
       6040.7797     0.087790773
       6041.7001      0.30808516
       6042.6206      0.19640960
       6043.5410     0.079175568
       6044.4615      0.20749734
       6045.3819      0.38619902
       6046.3024      0.24594992
       6047.2228      0.17307444
       6048.1432      0.16381756
       6049.0637      0.21224885
       6049.9841     0.076263554
       6050.9046      0.25754276
       6051.8250      0.14877383
       6052.7455      0.21412542
       6053.6659      0.22347277
       6054.5864      0.29436780
       6055.5068      0.19497369
       6056.4273      0.15282239
       6057.3477      0.24319516
       6058.2682      0.12140976
       6059.1886      0.29606941
       6060.1091    -0.025358292
       6061.0295     0.050925008
       6061.9499      0.13618719
       6062.8704      0.32047144
       6063.7908      0.30225895
       6064.7113      0.18521974
       6065.6317      0.30568280
       6066.5522      0.37237119
       6067.4726      0.25459746
       6068.3931      0.17419041
       6069.3135     0.082509349
       6070.2340      0.21069399
       6071.1544      0.29714327
       6072.0749      0.10101181
       6072.9953      0.10371572
       6073.9158      0.21107996
       6074.8362      0.13788376
       6075.7566     0.051630237
       6076.6771     0.097527835
       6077.5975     0.027053815
       6078.5180      0.19770786
       6079.4384      0.29511303
       6080.3589      0.16438092
       6081.2793      0.16316998
       6082.1998      0.11683433
       6083.1202   -0.0048161105
       6084.0407    -0.095219771
       6084.9611     -0.14788472
       6085.8816     -0.17294969
       6086.8020    -0.015969087
       6087.7224      0.15545856
       6088.6429      0.18444350
       6089.5633     0.091032665
       6090.4838    -0.013086783
       6091.4042      0.17156767
       6092.3247      0.24609769
       6093.2451      0.10674602
       6094.1656      0.12958191
       6095.0860      0.17952729
       6096.0065      0.18555255
       6096.9269     0.079890612
       6097.8474      0.15548898
       6098.7678      0.13490150
       6099.6883      0.24656324
       6100.6087      0.13020681
       6101.5291   -0.0075046884
       6102.4496      0.11772071
       6103.3700     0.023528834
       6104.2905      0.32958947
       6105.2109      0.28318692
       6106.1314      0.25194791
       6107.0518      0.28456687
       6107.9723      0.24658860
       6108.8927      0.20633394
       6109.8132      0.26973748
       6110.7336      0.16821011
       6111.6541      0.13234895
       6112.5745      0.12833896
       6113.4950      0.14359623
       6114.4154      0.18734783
       6115.3358     0.098345257
       6116.2563      0.33900319
       6117.1767      0.26272096
       6118.0972      0.29824768
       6119.0176      0.17586078
       6119.9381      0.24817979
       6120.8585      0.18508351
       6121.7790      0.19355085
       6122.6994      0.25716827
       6123.6199      0.18393713
       6124.5403      0.24908073
       6125.4608     0.063998773
       6126.3812     0.094149589
       6127.3016      0.24293846
       6128.2221      0.19533677
       6129.1425      0.15086976
       6130.0630     0.081380944
       6130.9834      0.11597528
       6131.9039     -0.12326968
       6132.8243     0.041956789
       6133.7448     -0.10748041
       6134.6652      0.28311545
       6135.5857     0.051434571
       6136.5061     0.045879890
       6137.4266      0.23589990
       6138.3470      0.32753762
       6139.2675      0.13223424
       6140.1879      0.21369664
       6141.1083      0.18006316
       6142.0288      0.34304959
       6142.9492      0.20561604
       6143.8697     0.097621279
       6144.7901      0.29378121
       6145.7106      0.22266688
       6146.6310      0.16388219
       6147.5515      0.14497370
       6148.4719      0.21853440
       6149.3924      0.26315544
       6150.3128      0.36675433
       6151.2333      0.20032334
       6152.1537      0.12565582
       6153.0742      0.20235545
       6153.9946      0.23743087
       6154.9150      0.25272041
       6155.8355      0.14813911
       6156.7559      0.22434728
       6157.6764      0.25365636
       6158.5968     0.092651614
       6159.5173      0.10998466
       6160.4377      0.12957930
       6161.3582      0.27091838
       6162.2786      0.14515675
       6163.1991      0.31751266
       6164.1195      0.17133015
       6165.0400      0.24975363
       6165.9604      0.29319187
       6166.8808      0.16656990
       6167.8013     0.098475786
       6168.7217      0.22511666
       6169.6422      0.18144743
       6170.5626      0.22770505
       6171.4831     0.092146974
       6172.4035    0.0098064666
       6173.3240    -0.054001092
       6174.2444      0.26605784
       6175.1649      0.23552695
       6176.0853      0.29818070
       6177.0058     0.096045397
       6177.9262      0.14804881
       6178.8467      0.31463841
       6179.7671      0.28235961
       6180.6875      0.12535287
       6181.6080      0.18605096
       6182.5284      0.24463942
       6183.4489     0.072878603
       6184.3693      0.19428786
       6185.2898      0.12046632
       6186.2102      0.14189135
       6187.1307      0.21679283
       6188.0511      0.28704658
       6188.9716      0.31603160
       6189.8920      0.19513388
       6190.8125      0.14445885
       6191.7329      0.22489308
       6192.6534    -0.049870373
       6193.5738     0.052268368
       6194.4942      0.16167180
       6195.4147     -0.17235389
       6196.3351     -0.17704390
       6197.2556      0.25292060
       6198.1760      0.32475074
       6199.0965      0.14101827
       6200.0169      0.25795192
       6200.9374      0.30200478
       6201.8578      0.11229272
       6202.7783      0.23634899
       6203.6987     0.063404189
       6204.6192      0.31181678
       6205.5396      0.12216029
       6206.4601      0.24949292
       6207.3805      0.23452342
       6208.3009      0.13988941
       6209.2214      0.28928173
       6210.1418      0.16430774
       6211.0623      0.14333385
       6211.9827      0.19771543
       6212.9032      0.31997123
       6213.8236      0.24817316
       6214.7441      0.20162997
       6215.6645      0.27366149
       6216.5850      0.14393623
       6217.5054      0.20175076
       6218.4259     0.081923265
       6219.3463      0.25089548
       6220.2667    0.0073439894
       6221.1872      0.22544914
       6222.1076      0.33472604
       6223.0281      0.18412080
       6223.9485      0.29066976
       6224.8690      0.23343807
       6225.7894      0.30390149
       6226.7099      0.17021094
       6227.6303      0.22882357
       6228.5508      0.26106784
       6229.4712      0.26262304
       6230.3917      0.18768208
       6231.3121      0.17528503
       6232.2326      0.18902927
       6233.1530      0.17810871
       6234.0734      0.13630040
       6234.9939      0.20595346
       6235.9143      0.15205262
       6236.8348      0.24970523
       6237.7552      0.14073846
       6238.6757      0.24390541
       6239.5961      0.24074033
       6240.5166      0.17482309
       6241.4370      0.11108554
       6242.3575      0.28131941
       6243.2779     0.014866040
       6244.1984      0.12713138
       6245.1188      0.15157216
       6246.0393      0.12964570
       6246.9597     0.095143878
       6247.8801     0.051252769
       6248.8006      0.15728338
       6249.7210    -0.037593430
       6250.6415      0.20604416
       6251.5619      0.13913164
       6252.4824      0.12804909
       6253.4028     0.069861770
       6254.3233      0.21404042
       6255.2437      0.23796846
       6256.1642      0.27658188
       6257.0846      0.21226007
       6258.0051      0.19047965
       6258.9255      0.15713422
       6259.8459      0.14843605
       6260.7664      0.22820652
       6261.6868      0.17495761
       6262.6073      0.28340667
       6263.5277      0.14374904
       6264.4482     0.097603637
       6265.3686      0.24625042
       6266.2891      0.25487293
       6267.2095      0.15932181
       6268.1300      0.10422691
       6269.0504      0.11839694
       6269.9709      0.16093969
       6270.8913      0.11477618
       6271.8118      0.19670813
       6272.7322      0.24527474
       6273.6526      0.13424507
       6274.5731      0.27450445
       6275.4935      0.22186060
       6276.4140      0.19257176
       6277.3344      0.35705624
       6278.2549      0.19262801
       6279.1753      0.22801437
       6280.0958     0.090972009
       6281.0162      0.15299498
       6281.9367      0.13011142
       6282.8571      0.35273792
       6283.7776      0.28997373
       6284.6980      0.24556369
       6285.6185      0.32863361
       6286.5389      0.23583270
       6287.4593      0.17686569
       6288.3798      0.18466817
       6289.3002      0.20184085
       6290.2207      0.14205195
       6291.1411      0.21766126
       6292.0616      0.27540716
       6292.9820      0.17664735
       6293.9025      0.20629735
       6294.8229      0.22403790
       6295.7434      0.28340402
       6296.6638      0.24198415
       6297.5843      0.21240933
       6298.5047      0.22184254
       6299.4251      0.24440516
       6300.3456      0.25091146
       6301.2660      0.25775616
       6302.1865      0.14540340
       6303.1069      0.31611778
       6304.0274      0.20177981
       6304.9478      0.28412354
       6305.8683      0.35019684
       6306.7887      0.29307392
       6307.7092      0.26626632
       6308.6296      0.15379088
       6309.5501      0.20652403
       6310.4705      0.23151952
       6311.3910      0.13695582
       6312.3114      0.21392004
       6313.2318      0.16909683
       6314.1523      0.11668750
       6315.0727      0.29844614
       6315.9932      0.23968303
       6316.9136      0.28584314
       6317.8341      0.20754428
       6318.7545      0.26380303
       6319.6750      0.23965133
       6320.5954      0.27746472
       6321.5159      0.17952296
       6322.4363      0.18026835
       6323.3568      0.21545368
       6324.2772      0.20658237
       6325.1977      0.16354373
       6326.1181      0.31080566
       6327.0385      0.21275542
       6327.9590      0.24798517
       6328.8794      0.21766625
       6329.7999      0.13499662
       6330.7203      0.20290947
       6331.6408      0.12427662
       6332.5612      0.21766966
       6333.4817      0.17930628
       6334.4021      0.20986518
       6335.3226      0.19333179
       6336.2430      0.24445723
       6337.1635      0.15867369
       6338.0839      0.21154197
       6339.0043      0.21684139
       6339.9248      0.17719668
       6340.8452     0.094656255
       6341.7657      0.14911264
       6342.6861      0.14437811
       6343.6066      0.20916875
       6344.5270      0.20638815
       6345.4475      0.18515385
       6346.3679      0.29312285
       6347.2884      0.25480869
       6348.2088      0.25250202
       6349.1293      0.20589847
       6350.0497      0.23006511
       6350.9702     0.093145950
       6351.8906      0.18419592
       6352.8110      0.11095289
       6353.7315      0.24487054
       6354.6519      0.26859118
       6355.5724      0.30483407
       6356.4928      0.12851016
       6357.4133      0.18387335
       6358.3337      0.20554764
       6359.2542      0.11763351
       6360.1746      0.23377392
       6361.0951      0.19045964
       6362.0155      0.23805375
       6362.9360     0.091047647
       6363.8564      0.26758049
       6364.7769      0.18392131
       6365.6973      0.19256240
       6366.6177      0.26295601
       6367.5382      0.25813364
       6368.4586      0.22664653
       6369.3791      0.26245600
       6370.2995      0.17949735
       6371.2200      0.20133364
       6372.1404      0.24505754
       6373.0609      0.18257638
       6373.9813      0.16882478
       6374.9018      0.20397919
       6375.8222      0.31701239
       6376.7427      0.25438320
       6377.6631      0.25286112
       6378.5835      0.25676352
       6379.5040      0.22901529
       6380.4244      0.26522239
       6381.3449      0.31494365
       6382.2653      0.31602678
       6383.1858      0.17066005
       6384.1062      0.17321042
       6385.0267      0.13375072
       6385.9471      0.11445985
       6386.8676      0.16494606
       6387.7880      0.20719782
       6388.7085      0.24192047
       6389.6289      0.21020340
       6390.5494      0.34183464
       6391.4698      0.20560069
       6392.3902      0.16670047
       6393.3107      0.15096184
       6394.2311      0.26840612
       6395.1516      0.24537092
       6396.0720      0.19359998
       6396.9925      0.28885050
       6397.9129      0.19325692
       6398.8334      0.21045687
       6399.7538      0.26834674
       6400.6743      0.22918326
       6401.5947      0.24189386
       6402.5152      0.20611133
       6403.4356      0.20711869
       6404.3561      0.21954361
       6405.2765      0.22577021
       6406.1969      0.17886941
       6407.1174      0.28432063
       6408.0378      0.20401006
       6408.9583      0.23395807
       6409.8787      0.19713370
       6410.7992      0.21554298
       6411.7196      0.16782308
       6412.6401      0.24210684
       6413.5605      0.24453041
       6414.4810      0.20647893
       6415.4014      0.20154111
       6416.3219      0.27637270
       6417.2423      0.14345672
       6418.1627     0.094022381
       6419.0832      0.23188520
       6420.0036     0.096702437
       6420.9241      0.12460679
       6421.8445     0.037541687
       6422.7650      0.11978522
       6423.6854      0.16414988
       6424.6059      0.10931203
       6425.5263     0.099733367
       6426.4468      0.36650514
       6427.3672      0.25881473
       6428.2877      0.19865804
       6429.2081      0.20849057
       6430.1286      0.28767877
       6431.0490     0.095044903
       6431.9694     0.066425308
       6432.8899      0.17060492
       6433.8103      0.16147415
       6434.7308      0.14503197
       6435.6512      0.21261322
       6436.5717      0.27034703
       6437.4921      0.17768737
       6438.4126     0.094906980
       6439.3330      0.30512123
       6440.2535      0.24399403
       6441.1739      0.21976542
       6442.0944      0.18705424
       6443.0148      0.13735206
       6443.9353      0.15163276
       6444.8557      0.17190037
       6445.7761      0.16765646
       6446.6966      0.18472809
       6447.6170      0.21732705
       6448.5375      0.28688045
       6449.4579      0.12892834
       6450.3784      0.20236375
       6451.2988      0.27312970
       6452.2193      0.21057599
       6453.1397      0.20368673
       6454.0602      0.19187015
       6454.9806      0.16972994
       6455.9011      0.15246216
       6456.8215      0.20518186
       6457.7419      0.24615095
       6458.6624      0.18799216
       6459.5828      0.20660074
       6460.5033      0.20250285
       6461.4237      0.18489621
       6462.3442      0.20833388
       6463.2646      0.22572332
       6464.1851      0.16241407
       6465.1055     0.065396281
       6466.0260    -0.032234456
       6466.9464     -0.21714924
       6467.8669     -0.33545341
       6468.7873    -0.073014880
       6469.7078      0.12616282
       6470.6282      0.16509239
       6471.5486      0.27185314
       6472.4691      0.36511503
       6473.3895      0.32181550
       6474.3100      0.28051267
       6475.2304      0.18998469
       6476.1509      0.14626711
       6477.0713      0.29051506
       6477.9918      0.11159803
       6478.9122      0.19420886
       6479.8327      0.31341026
       6480.7531      0.28432684
       6481.6736      0.15716682
       6482.5940      0.18122242
       6483.5145     0.095589286
       6484.4349      0.13838084
       6485.3553      0.23610806
       6486.2758      0.16588247
       6487.1962      0.20139177
       6488.1167      0.23035221
       6489.0371      0.19786715
       6489.9576      0.23277852
       6490.8780      0.20636438
       6491.7985      0.19297924
       6492.7189      0.15789952
       6493.6394      0.28181848
       6494.5598      0.25882702
       6495.4803      0.13464099
       6496.4007     0.055754236
       6497.3211      0.25085512
       6498.2416      0.24506787
       6499.1620      0.19960814
       6500.0825      0.30079408
       6501.0029      0.23439375
       6501.9234      0.20331458
       6502.8438      0.19519467
       6503.7643      0.29562761
       6504.6847      0.14815546
       6505.6052      0.14099634
       6506.5256      0.27763459
       6507.4461      0.11592494
       6508.3665     0.018802783
       6509.2870      0.15760806
       6510.2074      0.26194649
       6511.1278     0.080359732
       6512.0483      0.28569074
       6512.9687      0.21774209
       6513.8892      0.27754153
       6514.8096     0.072827137
       6515.7301      0.27339530
       6516.6505      0.11346500
       6517.5710      0.20833223
       6518.4914      0.26018522
       6519.4119      0.25541222
       6520.3323      0.15920186
       6521.2528      0.17625415
       6522.1732      0.13803679
       6523.0937      0.34378302
       6524.0141      0.28520600
       6524.9345      0.14781268
       6525.8550      0.14536347
       6526.7754      0.23927282
       6527.6959      0.13321938
       6528.6163      0.20973232
       6529.5368      0.22395141
       6530.4572      0.12159802
       6531.3777      0.25483244
       6532.2981     -0.10255266
       6533.2186   -0.0092168316
       6534.1390      0.17146942
       6535.0595      0.26962913
       6535.9799      0.51108321
       6536.9003      0.41840744
       6537.8208      0.42088733
       6538.7412      0.31848381
       6539.6617      0.34409297
       6540.5821      0.24494731
       6541.5026      0.25750568
       6542.4230      0.17587404
       6543.3435      0.22023641
       6544.2639      0.21991032
       6545.1844      0.18222559
       6546.1048      0.23716441
       6547.0253      0.12216338
       6547.9457      0.20603342
       6548.8662      0.21696057
       6549.7866      0.15277615
       6550.7070      0.21001284
       6551.6275      0.10730825
       6552.5479      0.12410675
       6553.4684      0.22812359
       6554.3888      0.15299105
       6555.3093      0.24607979
       6556.2297      0.22970401
       6557.1502      0.21792793
       6558.0706      0.24043175
       6558.9911      0.21936398
       6559.9115      0.25721313
       6560.8320      0.56384119
       6561.7524      0.88865830
       6562.6729       1.5275034
       6563.5933       1.7644401
       6564.5137       1.9809441
       6565.4342       1.4186813
       6566.3546      0.99234375
       6567.2751      0.48729389
       6568.1955      0.38063165
       6569.1160      0.27970507
       6570.0364      0.21477029
       6570.9569      0.20494175
       6571.8773      0.16921387
       6572.7978      0.18548949
       6573.7182      0.21625000
       6574.6387      0.21026205
       6575.5591      0.24669223
       6576.4795      0.22876402
       6577.4000      0.16649508
       6578.3204      0.26428058
       6579.2409      0.22418046
       6580.1613      0.17698644
       6581.0818     0.086054223
       6582.0022     0.068759032
       6582.9227      0.19946475
       6583.8431      0.35295312
       6584.7636      0.25640248
       6585.6840      0.23631739
       6586.6045      0.21052903
       6587.5249      0.23709164
       6588.4454      0.22922866
       6589.3658      0.12102511
       6590.2862      0.13966254
       6591.2067      0.14200139
       6592.1271      0.17976722
       6593.0476      0.25749152
       6593.9680      0.26111527
       6594.8885      0.24001662
       6595.8089      0.23583549
       6596.7294      0.21076472
       6597.6498      0.14793170
       6598.5703      0.18695046
       6599.4907      0.17815816
       6600.4112      0.21722456
       6601.3316      0.23476918
       6602.2521      0.18445287
       6603.1725      0.17539928
       6604.0929      0.26105911
       6605.0134      0.21537121
       6605.9338      0.19213885
       6606.8543      0.14940185
       6607.7747      0.18108024
       6608.6952      0.17942275
       6609.6156      0.13769893
       6610.5361      0.13566993
       6611.4565      0.12108370
       6612.3770      0.21354456
       6613.2974      0.12755978
       6614.2179      0.16135439
       6615.1383      0.17653605
       6616.0587      0.12877755
       6616.9792      0.16447105
       6617.8996      0.16033603
       6618.8201      0.23201072
       6619.7405      0.20685291
       6620.6610      0.21610797
       6621.5814      0.20298536
       6622.5019      0.21737574
       6623.4223      0.17238121
       6624.3428      0.13687815
       6625.2632      0.21272040
       6626.1837      0.20640669
       6627.1041      0.24683642
       6628.0246      0.25405039
       6628.9450      0.15752485
       6629.8654      0.13239504
       6630.7859      0.26219990
       6631.7063      0.17495136
       6632.6268      0.23659850
       6633.5472      0.27315302
       6634.4677      0.18131387
       6635.3881      0.16754524
       6636.3086      0.19030530
       6637.2290      0.21336169
       6638.1495      0.25256572
       6639.0699      0.30513880
       6639.9904      0.26695198
       6640.9108      0.16487809
       6641.8313      0.19589438
       6642.7517      0.14633821
       6643.6721      0.22918622
       6644.5926      0.20624831
       6645.5130      0.19965976
       6646.4335      0.16767477
       6647.3539      0.24758417
       6648.2744      0.20720735
       6649.1948      0.22708968
       6650.1153      0.12951130
       6651.0357      0.14048424
       6651.9562      0.20528972
       6652.8766      0.22641088
       6653.7971      0.22320002
       6654.7175      0.26922213
       6655.6380      0.17259746
       6656.5584      0.18289184
       6657.4788      0.19046574
       6658.3993      0.16454097
       6659.3197      0.23350016
       6660.2402      0.20734027
       6661.1606      0.14774179
       6662.0811      0.16198875
       6663.0015      0.17297291
       6663.9220     0.088515648
       6664.8424      0.20877142
       6665.7629      0.15820258
       6666.6833      0.22503156
       6667.6038      0.20527805
       6668.5242      0.17357978
       6669.4446      0.21222874
       6670.3651      0.21285196
       6671.2855      0.14470526
       6672.2060      0.20196069
       6673.1264      0.24671940
       6674.0469      0.18390342
       6674.9673      0.25732309
       6675.8878      0.19440066
       6676.8082    -0.012509488
       6677.7287      0.20668437
       6678.6491      0.19912408
       6679.5696      0.20417504
       6680.4900     0.020457554
       6681.4105      0.10082728
       6682.3309      0.19121303
       6683.2513      0.10772593
       6684.1718      0.23419948
       6685.0922      0.11920303
       6686.0127    0.0033874076
       6686.9331      0.15967607
       6687.8536      0.31739187
       6688.7740     0.040614647
       6689.6945      0.11322367
       6690.6149    -0.040875322
       6691.5354      0.14744581
       6692.4558      0.12940282
       6693.3763      0.10386660
       6694.2967      0.35389036
       6695.2172      0.22517944
       6696.1376      0.29178379
       6697.0580      0.23726721
       6697.9785      0.18584089
       6698.8989      0.20199885
       6699.8194      0.19072482
       6700.7398      0.18146894
       6701.6603      0.24716962
       6702.5807      0.25674606
       6703.5012      0.10106667
       6704.4216      0.16195669
       6705.3421      0.22456748
       6706.2625      0.18982801
       6707.1830      0.12082261
       6708.1034      0.34181301
       6709.0238    -0.058418497
       6709.9443     0.033921143
       6710.8647      0.50152131
       6711.7852      0.20195668
       6712.7056     0.075486529
       6713.6261      0.26280187
       6714.5465      0.31797564
       6715.4670      0.34362134
       6716.3874      0.46490289
       6717.3079      0.36279312
       6718.2283      0.24818445
       6719.1488      0.18412948
       6720.0692      0.29688726
       6720.9897      0.16699351
       6721.9101      0.30486280
       6722.8305      0.29123675
       6723.7510      0.31691777
       6724.6714      0.23179413
       6725.5919      0.45126331
       6726.5123      0.52615342
       6727.4328      0.38611212
       6728.3532      0.33370428
       6729.2737      0.34867330
       6730.1941      0.31171770
       6731.1146      0.22377049
       6732.0350      0.33855441
       6732.9555      0.27210259
       6733.8759      0.36250855
       6734.7964      0.28077004
       6735.7168      0.19915815
       6736.6372      0.26980837
       6737.5577      0.15455963
       6738.4781      0.14106704
       6739.3986     0.079398593
       6740.3190      0.13870112
       6741.2395      0.18800244
       6742.1599      0.19168791
       6743.0804      0.22281462
       6744.0008      0.20951193
       6744.9213      0.24813163
       6745.8417      0.23331101
       6746.7622      0.25688021
       6747.6826      0.25654731
       6748.6030      0.20026832
       6749.5235      0.19308531
       6750.4439      0.23319764
       6751.3644      0.26311489
       6752.2848      0.24920674
       6753.2053      0.20020250
       6754.1257      0.21623301
       6755.0462      0.11174147
       6755.9666      0.23828542
       6756.8871      0.21783764
       6757.8075      0.24258813
       6758.7280      0.25949211
       6759.6484      0.19853978
       6760.5689      0.19115083
       6761.4893      0.17979368
       6762.4097      0.23035538
       6763.3302      0.19522172
       6764.2506      0.15913268
       6765.1711      0.24445709
       6766.0915      0.20148748
       6767.0120      0.21376172
       6767.9324      0.24066473
       6768.8529      0.23135007
       6769.7733      0.21139199
       6770.6938      0.17663587
       6771.6142      0.17880056
       6772.5347      0.13667556
       6773.4551      0.27620290
       6774.3756      0.22593574
       6775.2960      0.18437416
       6776.2164      0.17397764
       6777.1369      0.19786887
       6778.0573      0.24000036
       6778.9778      0.21643913
       6779.8982      0.24643539
       6780.8187      0.28906143
       6781.7391      0.23587941
       6782.6596      0.26107243
       6783.5800      0.19997643
       6784.5005      0.23856031
       6785.4209      0.19248382
       6786.3414      0.22660137
       6787.2618      0.10820037
       6788.1822     -0.13764396
       6789.1027      0.28038847
       6790.0231      0.24134464
       6790.9436      0.25723635
       6791.8640      0.30929264
       6792.7845      0.31146192
       6793.7049      0.22737970
       6794.6254      0.13280091
       6795.5458      0.14603400
       6796.4663      0.23254360
       6797.3867      0.27387556
       6798.3072      0.36932509
       6799.2276      0.19654350
       6800.1481      0.11700623
       6801.0685    -0.043382418
       6801.9889     -0.13673551
       6802.9094      0.19450072
       6803.8298     0.091186490
       6804.7503      0.23948604
       6805.6707      0.24406701
       6806.5912      0.37737123
       6807.5116      0.24915711
       6808.4321      0.24822632
       6809.3525     0.093858021
       6810.2730      0.11328214
       6811.1934      0.25351307
       6812.1139      0.17251997
       6813.0343      0.16304571
       6813.9548      0.25244434
       6814.8752      0.21566618
       6815.7956      0.12761191
       6816.7161      0.30788640
       6817.6365      0.16709139
       6818.5570      0.17118531
       6819.4774      0.27742438
       6820.3979      0.24117067
       6821.3183      0.23231824
       6822.2388      0.25203017
       6823.1592      0.23778774
       6824.0797      0.22732818
       6825.0001      0.23951156
       6825.9206      0.20405451
       6826.8410      0.21352049
       6827.7614      0.19862487
       6828.6819      0.23753991
       6829.6023      0.14011897
       6830.5228      0.21853322
       6831.4432      0.29482738
       6832.3637      0.19779155
       6833.2841      0.28026754
       6834.2046      0.25375322
       6835.1250      0.25733781
       6836.0455      0.12504943
       6836.9659     0.036312271
       6837.8864    -0.033267147
       6838.8068    0.0025929612
       6839.7273     -0.14458163
       6840.6477      0.20800969
       6841.5681      0.10558841
       6842.4886      0.12349042
       6843.4090      0.35511231
       6844.3295      0.16343154
       6845.2499      0.14253231
       6846.1704      0.37028283
       6847.0908      0.19128749
       6848.0113      0.30030980
       6848.9317      0.35701343
       6849.8522      0.22644533
       6850.7726      0.21820636
       6851.6931      0.24607985
       6852.6135      0.27966033
       6853.5340      0.11872422
       6854.4544      0.28411845
       6855.3748      0.26090544
       6856.2953     0.066056397
       6857.2157      0.16830797
       6858.1362      0.21224421
       6859.0566      0.26358515
       6859.9771      0.25113472
       6860.8975      0.36922412
       6861.8180      0.15324591
       6862.7384      0.34258836
       6863.6589      0.18902182
       6864.5793      0.28883679
       6865.4998      0.23780455
       6866.4202      0.27410348
       6867.3406      0.22309169
       6868.2611      0.14261241
       6869.1815      0.13396544
       6870.1020     0.083084577
       6871.0224     0.042020005
       6871.9429    -0.035204061
       6872.8633      0.31436867
       6873.7838      0.20599984
       6874.7042      0.12452933
       6875.6247      0.20964937
       6876.5451      0.14724172
       6877.4656      0.24370654
       6878.3860      0.25390929
       6879.3065      0.21175496
       6880.2269      0.18852954
       6881.1473      0.27586506
       6882.0678     0.080399038
       6882.9882    -0.015529496
       6883.9087     0.041138990
       6884.8291      0.11424078
       6885.7496     0.070594010
       6886.6700     0.057706441
       6887.5905      0.35442412
       6888.5109      0.32472941
       6889.4314      0.27009662
       6890.3518      0.20006876
       6891.2723      0.18151052
       6892.1927      0.21252889
       6893.1132     0.066953753
       6894.0336      0.20019692
       6894.9540      0.28943603
       6895.8745      0.36660911
       6896.7949      0.27266370
       6897.7154      0.34631151
       6898.6358      0.12178445
       6899.5563     0.096385242
       6900.4767      0.20821491
       6901.3972      0.16567308
       6902.3176      0.15796215
       6903.2381      0.20010186
       6904.1585      0.28089109
       6905.0790      0.17867125
       6905.9994      0.17188575
       6906.9198      0.18718720
       6907.8403      0.15557853
       6908.7607      0.26873134
       6909.6812      0.22432406
       6910.6016    0.0019883108
       6911.5221     -0.25541742
       6912.4425      0.10626339
       6913.3630      0.30754214
       6914.2834      0.31456783
       6915.2039      0.77921597
       6916.1243      0.52958042
       6917.0448      0.33353295
       6917.9652      0.31762140
       6918.8857      0.21765995
       6919.8061      0.25995077
       6920.7265      0.20311832
       6921.6470      0.21953009
       6922.5674      0.20954646
       6923.4879      0.16079085
       6924.4083      0.16654569
       6925.3288      0.23581798
       6926.2492      0.29255252
       6927.1697      0.19894735
       6928.0901     0.052666051
       6929.0106      0.17835320
       6929.9310      0.19066558
       6930.8515      0.27335502
       6931.7719      0.37551127
       6932.6924      0.32016481
       6933.6128     0.053509373
       6934.5332      0.26208687
       6935.4537      0.20254627
       6936.3741      0.23899721
       6937.2946      0.20731950
       6938.2150      0.10437961
       6939.1355      0.21213575
       6940.0559      0.14390352
       6940.9764     0.018463615
       6941.8968     0.077323420
       6942.8173      0.33952455
       6943.7377      0.23123143
       6944.6582      0.37565133
       6945.5786      0.29068788
       6946.4990      0.22963294
       6947.4195      0.14769929
       6948.3399      0.19131804
       6949.2604      0.18614719
       6950.1808      0.16170648
       6951.1013      0.14522660
       6952.0217      0.21887606
       6952.9422      0.18843145
       6953.8626      0.10844521
       6954.7831      0.24720345
       6955.7035      0.20051266
       6956.6240      0.21551358
       6957.5444      0.18085317
       6958.4649      0.11747996
       6959.3853      0.21878538
       6960.3057      0.21305050
       6961.2262      0.21351609
       6962.1466      0.15462016
       6963.0671      0.28851153
       6963.9875      0.22099642
       6964.9080      0.14081475
       6965.8284      0.11665376
       6966.7489      0.19027177
       6967.6693      0.30114179
       6968.5898      0.19528739
       6969.5102      0.19208732
       6970.4307     0.067370253
       6971.3511      0.17076136
       6972.2716      0.30652344
       6973.1920     0.060790024
       6974.1124      0.18961006
       6975.0329      0.22175549
       6975.9533      0.12835982
       6976.8738      0.19332611
       6977.7942      0.25790347
       6978.7147      0.20685244
       6979.6351      0.19286131
       6980.5556      0.13710237
       6981.4760      0.17600050
       6982.3965      0.20116399
       6983.3169      0.20576595
       6984.2374      0.24479664
       6985.1578      0.19665717
       6986.0782      0.16854396
       6986.9987      0.22826222
       6987.9191      0.18604865
       6988.8396      0.23596322
       6989.7600      0.20411902
       6990.6805      0.13520581
       6991.6009      0.25180061
       6992.5214      0.25314985
       6993.4418      0.22438168
       6994.3623      0.10317670
       6995.2827      0.16849750
       6996.2032      0.16509089
       6997.1236      0.14475938
       6998.0441      0.26378005
       6998.9645      0.25216001
       6999.8849      0.15199295
       7000.8054      0.28540387
       7001.7258      0.20232472
       7002.6463     0.016904518
       7003.5667      0.22291359
       7004.4872      0.24250594
       7005.4076     0.075272325
       7006.3281     0.016962421
       7007.2485      0.13161551
       7008.1690      0.14510058
       7009.0894     0.093498760
       7010.0099      0.15104891
       7010.9303      0.24089319
       7011.8508      0.24294134
       7012.7712      0.15751534
       7013.6916      0.12739313
       7014.6121      0.20347583
       7015.5325      0.22366321
       7016.4530      0.29212672
       7017.3734      0.23288541
       7018.2939      0.27122320
       7019.2143      0.28931715
       7020.1348      0.28510215
       7021.0552      0.20585361
       7021.9757      0.18879026
       7022.8961      0.15153271
       7023.8166      0.15174647
       7024.7370      0.19781715
       7025.6574      0.26525502
       7026.5779      0.26147679
       7027.4983      0.16128539
       7028.4188      0.19406482
       7029.3392      0.19130521
       7030.2597      0.23716104
       7031.1801      0.19835971
       7032.1006      0.13185189
       7033.0210      0.20417253
       7033.9415      0.22146741
       7034.8619      0.21382442
       7035.7824      0.18984738
       7036.7028      0.21237963
       7037.6233      0.18417057
       7038.5437      0.23643654
       7039.4641      0.22549111
       7040.3846      0.19733848
       7041.3050      0.24056952
       7042.2255      0.21282433
       7043.1459      0.15686199
       7044.0664      0.20540772
       7044.9868      0.21647943
       7045.9073      0.22483997
       7046.8277      0.25056275
       7047.7482      0.17422150
       7048.6686      0.10040596
       7049.5891      0.19452581
       7050.5095      0.16497643
       7051.4300     0.084255926
       7052.3504      0.21806431
       7053.2708      0.16371019
       7054.1913      0.22271913
       7055.1117      0.24719084
       7056.0322      0.25215029
       7056.9526      0.16327350
       7057.8731      0.20654790
       7058.7935      0.19112869
       7059.7140      0.13254704
       7060.6344      0.19121780
       7061.5549      0.16005298
       7062.4753      0.23121345
       7063.3958      0.25023866
       7064.3162      0.22729441
       7065.2366      0.24920976
       7066.1571      0.18697852
       7067.0775      0.18615828
       7067.9980      0.17347396
       7068.9184      0.25369885
       7069.8389      0.21349025
       7070.7593      0.20356469
       7071.6798      0.21963640
       7072.6002      0.24188065
       7073.5207      0.23632673
       7074.4411      0.20680880
       7075.3616      0.20286075
       7076.2820      0.16411140
       7077.2025      0.26344880
       7078.1229      0.15688835
       7079.0433      0.20117614
       7079.9638      0.19135746
       7080.8842      0.18021517
       7081.8047      0.15812069
       7082.7251      0.25167966
       7083.6456      0.25398104
       7084.5660      0.23396329
       7085.4865      0.25688444
       7086.4069      0.21562849
       7087.3274      0.30573115
       7088.2478      0.17290277
       7089.1683      0.14032104
       7090.0887      0.22837957
       7091.0092      0.20184163
       7091.9296      0.17382386
       7092.8500      0.23167268
       7093.7705      0.19266147
       7094.6909      0.18644360
       7095.6114      0.23868192
       7096.5318      0.12913144
       7097.4523      0.22868516
       7098.3727      0.21202482
       7099.2932      0.34486516
       7100.2136      0.31672892
       7101.1341      0.28357606
       7102.0545      0.31934884
       7102.9750      0.27778623
       7103.8954      0.25231342
       7104.8158      0.10208688
       7105.7363      0.22166513
       7106.6567      0.30738890
       7107.5772      0.29997636
       7108.4976      0.19974426
       7109.4181      0.18295390
       7110.3385      0.16439757
       7111.2590      0.17978282
       7112.1794      0.24009752
       7113.0999      0.29453137
       7114.0203      0.18508495
       7114.9408      0.27330988
       7115.8612      0.26052336
       7116.7817      0.16608487
       7117.7021      0.16994517
       7118.6225      0.19558360
       7119.5430      0.23724479
       7120.4634      0.23730913
       7121.3839      0.31641247
       7122.3043      0.25456417
       7123.2248      0.24885588
       7124.1452      0.21455102
       7125.0657      0.24653045
       7125.9861      0.15487649
       7126.9066      0.27915640
       7127.8270      0.20114949
       7128.7475      0.24331673
       7129.6679      0.21334278
       7130.5884      0.25035570
       7131.5088      0.26758031
       7132.4292      0.24730928
       7133.3497      0.29045208
       7134.2701      0.34857822
       7135.1906      0.25340115
       7136.1110      0.22205868
       7137.0315      0.24118705
       7137.9519      0.25993330
       7138.8724      0.20953450
       7139.7928      0.19733441
       7140.7133     0.090153611
       7141.6337      0.21048840
       7142.5542      0.26934436
       7143.4746      0.17848840
       7144.3951      0.13430340
       7145.3155      0.19523742
       7146.2359      0.32181777
       7147.1564      0.26732936
       7148.0768      0.22862706
       7148.9973      0.23319519
       7149.9177      0.17413842
       7150.8382      0.22455456
       7151.7586      0.18561541
       7152.6791      0.29432039
       7153.5995      0.28114836
       7154.5200      0.24161211
       7155.4404      0.26239002
       7156.3609      0.24056892
       7157.2813      0.18506419
       7158.2017      0.25137849
       7159.1222      0.23469175
       7160.0426      0.14496873
       7160.9631      0.10433120
       7161.8835      0.25510663
       7162.8040      0.18853799
       7163.7244      0.18699543
       7164.6449      0.22720154
       7165.5653      0.18978489
       7166.4858      0.22667511
       7167.4062      0.26561344
       7168.3267      0.18327510
       7169.2471      0.18727264
       7170.1676      0.24973945
       7171.0880      0.23784137
       7172.0084      0.21338000
       7172.9289      0.26008705
       7173.8493      0.27759625
       7174.7698      0.19947689
       7175.6902      0.21448331
       7176.6107      0.24869540
       7177.5311      0.18491350
       7178.4516      0.27469988
       7179.3720      0.23877729
       7180.2925      0.19536123
       7181.2129      0.28374052
       7182.1334      0.29060584
       7183.0538      0.17875649
       7183.9743      0.19883974
       7184.8947      0.27327925
       7185.8151      0.32406661
       7186.7356      0.18594796
       7187.6560      0.20488047
       7188.5765      0.25075444
       7189.4969      0.19017646
       7190.4174      0.24702052
       7191.3378      0.29310211
       7192.2583      0.16485585
       7193.1787      0.19849155
       7194.0992      0.20038242
       7195.0196      0.10131227
       7195.9401     0.092877925
       7196.8605      0.29328136
       7197.7809      0.20710583
       7198.7014      0.16304188
       7199.6218      0.16112142
       7200.5423      0.25428740
       7201.4627      0.26612252
       7202.3832      0.10515347
       7203.3036      0.11983429
       7204.2241     0.086467861
       7205.1445      0.16781712
       7206.0650      0.17670824
       7206.9854      0.13651637
       7207.9059      0.41400326
       7208.8263     0.037314480
       7209.7468      0.17903029
       7210.6672      0.46809224
       7211.5876      0.60387180
       7212.5081      0.58001720
       7213.4285      0.29598926
       7214.3490      0.65924152
       7215.2694      0.33153808
       7216.1899      0.36807146
       7217.1103   -0.0091621040
       7218.0308      0.30790712
       7218.9512      0.23723968
       7219.8717    0.0053715429
       7220.7921     0.097483563
       7221.7126     0.043954331
       7222.6330      0.31812365
       7223.5535      0.22257059
       7224.4739      0.22053802
       7225.3943      0.36984050
       7226.3148      0.18403321
       7227.2352      0.15803978
       7228.1557      0.25166890
       7229.0761      0.26962145
       7229.9966      0.34800768
       7230.9170      0.25014727
       7231.8375      0.25502053
       7232.7579      0.23461267
       7233.6784      0.10492823
       7234.5988     0.058532073
       7235.5193      0.14540432
       7236.4397      0.20271524
       7237.3601      0.23617140
       7238.2806      0.20586953
       7239.2010      0.13272256
       7240.1215    -0.020892691
       7241.0419     0.071991420
       7241.9624     0.013984309
       7242.8828      0.16911222
       7243.8033      0.16631837
       7244.7237      0.27344088
       7245.6442      0.20643789
       7246.5646      0.22674205
       7247.4851      0.25572146
       7248.4055      0.11886082
       7249.3260     0.094895651
       7250.2464      0.13619581
       7251.1668      0.11645306
       7252.0873      0.23346034
       7253.0077      0.21329558
       7253.9282      0.27119635
       7254.8486      0.19229470
       7255.7691      0.15713485
       7256.6895      0.14233985
       7257.6100      0.21499016
       7258.5304      0.18413974
       7259.4509      0.50280808
       7260.3713     -0.54901682
       7261.2918     -0.56927559
       7262.2122     -0.48336013
       7263.1327    -0.094839366
       7264.0531      0.53545540
       7264.9735      0.52062711
       7265.8940      0.75389085
       7266.8144      0.23454031
       7267.7349      0.12848801
       7268.6553      0.11164923
       7269.5758     0.090399050
       7270.4962     0.090260299
       7271.4167     0.094237892
       7272.3371      0.18979429
       7273.2576      0.19298124
       7274.1780      0.19904646
       7275.0985      0.20564592
       7276.0189      0.24329470
       7276.9393      0.27078906
       7277.8598      0.16390010
       7278.7802      0.11867047
       7279.7007      0.28813483
       7280.6211      0.16647201
       7281.5416      0.12727572
       7282.4620      0.24309515
       7283.3825      0.26158761
       7284.3029      0.22912239
       7285.2234      0.10180793
       7286.1438      0.10059138
       7287.0643      0.11473283
       7287.9847      0.14420950
       7288.9052      0.24791228
       7289.8256      0.10276017
       7290.7460      0.22090524
       7291.6665      0.16276938
       7292.5869     0.057287979
       7293.5074     0.082628031
       7294.4278     0.035661418
       7295.3483     0.078741027
       7296.2687      0.40182107
       7297.1892     0.027469379
       7298.1096    -0.069260591
       7299.0301     -0.21211295
       7299.9505     -0.25066697
       7300.8710    -0.044191892
       7301.7914      0.15396534
       7302.7119      0.12920615
       7303.6323     0.059331745
       7304.5527      0.14678154
       7305.4732      0.10713330
       7306.3936     0.020151346
       7307.3141     0.045447518
       7308.2345      0.25126661
       7309.1550    -0.083202363
       7310.0754     -0.12100417
       7310.9959     -0.23878249
       7311.9163     -0.24864470
       7312.8368      0.27958720
       7313.7572      0.52117750
       7314.6777      0.13707860
       7315.5981      0.18121424
       7316.5185     0.088967185
       7317.4390      0.13548406
       7318.3594      0.20642618
       7319.2799      0.12311254
       7320.2003      0.19221277
       7321.1208      0.15938570
       7322.0412      0.21666304
       7322.9617      0.35321458
       7323.8821      0.12831984
       7324.8026      0.32805349
       7325.7230      0.23574256
       7326.6435      0.10533780
       7327.5639      0.26062612
       7328.4844    0.0017656953
       7329.4048    -0.011163164
       7330.3252      0.27869172
       7331.2457     0.091887260
       7332.1661      0.11106463
       7333.0866      0.22754921
       7334.0070      0.14044169
       7334.9275      0.12692798
       7335.8479     0.081716957
       7336.7684      0.36556822
       7337.6888      0.22977038
       7338.6093    -0.044827588
       7339.5297     0.030347526
       7340.4502    -0.052381108
       7341.3706      0.36235754
       7342.2911      0.51943603
       7343.2115     0.084326380
       7344.1319      0.19916381
       7345.0524      0.21830078
       7345.9728     0.078347096
       7346.8933      0.18431720
       7347.8137      0.14453941
       7348.7342      0.11342436
       7349.6546      0.14211932
       7350.5751      0.26637084
       7351.4955      0.10798870
       7352.4160      0.15395608
       7353.3364     0.098601959
       7354.2569      0.13209670
       7355.1773      0.10894860
       7356.0977     0.085032853
       7357.0182      0.29503265
       7357.9386    -0.031499423
       7358.8591      0.10354614
       7359.7795     0.091981307
       7360.7000   -0.0034341357
       7361.6204    -0.029022222
       7362.5409    -0.027799114
       7363.4613   -0.0075886673
       7364.3818      0.14019972
       7365.3022      0.20535545
       7366.2227     0.080346119
       7367.1431     -0.12923487
       7368.0636    -0.064810729
       7368.9840    -0.042408894
       7369.9044     -0.17584411
       7370.8249     -0.40932500
       7371.7453     -0.33866286
       7372.6658     -0.10927552
       7373.5862    0.0064326975
       7374.5067      0.21768119
       7375.4271      0.25283172
       7376.3476      0.24646806
       7377.2680      0.18731847
       7378.1885      0.23577712
       7379.1089      0.18900855
       7380.0294      0.12029348
       7380.9498      0.25480261
       7381.8703      0.21325700
       7382.7907      0.14390097
       7383.7111     0.094296424
       7384.6316      0.24095795
       7385.5520      0.13332123
       7386.4725      0.21455846
       7387.3929      0.27415491
       7388.3134      0.23018306
       7389.2338      0.23918323
       7390.1543      0.22042611
       7391.0747      0.14717107
       7391.9952      0.14733606
       7392.9156      0.11488446
       7393.8361     0.083621488
       7394.7565      0.14470082
       7395.6769      0.11778312
       7396.5974      0.15065465
       7397.5178      0.18325931
       7398.4383    -0.056081994
       7399.3587      0.33974063
       7400.2792      0.37868194
       7401.1996      0.15558082
       7402.1201      0.11286707
       7403.0405      0.19473734
       7403.9610      0.18349253
       7404.8814      0.16833033
       7405.8019      0.22456287
       7406.7223      0.20934582
       7407.6428    -0.015564424
       7408.5632      0.13278094
       7409.4836      0.27540752
       7410.4041      0.65144475
       7411.3245      0.84690544
       7412.2450       1.2485565
       7413.1654       1.2139935
       7414.0859      0.60290321
       7415.0063      0.40066848
       7415.9268      0.21901639
       7416.8472      0.14520451
       7417.7677      0.22867581
       7418.6881      0.16392824
       7419.6086     0.085802105
       7420.5290      0.12986354
       7421.4495      0.14999594
       7422.3699      0.18146906
       7423.2903      0.10149325
       7424.2108      0.20910106
       7425.1312      0.20895101
       7426.0517      0.23954831
       7426.9721      0.18385869
       7427.8926      0.15546613
       7428.8130      0.11287812
       7429.7335      0.22554987
       7430.6539      0.25129812
       7431.5744      0.20729831
       7432.4948      0.18751015
       7433.4153      0.19939795
       7434.3357      0.17816504
       7435.2561      0.14133480
       7436.1766      0.17763702
       7437.0970      0.12669675
       7438.0175     0.056947626
       7438.9379     0.019490330
       7439.8584     0.048902409
       7440.7788      0.12795204
       7441.6993      0.27656528
       7442.6197      0.22407780
       7443.5402      0.22784978
       7444.4606      0.22325459
       7445.3811      0.13488630
       7446.3015      0.18276435
       7447.2220      0.11156346
       7448.1424     0.097857377
       7449.0628      0.19647037
       7449.9833      0.37031667
       7450.9037      0.20680698
       7451.8242      0.20066620
       7452.7446      0.24115204
       7453.6651      0.32745824
       7454.5855      0.21806805
       7455.5060      0.15137963
       7456.4264      0.14442622
       7457.3469      0.13443200
       7458.2673      0.20825275
       7459.1878      0.16753449
       7460.1082      0.26700053
       7461.0287      0.19332058
       7461.9491      0.16743495
       7462.8695      0.13211782
       7463.7900      0.17557277
       7464.7104      0.10946221
       7465.6309      0.12119474
       7466.5513      0.13711791
       7467.4718      0.14097773
       7468.3922      0.20764453
       7469.3127      0.24218983
       7470.2331      0.25328689
       7471.1536      0.24872182
       7472.0740      0.17703501
       7472.9945      0.12801579
       7473.9149      0.15967407
       7474.8353      0.13478903
       7475.7558      0.11966562
       7476.6762      0.24963276
       7477.5967      0.22814587
       7478.5171      0.13473656
       7479.4376      0.15717926
       7480.3580      0.15606509
       7481.2785      0.12242041
       7482.1989      0.19275187
       7483.1194      0.20445373
       7484.0398      0.22465693
       7484.9603      0.20829735
       7485.8807      0.13042122
       7486.8012     0.032995297
       7487.7216      0.21546077
       7488.6420      0.24775357
       7489.5625      0.16301340
       7490.4829      0.27330622
       7491.4034      0.34089336
       7492.3238      0.28043616
       7493.2443      0.39490854
       7494.1647      0.14270325
       7495.0852     0.030189724
       7496.0056    -0.075723598
       7496.9261   -0.0011622928
       7497.8465      0.17202420
       7498.7670      0.30809038
       7499.6874      0.26337287
       7500.6079      0.19935806
       7501.5283      0.22680554
       7502.4487      0.22615909
       7503.3692      0.35786417
       7504.2896      0.25574076
       7505.2101      0.31769049
       7506.1305      0.19580358
       7507.0510      0.21427261
       7507.9714      0.36139274
       7508.8919      0.21128634
       7509.8123      0.18417104
       7510.7328     0.096945602
       7511.6532      0.10080297
       7512.5737      0.31049476
       7513.4941     0.063006785
       7514.4145     0.077324905
       7515.3350      0.15187666
       7516.2554      0.22632074
       7517.1759      0.28562404
       7518.0963      0.19878322
       7519.0168      0.24609660
       7519.9372     0.054206316
       7520.8577      0.21384381
       7521.7781      0.16322477
       7522.6986      0.24760173
       7523.6190      0.36472084
       7524.5395      0.10606707
       7525.4599     0.051362384
       7526.3804      0.23361402
       7527.3008     0.046964831
       7528.2212      0.22929295
       7529.1417     -0.18338004
       7530.0621     -0.11512100
       7530.9826      0.27391953
       7531.9030      0.24068648
       7532.8235      0.26374212
       7533.7439      0.10647436
       7534.6644      0.20370645
       7535.5848      0.27968820
       7536.5053      0.22386252
       7537.4257      0.29073693
       7538.3462     0.074989821
       7539.2666    -0.070181806
       7540.1871      0.14258068
       7541.1075      0.30689752
       7542.0279      0.49912350
       7542.9484      0.40109874
       7543.8688      0.19616197
       7544.7893      0.18436477
       7545.7097      0.12006746
       7546.6302      0.18031407
       7547.5506      0.13692851
       7548.4711      0.17468079
       7549.3915      0.20541583
       7550.3120      0.30564292
       7551.2324      0.29997974
       7552.1529      0.17558128
       7553.0733      0.28794672
       7553.9937      0.29981882
       7554.9142      0.29827771
       7555.8346      0.25960119
       7556.7551      0.18805723
       7557.6755      0.29270801
       7558.5960      0.22074842
       7559.5164      0.31287652
       7560.4369      0.18235520
       7561.3573      0.29382686
       7562.2778      0.35795086
       7563.1982      0.23751887
       7564.1187      0.24892784
       7565.0391      0.33212938
       7565.9596      0.56570704
       7566.8800       1.0663240
       7567.8004       2.2275432
       7568.7209       1.3543780
       7569.6413      0.48458552
       7570.5618      0.37950514
       7571.4822      0.26293545
       7572.4027      0.27231998
       7573.3231      0.25526843
       7574.2436      0.20457604
       7575.1640      0.15579071
       7576.0845      0.14111658
       7577.0049      0.25679016
       7577.9254      0.57476056
       7578.8458      0.95417349
       7579.7663      0.32612621
       7580.6867      0.17724168
       7581.6071     0.074818758
       7582.5276       1.0876051
       7583.4480       1.4321069
       7584.3685      0.93531150
       7585.2889      0.55116267
       7586.2094      0.51184086
       7587.1298      0.46468904
       7588.0503      0.20585121
       7588.9707      0.36709314
       7589.8912      0.32349448
       7590.8116      0.13515482
       7591.7321      0.15148041
       7592.6525     0.020855193
       7593.5730      0.16672529
       7594.4934      0.28150650
       7595.4138      0.33493823
       7596.3343      0.31864310
       7597.2547      0.23494903
       7598.1752      0.30072954
       7599.0956      0.12284723
       7600.0161     0.014968176
       7600.9365      0.26763434
       7601.8570      0.27262608
       7602.7774      0.21072999
       7603.6979      0.17374189
       7604.6183      0.24919625
       7605.5388      0.15810888
       7606.4592      0.19542718
       7607.3796      0.19521043
       7608.3001      0.28401133
       7609.2205      0.28968676
       7610.1410      0.20765455
       7611.0614      0.21762832
       7611.9819      0.30383446
       7612.9023      0.17075222
       7613.8228      0.22584407
       7614.7432      0.14576176
       7615.6637      0.13730943
       7616.5841      0.21441704
       7617.5046      0.26526553
       7618.4250      0.25659500
       7619.3455      0.21678188
       7620.2659      0.21154119
       7621.1863      0.20424000
       7622.1068      0.32435888
       7623.0272      0.17910761
       7623.9477      0.16364426
       7624.8681      0.19445331
       7625.7886      0.17733492
       7626.7090      0.16663928
       7627.6295     0.018103571
       7628.5499      0.24141066
       7629.4704      0.17577509
       7630.3908      0.21820390
       7631.3113      0.25112076
       7632.2317      0.18472910
       7633.1522      0.12166062
       7634.0726     0.089651579
       7634.9930      0.14425173
       7635.9135      0.17884213
       7636.8339      0.23887712
       7637.7544      0.24826951
       7638.6748      0.22508532
       7639.5953      0.14405948
       7640.5157      0.65168921
       7641.4362      0.22516568
       7642.3566      0.28035291
       7643.2771    -0.094243402
       7644.1975     -0.15356742
       7645.1180     -0.31069113
       7646.0384      -1.3352317
       7646.9588     -0.45381892
       7647.8793     0.054473874
       7648.7997      0.20447410
       7649.7202      0.20031764
       7650.6406      0.15680925
       7651.5611      0.17634662
       7652.4815      0.14570082
       7653.4020      0.16571588
       7654.3224      0.24021221
       7655.2429      0.14445472
       7656.1633    0.0086022202
       7657.0838      0.31612670
       7658.0042      0.63198843
       7658.9247      0.23557935
       7659.8451    -0.052935773
       7660.7655      0.17644056
       7661.6860      0.35423291
       7662.6064     0.062686895
       7663.5269      0.16099015
       7664.4473      0.19410393
       7665.3678      0.16658218
       7666.2882     0.073204030
       7667.2087      0.20962001
       7668.1291     0.062012920
       7669.0496      0.19429680
       7669.9700      0.22447164
       7670.8905      0.15915711
       7671.8109      0.16718631
       7672.7314     0.011083617
       7673.6518     -0.17190758
       7674.5722     -0.41121866
       7675.4927      0.13390565
       7676.4131      0.21427810
       7677.3336      0.69727701
       7678.2540     -0.29786674
       7679.1745      0.14153520
       7680.0949      0.25316009
       7681.0154      0.17996185
       7681.9358      0.25380443
       7682.8563      0.24786168
       7683.7767     0.074222901
       7684.6972      0.19585989
       7685.6176      0.20033765
       7686.5380      0.17598572
       7687.4585      0.16428132
       7688.3789      0.12834530
       7689.2994      0.12590837
       7690.2198      0.19490361
       7691.1403      0.18896486
       7692.0607      0.16987631
       7692.9812      0.24672553
       7693.9016      0.37185309
       7694.8221     -0.27792101
       7695.7425    -0.015370552
       7696.6630      0.53443907
       7697.5834      0.41006480
       7698.5039     0.019955997
       7699.4243     0.070327352
       7700.3447      0.21945369
       7701.2652      0.53099108
       7702.1856     0.038083365
       7703.1061     -0.22410081
       7704.0265     0.029904030
       7704.9470      0.36130593
       7705.8674      0.36959971
       7706.7879     -0.14027272
       7707.7083     -0.27820851
       7708.6288     0.085880934
       7709.5492      0.58775437
       7710.4697     0.065811031
       7711.3901     -0.32860853
       7712.3106     0.012135270
       7713.2310      0.23036074
       7714.1514      0.34797630
       7715.0719      0.16364269
       7715.9923      0.35590247
       7716.9128      0.19513148
       7717.8332      0.14419283
       7718.7537    -0.089773643
       7719.6741     -0.14264458
       7720.5946     0.086264111
       7721.5150      0.15913439
       7722.4355      0.33115792
       7723.3559      0.23599123
       7724.2764      0.12165083
       7725.1968      0.12625830
       7726.1172      0.31317489
       7727.0377      0.24965489
       7727.9581      0.32302460
       7728.8786      0.25726977
       7729.7990      0.10460827
       7730.7195      0.13066547
       7731.6399      0.13421538
       7732.5604      0.28474076
       7733.4808      0.29035630
       7734.4013      0.13456793
       7735.3217     0.090585930
       7736.2422      0.14203057
       7737.1626      0.22773616
       7738.0831   -0.0028588576
       7739.0035      0.24234094
       7739.9239      0.23316723
       7740.8444      0.23591621
       7741.7648      0.32098345
       7742.6853     0.028886097
       7743.6057     0.011163581
       7744.5262      0.13412371
       7745.4466      0.10663414
       7746.3671      0.21309004
       7747.2875      0.23069880
       7748.2080      0.49496473
       7749.1284      0.54306327
       7750.0489      -1.0392785
       7750.9693     -0.17876852
       7751.8898      0.43819930
       7752.8102      0.26355089
       7753.7306      0.36557591
       7754.6511      0.70491633
       7755.5715      0.63030776
       7756.4920      0.24436964
       7757.4124      0.30274998
       7758.3329      0.39693530
       7759.2533      0.32934412
       7760.1738     0.040977027
       7761.0942      0.17524648
       7762.0147      0.55720008
       7762.9351     -0.13736945
       7763.8556     0.089835535
       7764.7760      0.33121526
       7765.6964      0.18184585
       7766.6169      0.17171291
       7767.5373      0.23800855
       7768.4578      0.26244028
       7769.3782      0.21052050
       7770.2987      0.27967357
       7771.2191      0.37506280
       7772.1396      0.14274699
       7773.0600      0.21432738
       7773.9805    0.0081335835
       7774.9009     0.040571096
       7775.8214    -0.062346890
       7776.7418      0.20497891
       7777.6623     0.083218324
       7778.5827      0.10871252
       7779.5031     0.079510095
       7780.4236      0.37013249
       7781.3440      0.22690775
       7782.2645      0.30104534
       7783.1849      0.13310359
       7784.1054      0.25374025
       7785.0258      0.47308750
       7785.9463     0.044887511
       7786.8667      0.11180799
       7787.7872      0.13185504
       7788.7076    -0.044127623
       7789.6281     0.069651063
       7790.5485     -0.17744654
       7791.4690      0.10583591
       7792.3894      0.20622713
       7793.3098     0.066300055
       7794.2303      0.14091428
       7795.1507     0.025277796
       7796.0712     0.027972364
       7796.9916      0.29107332
       7797.9121      0.10287485
       7798.8325     0.091805976
       7799.7530      0.23732707
       7800.6734      0.26497316
       7801.5939      0.18634835
       7802.5143      0.33719558
       7803.4348      0.59548580
       7804.3552     0.097469889
       7805.2756    -0.055336394
       7806.1961      0.11865435
       7807.1165    -0.097468823
       7808.0370      0.45252977
       7808.9574      0.39602455
       7809.8779      0.15161775
       7810.7983     0.028832795
       7811.7188      0.16883225
       7812.6392      0.27239046
       7813.5597      0.32975104
       7814.4801      0.12757319
       7815.4006     0.026225911
       7816.3210    -0.011381312
       7817.2415    -0.011139699
       7818.1619      0.10714105
       7819.0823      0.36525974
       7820.0028      0.17211633
       7820.9232    -0.037235592
       7821.8437     -0.34688447
       7822.7641      0.11208874
       7823.6846     0.042538891
       7824.6050   -0.0042511513
       7825.5255    -0.014536736
       7826.4459      0.18367959
       7827.3664     0.017482329
       7828.2868      0.12201279
       7829.2073     0.054749918
       7830.1277      0.16929037
       7831.0482      0.22263522
       7831.9686      0.13380322
       7832.8890     0.064494065
       7833.8095      0.29704329
       7834.7299      0.27203624
       7835.6504      0.17518914
       7836.5708      0.30282013
       7837.4913      0.50526710
       7838.4117       1.2486439
       7839.3322    -0.023775859
       7840.2526     0.074281753
       7841.1731      0.14442474
       7842.0935     0.018699023
       7843.0140     0.057840928
       7843.9344      0.13139379
       7844.8548      0.15968988
       7845.7753      0.42013720
       7846.6957      0.44096766
       7847.6162      0.28221343
       7848.5366      0.13432503
       7849.4571     -0.43994338
       7850.3775     -0.22840163
       7851.2980     0.027460674
       7852.2184      0.28167739
       7853.1389      0.20210791
       7854.0593      0.26630160
       7854.9798    -0.018936251
       7855.9002      0.33998759
       7856.8207      0.14146409
       7857.7411     0.042764990
       7858.6615    -0.090226776
       7859.5820      0.11529045
       7860.5024      0.12636148
       7861.4229    -0.096410025
       7862.3433     -0.13849696
       7863.2638     0.094222612
       7864.1842     0.038106587
       7865.1047      0.14261730
       7866.0251      0.22225330
       7866.9456     0.081568809
       7867.8660      0.15836717
       7868.7865      0.45247013
       7869.7069      0.29312902
       7870.6274      0.58405637
       7871.5478    -0.059762187
       7872.4682     -0.51838049
       7873.3887     -0.10027443
       7874.3091      0.37704241
       7875.2296      0.33494625
       7876.1500     0.025377930
       7877.0705      0.52633732
       7877.9909      0.47378044
       7878.9114      0.61120292
       7879.8318      0.33286020
       7880.7523      0.31096436
       7881.6727     0.053627366
       7882.5932     0.094192912
       7883.5136     0.011047196
       7884.4340      0.63168610
       7885.3545    0.0037131938
       7886.2749    -0.044482149
       7887.1954      0.18912168
       7888.1158      0.26867736
       7889.0363     -0.24174056
       7889.9567    -0.022994574
       7890.8772      0.51403797
       7891.7976      0.36747538
       7892.7181      0.36133533
       7893.6385      0.13106025
       7894.5590    -0.064933153
       7895.4794     -0.12117537
       7896.3999      0.23876091
       7897.3203      0.11060960
       7898.2407      0.41551172
       7899.1612      0.27511914
       7900.0816     -0.31698527
       7901.0021      0.19432134
       7901.9225      0.21176313
       7902.8430     0.012379429
       7903.7634     -0.30418651
       7904.6839     -0.30323904
       7905.6043      0.28132111
       7906.5248      0.18187524
       7907.4452      0.29901480
       7908.3657     0.057770502
       7909.2861      0.19528821
       7910.2066      0.16633478
