# wavelength flux
       2341.9281      0.19468084
       2342.7319    0.0062733829
       2343.5358     0.023282527
       2344.3397      0.12459110
       2345.1435     0.054439897
       2345.9474     0.065136991
       2346.7513      0.15438173
       2347.5551     0.043483525
       2348.3590   -0.0020391767
       2349.1629     0.059149153
       2349.9668    -0.028078157
       2350.7706     0.014088076
       2351.5745      0.14527616
       2352.3784     0.020443150
       2353.1822   0.00025892206
       2353.9861    -0.066202252
       2354.7900     0.025172008
       2355.5938     0.010325799
       2356.3977     0.093027265
       2357.2016      0.15751246
       2358.0054     0.075402587
       2358.8093     0.022047844
       2359.6132    0.0043172329
       2360.4171     0.015585872
       2361.2209     0.085418957
       2362.0248      0.16568816
       2362.8287      0.10698774
       2363.6325     0.081329608
       2364.4364    0.0048431600
       2365.2403     0.064386721
       2366.0441     0.091134545
       2366.8480     0.083651852
       2367.6519     0.022487415
       2368.4557     0.099396875
       2369.2596      0.12154287
       2370.0635     0.083893362
       2370.8674     0.057115738
       2371.6712      0.15112762
       2372.4751    -0.039404682
       2373.2790    -0.010747645
       2374.0828    -0.035886670
       2374.8867     0.078780201
       2375.6906      0.16668762
       2376.4944      0.15135563
       2377.2983     0.055241433
       2378.1022     0.088682335
       2378.9061    -0.028191618
       2379.7099     0.020419200
       2380.5138   -0.0017003058
       2381.3177     0.041768280
       2382.1215      0.14855271
       2382.9254     0.060828352
       2383.7293     0.043184411
       2384.5331      0.11473416
       2385.3370    0.0044477067
       2386.1409      0.10084961
       2386.9447     0.022816344
       2387.7486     0.051383948
       2388.5525     0.012871130
       2389.3564      0.16457186
       2390.1602     0.050291655
       2390.9641     0.017044881
       2391.7680     0.051571299
       2392.5718     0.039036596
       2393.3757   -0.0055078684
       2394.1796      0.10993963
       2394.9834     0.084620910
       2395.7873      0.13761686
       2396.5912     0.093761084
       2397.3950     0.012853940
       2398.1989     0.094928545
       2399.0028    -0.016216488
       2399.8067      0.14180572
       2400.6105    0.0085464381
       2401.4144     0.081102982
       2402.2183     0.094639509
       2403.0221      0.10479935
       2403.8260     0.055995681
       2404.6299      0.17335374
       2405.4337     0.057952360
       2406.2376     0.064491892
       2407.0415      0.11429763
       2407.8453    -0.017560335
       2408.6492     0.035454567
       2409.4531      0.15692416
       2410.2570     0.012432559
       2411.0608     0.041744181
       2411.8647     0.084917525
       2412.6686     0.098205325
       2413.4724      0.12926206
       2414.2763      0.10497188
       2415.0802     0.023709979
       2415.8840     0.091851194
       2416.6879      0.12579119
       2417.4918     0.076914037
       2418.2956      0.13508837
       2419.0995     0.092231538
       2419.9034      0.11102605
       2420.7073   -0.0064195608
       2421.5111     0.056295881
       2422.3150     0.068937941
       2423.1189     0.023414379
       2423.9227      0.11207259
       2424.7266      0.15673133
       2425.5305      0.14160045
       2426.3343     0.051003140
       2427.1382      0.10220710
       2427.9421     0.048232156
       2428.7460      0.15071851
       2429.5498     0.035562429
       2430.3537      0.12228947
       2431.1576     0.073169532
       2431.9614     0.011059302
       2432.7653      0.10644064
       2433.5692      0.10147961
       2434.3730      0.11170536
       2435.1769     0.062884844
       2435.9808      0.19327859
       2436.7846     0.036315419
       2437.5885      0.11921679
       2438.3924      0.10194376
       2439.1963     0.030134704
       2440.0001      0.12546384
       2440.8040      0.11290428
       2441.6079      0.16061115
       2442.4117     0.091536527
       2443.2156     0.074048852
       2444.0195     0.083103086
       2444.8233     0.068033107
       2445.6272      0.19775328
       2446.4311     0.086887801
       2447.2349   -0.0020890652
       2448.0388     0.095677888
       2448.8427      0.17092516
       2449.6466      0.16508756
       2450.4504     0.063023546
       2451.2543      0.17369994
       2452.0582      0.14674072
       2452.8620      0.10172421
       2453.6659      0.11497111
       2454.4698      0.12323014
       2455.2736      0.10942847
       2456.0775      0.11781770
       2456.8814      0.11092233
       2457.6852     0.094824825
       2458.4891     0.087040943
       2459.2930      0.10612073
       2460.0969      0.18694718
       2460.9007      0.14779681
       2461.7046     0.064751409
       2462.5085      0.11485599
       2463.3123     0.056155233
       2464.1162     0.090398394
       2464.9201   -0.0069440876
       2465.7239     0.092764604
       2466.5278      0.11955077
       2467.3317     0.053714334
       2468.1356     0.067034414
       2468.9394      0.12133017
       2469.7433     0.096527051
       2470.5472      0.13708572
       2471.3510     0.087160606
       2472.1549     0.051279696
       2472.9588      0.14212109
       2473.7626      0.12632867
       2474.5665      0.14164789
       2475.3704      0.10007940
       2476.1742      0.10913633
       2476.9781     0.040448042
       2477.7820      0.10185926
       2478.5859      0.17464117
       2479.3897      0.10946755
       2480.1936     0.082500400
       2480.9975     0.065378592
       2481.8013      0.12148972
       2482.6052      0.10628876
       2483.4091     0.058835888
       2484.2129     0.084382118
       2485.0168      0.19823774
       2485.8207     0.067420863
       2486.6245     0.083124499
       2487.4284     0.092244348
       2488.2323      0.15772310
       2489.0362      0.10431847
       2489.8400      0.12352534
       2490.6439     0.086579345
       2491.4478     0.041813255
       2492.2516     0.079741196
       2493.0555     0.074735235
       2493.8594     0.032392648
       2494.6632      0.14389905
       2495.4671     0.031403088
       2496.2710     0.050640752
       2497.0748      0.11035049
       2497.8787      0.10925251
       2498.6826      0.15005539
       2499.4865      0.10510253
       2500.2903      0.14994789
       2501.0942     0.080131393
       2501.8981     0.014392428
       2502.7019     0.086234994
       2503.5058      0.10145875
       2504.3097     0.086311451
       2505.1135      0.14935609
       2505.9174     0.079168803
       2506.7213     0.062276707
       2507.5251      0.10865997
       2508.3290      0.10354945
       2509.1329     0.014673102
       2509.9368      0.11640463
       2510.7406      0.10598106
       2511.5445     0.095014768
       2512.3484      0.11004469
       2513.1522      0.14150979
       2513.9561     0.088193395
       2514.7600     0.038323823
       2515.5638      0.11939851
       2516.3677      0.10132680
       2517.1716      0.13803317
       2517.9755      0.12245092
       2518.7793      0.10687250
       2519.5832     0.025932977
       2520.3871      0.10148822
       2521.1909     0.078498453
       2521.9948     0.066071533
       2522.7987     0.062077183
       2523.6025     0.059981552
       2524.4064      0.10132176
       2525.2103      0.12285994
       2526.0141      0.15189790
       2526.8180      0.12587898
       2527.6219     0.096089674
       2528.4258      0.14503877
       2529.2296     0.035925342
       2530.0335      0.13225956
       2530.8374      0.10045887
       2531.6412      0.14026798
       2532.4451      0.10349153
       2533.2490      0.11580988
       2534.0528     0.057548006
       2534.8567     0.097094887
       2535.6606     0.072758450
       2536.4644      0.11522736
       2537.2683      0.12662883
       2538.0722      0.12946006
       2538.8761     0.088089022
       2539.6799      0.12656130
       2540.4838     0.082400862
       2541.2877     0.048054799
       2542.0915      0.10091267
       2542.8954     0.064674890
       2543.6993     0.092034197
       2544.5031      0.10274123
       2545.3070     0.046861100
       2546.1109     0.084710328
       2546.9147      0.10657576
       2547.7186      0.12215939
       2548.5225      0.12781804
       2549.3264      0.12013763
       2550.1302     0.086770096
       2550.9341     0.071601144
       2551.7380     0.066606083
       2552.5418     0.086134295
       2553.3457     0.068948329
       2554.1496      0.10467554
       2554.9534     0.085539565
       2555.7573      0.11401326
       2556.5612     0.069220144
       2557.3650     0.064492040
       2558.1689      0.13955686
       2558.9728     0.062033011
       2559.7767     0.041586808
       2560.5805      0.12657253
       2561.3844     0.080347881
       2562.1883     0.090247188
       2562.9921      0.12369126
       2563.7960      0.11211424
       2564.5999     0.090920053
       2565.4037      0.11013015
       2566.2076     0.077532055
       2567.0115      0.13859443
       2567.8154     0.090157397
       2568.6192      0.17134578
       2569.4231     0.079050012
       2570.2270     0.076571654
       2571.0308     0.080706641
       2571.8347      0.10432452
       2572.6386      0.10147316
       2573.4424      0.13154224
       2574.2463     0.098773413
       2575.0502     0.054385893
       2575.8540      0.10268142
       2576.6579     0.096493536
       2577.4618     0.050024481
       2578.2657     0.040926746
       2579.0695     0.052709166
       2579.8734     0.028198828
       2580.6773   -0.0096358861
       2581.4811     0.064816217
       2582.2850     0.042843204
       2583.0889     0.057956220
       2583.8927     0.013309156
       2584.6966      0.11041400
       2585.5005      0.14177736
       2586.3043     0.068790778
       2587.1082      0.13744453
       2587.9121      0.11116908
       2588.7160     0.022283240
       2589.5198      0.10550754
       2590.3237     0.093604478
       2591.1276     0.083191092
       2591.9314     0.065576060
       2592.7353      0.11105194
       2593.5392      0.12478780
       2594.3430     0.055667802
       2595.1469     0.021267479
       2595.9508     0.047822045
       2596.7546     0.073387083
       2597.5585     0.067545334
       2598.3624      0.10398396
       2599.1663     0.088969836
       2599.9701      0.10999757
       2600.7740     0.079152549
       2601.5779     0.083016025
       2602.3817     0.060186380
       2603.1856      0.11832000
       2603.9895     0.091861025
       2604.7933     0.075685580
       2605.5972     0.096453484
       2606.4011      0.12025214
       2607.2049     0.088634673
       2608.0088      0.10463100
       2608.8127     0.069198233
       2609.6166      0.13506433
       2610.4204      0.16545028
       2611.2243     0.058152227
       2612.0282     0.095541432
       2612.8320      0.13660994
       2613.6359      0.10628649
       2614.4398     0.081221517
       2615.2436      0.13098275
       2616.0475      0.13473179
       2616.8514      0.11620679
       2617.6553      0.12187461
       2618.4591      0.10866141
       2619.2630     0.078848097
       2620.0669      0.10838300
       2620.8707      0.15660373
       2621.6746     0.091148026
       2622.4785      0.13203759
       2623.2823     0.078984821
       2624.0862     0.089826395
       2624.8901      0.11174863
       2625.6939      0.14112912
       2626.4978      0.12798522
       2627.3017      0.12282528
       2628.1056      0.16236589
       2628.9094      0.17865371
       2629.7133      0.14259043
       2630.5172     0.094064022
       2631.3210     0.055408061
       2632.1249     0.095004697
       2632.9288     0.077665812
       2633.7326      0.15193451
       2634.5365     0.099676924
       2635.3404      0.14140888
       2636.1442      0.20066618
       2636.9481      0.11308954
       2637.7520      0.14233446
       2638.5559      0.12153545
       2639.3597     0.096730689
       2640.1636     0.055203098
       2640.9675      0.13790671
       2641.7713      0.10474079
       2642.5752      0.13904686
       2643.3791      0.10950954
       2644.1829      0.12876452
       2644.9868      0.11824056
       2645.7907      0.14632000
       2646.5945      0.15224498
       2647.3984     0.095580352
       2648.2023      0.17608625
       2649.0062      0.12926236
       2649.8100      0.14304300
       2650.6139      0.14037128
       2651.4178     0.091709003
       2652.2216     0.093604841
       2653.0255     0.082589463
       2653.8294      0.10850943
       2654.6332      0.11157127
       2655.4371      0.12338583
       2656.2410     0.043556140
       2657.0448     0.088890506
       2657.8487      0.12417996
       2658.6526     0.090510020
       2659.4565     0.099184858
       2660.2603      0.12675072
       2661.0642      0.11723835
       2661.8681      0.14327564
       2662.6719      0.11259142
       2663.4758      0.16604409
       2664.2797      0.11951716
       2665.0835      0.12175025
       2665.8874      0.11126369
       2666.6913      0.10447623
       2667.4952     0.092148219
       2668.2990     0.098532966
       2669.1029      0.14990181
       2669.9068      0.14728511
       2670.7106      0.14737566
       2671.5145     0.054404833
       2672.3184      0.12051858
       2673.1222     0.089721222
       2673.9261      0.10346136
       2674.7300      0.13305681
       2675.5338      0.17106177
       2676.3377      0.12394489
       2677.1416      0.13828974
       2677.9455      0.12996802
       2678.7493     0.084197855
       2679.5532     0.085055362
       2680.3571      0.12738372
       2681.1609     0.092911814
       2681.9648      0.13593660
       2682.7687      0.10208221
       2683.5725      0.12610207
       2684.3764      0.11432845
       2685.1803      0.12997289
       2685.9841      0.12286169
       2686.7880      0.15417503
       2687.5919      0.14707370
       2688.3958     0.062741296
       2689.1996      0.10843843
       2690.0035      0.13748015
       2690.8074      0.19510589
       2691.6112      0.13043022
       2692.4151     0.066616581
       2693.2190      0.10936436
       2694.0228      0.18716034
       2694.8267      0.11513484
       2695.6306     0.081336046
       2696.4344      0.12788951
       2697.2383      0.10927930
       2698.0422     0.075224979
       2698.8461      0.15676964
       2699.6499      0.12489792
       2700.4538      0.16684493
       2701.2577      0.11308642
       2702.0615      0.13409800
       2702.8654      0.14639749
       2703.6693      0.12131103
       2704.4731      0.11919284
       2705.2770      0.10929976
       2706.0809     0.083761836
       2706.8847      0.14096746
       2707.6886     0.077157075
       2708.4925      0.10878941
       2709.2964      0.17867531
       2710.1002      0.12850282
       2710.9041    0.0088893291
       2711.7080      0.13061592
       2712.5118      0.10897194
       2713.3157      0.15640213
       2714.1196     0.088912562
       2714.9234      0.10420777
       2715.7273      0.14703878
       2716.5312      0.14547411
       2717.3351      0.12693335
       2718.1389      0.14513792
       2718.9428      0.14106935
       2719.7467      0.13342799
       2720.5505      0.12896978
       2721.3544      0.11227619
       2722.1583      0.15376698
       2722.9621      0.15423912
       2723.7660      0.15523781
       2724.5699      0.13489947
       2725.3737     0.088322675
       2726.1776      0.11999224
       2726.9815     0.074716475
       2727.7854      0.13454711
       2728.5892      0.16184301
       2729.3931      0.20369707
       2730.1970      0.12193069
       2731.0008     0.083821648
       2731.8047      0.12032758
       2732.6086     0.085148349
       2733.4124      0.10564627
       2734.2163      0.17348480
       2735.0202      0.10793013
       2735.8240      0.12224910
       2736.6279      0.12247253
       2737.4318      0.16835273
       2738.2357      0.15631440
       2739.0395      0.13279894
       2739.8434      0.11608804
       2740.6473      0.16687271
       2741.4511      0.11529709
       2742.2550      0.11745270
       2743.0589      0.12161631
       2743.8627      0.12453466
       2744.6666      0.20300209
       2745.4705     0.062479449
       2746.2743     0.081389439
       2747.0782      0.11749420
       2747.8821      0.11906821
       2748.6860     0.084387511
       2749.4898      0.14401361
       2750.2937      0.10076561
       2751.0976      0.11865338
       2751.9014      0.11894247
       2752.7053      0.10045477
       2753.5092      0.11380547
       2754.3130      0.15503587
       2755.1169      0.10680018
       2755.9208      0.11679071
       2756.7246      0.11554782
       2757.5285      0.11067130
       2758.3324      0.12789221
       2759.1363     0.056299129
       2759.9401      0.14709340
       2760.7440     0.096330600
       2761.5479      0.13089407
       2762.3517      0.11484766
       2763.1556      0.16039318
       2763.9595      0.20845084
       2764.7633      0.17116851
       2765.5672     0.097699460
       2766.3711     0.090154814
       2767.1750      0.11238524
       2767.9788     0.066395345
       2768.7827      0.14809679
       2769.5866      0.11951650
       2770.3904      0.15599149
       2771.1943     0.091854604
       2771.9982     0.069644378
       2772.8020      0.15446408
       2773.6059      0.12285591
       2774.4098      0.15783971
       2775.2136      0.13267253
       2776.0175     0.098667550
       2776.8214      0.11849727
       2777.6253      0.12929651
       2778.4291     0.082013759
       2779.2330      0.15391413
       2780.0369      0.13027140
       2780.8407      0.11300815
       2781.6446      0.19026115
       2782.4485      0.18547631
       2783.2523     0.098450692
       2784.0562      0.19846800
       2784.8601      0.19620544
       2785.6639      0.14096766
       2786.4678      0.12810163
       2787.2717      0.17301671
       2788.0756      0.16109435
       2788.8794      0.14225675
       2789.6833     0.061583894
       2790.4872      0.10577149
       2791.2910     0.088947334
       2792.0949      0.11546757
       2792.8988     0.069400197
       2793.7026     0.084423215
       2794.5065     0.086914040
       2795.3104     0.023135255
       2796.1142     0.059422414
       2796.9181     0.054066837
       2797.7220     0.094284386
       2798.5259     0.059703834
       2799.3297     0.040620394
       2800.1336     0.046761842
       2800.9375     0.075674945
       2801.7413     0.073794586
       2802.5452     0.073414447
       2803.3491     0.065472175
       2804.1529     0.021865553
       2804.9568     0.033190663
       2805.7607     0.043211463
       2806.5645     0.073257802
       2807.3684      0.11111625
       2808.1723     0.069577539
       2808.9762     0.073228576
       2809.7800      0.10343284
       2810.5839      0.11704804
       2811.3878      0.15366627
       2812.1916      0.10746545
       2812.9955     0.085618587
       2813.7994      0.14743606
       2814.6032      0.10580552
       2815.4071      0.12664306
       2816.2110      0.13650667
       2817.0149      0.10218309
       2817.8187      0.11945281
       2818.6226      0.13026889
       2819.4265      0.15500211
       2820.2303      0.11987540
       2821.0342      0.16563401
       2821.8381      0.18275548
       2822.6419      0.13926687
       2823.4458      0.10214390
       2824.2497      0.13509290
       2825.0535      0.13460623
       2825.8574     0.088446609
       2826.6613      0.13483868
       2827.4652      0.14603822
       2828.2690      0.14574486
       2829.0729      0.15126219
       2829.8768      0.12928785
       2830.6806      0.13051829
       2831.4845      0.15096971
       2832.2884      0.13045754
       2833.0922      0.14352936
       2833.8961     0.079070119
       2834.7000      0.12019799
       2835.5038      0.11386605
       2836.3077      0.14959300
       2837.1116      0.11658769
       2837.9155      0.15095161
       2838.7193      0.11099433
       2839.5232      0.11488256
       2840.3271      0.12245851
       2841.1309      0.12494478
       2841.9348      0.10099013
       2842.7387      0.10471503
       2843.5425      0.12639691
       2844.3464      0.20222609
       2845.1503      0.16219592
       2845.9541      0.16056040
       2846.7580      0.15710270
       2847.5619     0.070032593
       2848.3658      0.13683590
       2849.1696      0.12808249
       2849.9735      0.10677872
       2850.7774      0.12234537
       2851.5812      0.16541911
       2852.3851      0.12828866
       2853.1890      0.12534924
       2853.9928     0.071215711
       2854.7967      0.11240644
       2855.6006      0.13045505
       2856.4044     0.089435220
       2857.2083      0.11729910
       2858.0122     0.095989658
       2858.8161      0.12948412
       2859.6199     0.096104153
       2860.4238     0.084255996
       2861.2277      0.11817147
       2862.0315     0.069767443
       2862.8354      0.13069025
       2863.6393     0.097159944
       2864.4431      0.13946010
       2865.2470      0.10082041
       2866.0509     0.090045105
       2866.8548      0.12514511
       2867.6586      0.16422975
       2868.4625      0.14937196
       2869.2664      0.17650222
       2870.0702     0.099695675
       2870.8741     0.097032214
       2871.6780      0.16213680
       2872.4818      0.14244024
       2873.2857      0.10174944
       2874.0896      0.12157974
       2874.8934      0.11474695
       2875.6973     0.087208704
       2876.5012      0.11763964
       2877.3051      0.11667210
       2878.1089      0.14624684
       2878.9128      0.11980592
       2879.7167      0.14919901
       2880.5205      0.10304185
       2881.3244      0.10813128
       2882.1283      0.11714819
       2882.9321      0.14873043
       2883.7360      0.13901622
       2884.5399      0.13184955
       2885.3437      0.16224299
       2886.1476      0.10681377
       2886.9515      0.14725076
       2887.7554      0.13782884
       2888.5592      0.13196920
       2889.3631      0.15043800
       2890.1670      0.12800768
       2890.9708      0.12742022
       2891.7747      0.13355329
       2892.5786      0.15939506
       2893.3824      0.12000397
       2894.1863      0.10095301
       2894.9902      0.17306875
       2895.7940      0.12479040
       2896.5979      0.10884553
       2897.4018      0.13264777
       2898.2057      0.16033416
       2899.0095      0.15104464
       2899.8134      0.14606598
       2900.6173      0.16245024
       2901.4211     0.071166833
       2902.2250      0.12041750
       2903.0289      0.14468413
       2903.8327      0.14889587
       2904.6366      0.14925047
       2905.4405      0.12391556
       2906.2443      0.16504764
       2907.0482      0.12094729
       2907.8521      0.15750198
       2908.6560      0.12022332
       2909.4598      0.12516344
       2910.2637     0.095212558
       2911.0676      0.12171374
       2911.8714      0.15715567
       2912.6753      0.15632394
       2913.4792      0.16558264
       2914.2830      0.20511006
       2915.0869      0.15430739
       2915.8908      0.15192705
       2916.6947      0.17745136
       2917.4985      0.14895479
       2918.3024      0.12530324
       2919.1063      0.15684531
       2919.9101      0.13829213
       2920.7140      0.13838082
       2921.5179      0.15289930
       2922.3217      0.13326463
       2923.1256      0.12720983
       2923.9295      0.14150157
       2924.7333      0.13777311
       2925.5372      0.15832477
       2926.3411      0.14224402
       2927.1450      0.14799304
       2927.9488      0.17496159
       2928.7527      0.11912431
       2929.5566      0.14716823
       2930.3604      0.13812380
       2931.1643      0.16096370
       2931.9682      0.10919445
       2932.7720      0.14900354
       2933.5759      0.11957723
       2934.3798     0.098874657
       2935.1836      0.12122372
       2935.9875      0.15505492
       2936.7914      0.18462831
       2937.5953      0.13400829
       2938.3991      0.14010966
       2939.2030      0.10819696
       2940.0069      0.15515353
       2940.8107      0.14234367
       2941.6146      0.15499316
       2942.4185      0.11602680
       2943.2223      0.13384481
       2944.0262      0.13880458
       2944.8301      0.15247885
       2945.6339      0.17259637
       2946.4378      0.16480876
       2947.2417      0.17064287
       2948.0456     0.084925631
       2948.8494      0.13421455
       2949.6533     0.068406456
       2950.4572      0.17699316
       2951.2610      0.15381039
       2952.0649      0.13524626
       2952.8688      0.14906199
       2953.6726      0.14939626
       2954.4765      0.17313131
       2955.2804      0.16593044
       2956.0842     0.093128650
       2956.8881      0.13593974
       2957.6920      0.13205807
       2958.4959      0.13412658
       2959.2997      0.11536988
       2960.1036      0.15408944
       2960.9075      0.13630584
       2961.7113      0.16418396
       2962.5152      0.16240332
       2963.3191      0.17059426
       2964.1229      0.16638174
       2964.9268      0.12493840
       2965.7307      0.13747283
       2966.5346      0.12616217
       2967.3384      0.13744022
       2968.1423      0.14741399
       2968.9462      0.11878253
       2969.7500      0.17886130
       2970.5539      0.14490733
       2971.3578      0.18907438
       2972.1616      0.14247154
       2972.9655      0.15489971
       2973.7694      0.13098624
       2974.5732      0.17343529
       2975.3771      0.16166413
       2976.1810      0.18092251
       2976.9849      0.14095013
       2977.7887      0.19289636
       2978.5926      0.11019083
       2979.3965      0.12949569
       2980.2003      0.16729831
       2981.0042      0.14602697
       2981.8081      0.13394028
       2982.6119      0.19760601
       2983.4158      0.12777377
       2984.2197      0.15921646
       2985.0235      0.18410302
       2985.8274      0.15630022
       2986.6313      0.14511097
       2987.4352      0.15214829
       2988.2390      0.12318993
       2989.0429      0.18844416
       2989.8468      0.19137036
       2990.6506      0.12649635
       2991.4545      0.13220537
       2992.2584      0.16939720
       2993.0622      0.16420237
       2993.8661      0.15801383
       2994.6700      0.14803758
       2995.4738      0.19865107
       2996.2777      0.17332495
       2997.0816      0.16319903
       2997.8855      0.14784232
       2998.6893      0.17222065
       2999.4932      0.16620720
       3000.2971      0.18874747
       3001.1009      0.16929703
       3001.9048      0.18210359
       3002.7087      0.16188348
       3003.5125      0.12830505
       3004.3164      0.17578739
       3005.1203      0.19119876
       3005.9241      0.17948927
       3006.7280      0.19797565
       3007.5319      0.20316780
       3008.3358      0.15867434
       3009.1396      0.14694691
       3009.9435      0.16764105
       3010.7474      0.16715697
       3011.5512      0.18203667
       3012.3551      0.17293508
       3013.1590      0.14702319
       3013.9628      0.16814021
       3014.7667      0.17997539
       3015.5706     0.092965768
       3016.3745      0.16230581
       3017.1783      0.18304752
       3017.9822      0.16243736
       3018.7861      0.17734470
       3019.5899      0.21560377
       3020.3938      0.17509428
       3021.1977      0.16362101
       3022.0015      0.14040161
       3022.8054      0.14964499
       3023.6093      0.17423743
       3024.4131      0.16968054
       3025.2170      0.16711743
       3026.0209      0.13412550
       3026.8248      0.15246515
       3027.6286      0.13916981
       3028.4325      0.21922862
       3029.2364      0.14911268
       3030.0402      0.18936373
       3030.8441      0.15307398
       3031.6480      0.17748730
       3032.4518      0.12261859
       3033.2557      0.19339791
       3034.0596      0.15644986
       3034.8634      0.13862723
       3035.6673      0.15696077
       3036.4712      0.11518237
       3037.2751      0.19795851
       3038.0789      0.13165907
       3038.8828      0.15282702
       3039.6867      0.20060134
       3040.4905      0.14417596
       3041.2944      0.18506817
       3042.0983      0.21010959
       3042.9021      0.15613770
       3043.7060      0.17422322
       3044.5099      0.17036654
       3045.3137      0.15724863
       3046.1176      0.12175205
       3046.9215      0.19545223
       3047.7254      0.15069116
       3048.5292      0.13266108
       3049.3331      0.16719578
       3050.1370      0.14241942
       3050.9408      0.18620649
       3051.7447      0.19653945
       3052.5486      0.19090096
       3053.3524      0.16153018
       3054.1563      0.14930627
       3054.9602      0.14388768
       3055.7640      0.14936765
       3056.5679      0.18496502
       3057.3718      0.26078258
       3058.1757      0.15468622
       3058.9795      0.20524760
       3059.7834      0.17101656
       3060.5873      0.17423257
       3061.3911      0.20215599
       3062.1950      0.15901220
       3062.9989      0.14187981
       3063.8027      0.12219184
       3064.6066      0.17649678
       3065.4105      0.13534926
       3066.2144      0.15528431
       3067.0182      0.16267921
       3067.8221      0.17408632
       3068.6260      0.13225781
       3069.4298      0.15110445
       3070.2337      0.12370059
       3071.0376      0.18143089
       3071.8414      0.22004287
       3072.6453      0.14443825
       3073.4492      0.18178966
       3074.2530      0.14294647
       3075.0569      0.17443685
       3075.8608      0.15884377
       3076.6647      0.16261845
       3077.4685      0.20021573
       3078.2724      0.16527267
       3079.0763      0.15118479
       3079.8801      0.10785186
       3080.6840      0.19956041
       3081.4879      0.12973629
       3082.2917      0.13344762
       3083.0956      0.10562592
       3083.8995      0.11612405
       3084.7033      0.17003722
       3085.5072      0.26483684
       3086.3111      0.13675267
       3087.1150      0.17901125
       3087.9188      0.20097270
       3088.7227      0.13347296
       3089.5266      0.18949349
       3090.3304      0.18260195
       3091.1343      0.15555903
       3091.9382      0.15703626
       3092.7420      0.19069021
       3093.5459      0.15459916
       3094.3498      0.16984187
       3095.1536      0.17164171
       3095.9575      0.20215735
       3096.7614      0.13691718
       3097.5653      0.19395617
       3098.3691      0.17709606
       3099.1730      0.15092185
       3099.9769      0.14523278
       3100.7807      0.15304958
       3101.5846      0.12552553
       3102.3885      0.15880766
       3103.1923      0.10217756
       3103.9962      0.12271080
       3104.8001      0.19661347
       3105.6039      0.20660182
       3106.4078      0.23004109
       3107.2117      0.11864401
       3108.0156     0.097977826
       3108.8194      0.20802456
       3109.6233      0.13085989
       3110.4272      0.13934821
       3111.2310      0.13532654
       3112.0349      0.21318252
       3112.8388      0.19311831
       3113.6426      0.13468525
       3114.4465      0.19001992
       3115.2504      0.16311947
       3116.0543      0.19667353
       3116.8581      0.15108501
       3117.6620      0.21574543
       3118.4659      0.17805014
       3119.2697      0.19087909
       3120.0736      0.14178462
       3120.8775      0.14655371
       3121.6813      0.15514060
       3122.4852      0.17627428
       3123.2891      0.20366850
       3124.0929      0.17449270
       3124.8968      0.14201085
       3125.7007      0.15891283
       3126.5046      0.14718453
       3127.3084      0.19927717
       3128.1123      0.11121728
       3128.9162      0.13594307
       3129.7200      0.17469258
       3130.5239      0.16011854
       3131.3278      0.13959998
       3132.1316      0.19097969
       3132.9355      0.22017062
       3133.7394      0.22858936
       3134.5432     0.097142934
       3135.3471      0.18501742
       3136.1510      0.20226900
       3136.9549      0.14805636
       3137.7587      0.14302234
       3138.5626      0.13813342
       3139.3665      0.20853395
       3140.1703      0.16127743
       3140.9742      0.19444058
       3141.7781      0.21207725
       3142.5819      0.21700846
       3143.3858      0.16498351
       3144.1897      0.17328729
       3144.9935      0.18186352
       3145.7974      0.14490254
       3146.6013      0.15317930
       3147.4052      0.19468479
       3148.2090      0.19743943
       3149.0129      0.17322029
       3149.8168      0.22080495
       3150.6206      0.20367706
       3151.4245      0.20208851
       3152.2284      0.18195985
       3153.0322      0.20629559
       3153.8361      0.14409847
       3154.6400      0.19722981
       3155.4438      0.16787781
       3156.2477      0.20328464
       3157.0516      0.16518837
       3157.8555      0.19257620
       3158.6593      0.15565832
       3159.4632      0.16327969
       3160.2671      0.22125467
       3161.0709      0.23499232
       3161.8748      0.21493007
       3162.6787      0.16084830
       3163.4825      0.19136724
       3164.2864      0.14940880
       3165.0903      0.18155077
       3165.8942      0.12905236
       3166.6980      0.18572036
       3167.5019      0.14707464
       3168.3058      0.15949723
       3169.1096      0.15290528
       3169.9135      0.18699791
       3170.7174      0.15478752
       3171.5212      0.19675366
       3172.3251      0.25371703
       3173.1290      0.17348696
       3173.9328      0.15517181
       3174.7367      0.19295940
       3175.5406      0.12898227
       3176.3445      0.17188862
       3177.1483      0.17528854
       3177.9522      0.18150989
       3178.7561      0.19699719
       3179.5599      0.25729587
       3180.3638      0.22437429
       3181.1677      0.16844765
       3181.9715      0.17795412
       3182.7754      0.19499263
       3183.5793      0.15721568
       3184.3831      0.21251043
       3185.1870      0.14751070
       3185.9909      0.20027211
       3186.7948      0.14290569
       3187.5986      0.19534020
       3188.4025      0.15183091
       3189.2064      0.15133929
       3190.0102      0.15997435
       3190.8141      0.18313601
       3191.6180     0.099829608
       3192.4218      0.14269167
       3193.2257      0.17840029
       3194.0296      0.16398972
       3194.8334      0.26016409
       3195.6373      0.15822726
       3196.4412      0.12165508
       3197.2451      0.17515805
       3198.0489      0.19345011
       3198.8528      0.13873186
       3199.6567      0.11524328
       3200.4605      0.20489115
       3201.2644      0.19807514
       3202.0683      0.14040785
       3202.8721      0.19759857
       3203.6760      0.18327322
       3204.4799      0.20257605
       3205.2837      0.16027122
       3206.0876      0.20255107
       3206.8915      0.26500586
       3207.6954      0.23375125
       3208.4992      0.18394641
       3209.3031      0.26729782
       3210.1070      0.17376328
       3210.9108      0.15466397
       3211.7147      0.25236126
       3212.5186      0.20558987
       3213.3224      0.25869315
       3214.1263      0.21180789
       3214.9302      0.23075571
       3215.7341      0.19527629
       3216.5379      0.22868571
       3217.3418      0.15980927
       3218.1457      0.16669598
       3218.9495      0.19394348
       3219.7534      0.20367842
       3220.5573      0.12837702
       3221.3611      0.24016454
       3222.1650      0.21761837
       3222.9689      0.12286065
       3223.7727      0.18707294
       3224.5766      0.17036676
       3225.3805      0.26565449
       3226.1844      0.18043715
       3226.9882      0.20242436
       3227.7921      0.25743323
       3228.5960      0.20803108
       3229.3998      0.16820012
       3230.2037      0.16438130
       3231.0076      0.19938173
       3231.8114      0.21072093
       3232.6153      0.21795920
       3233.4192      0.22546147
       3234.2230      0.17589903
       3235.0269      0.19830838
       3235.8308      0.22512312
       3236.6347      0.19223879
       3237.4385      0.13370544
       3238.2424      0.13988709
       3239.0463      0.18106513
       3239.8501      0.21715649
       3240.6540      0.16085674
       3241.4579      0.20558388
       3242.2617      0.21378902
       3243.0656      0.13441454
       3243.8695      0.17453523
       3244.6733      0.13860492
       3245.4772      0.14591191
       3246.2811      0.14893458
       3247.0850      0.13012956
       3247.8888      0.18331601
       3248.6927      0.20493239
       3249.4966      0.13649282
       3250.3004      0.21549669
       3251.1043      0.22409918
       3251.9082      0.18764105
       3252.7120      0.14144591
       3253.5159      0.14427252
       3254.3198      0.18211183
       3255.1236      0.20443225
       3255.9275      0.21272165
       3256.7314      0.20598476
       3257.5353      0.20235946
       3258.3391      0.15529882
       3259.1430      0.15910661
       3259.9469      0.20329341
       3260.7507      0.18086699
       3261.5546      0.19859500
       3262.3585      0.25400376
       3263.1623      0.20708527
       3263.9662      0.28933929
       3264.7701      0.24633782
       3265.5740      0.24007487
       3266.3778      0.21813181
       3267.1817      0.28718427
       3267.9856      0.14202325
       3268.7894      0.19053112
       3269.5933      0.23116774
       3270.3972      0.23800661
       3271.2010      0.23692844
       3272.0049      0.22102991
       3272.8088      0.17402164
       3273.6126      0.19501154
       3274.4165      0.20152447
       3275.2204      0.22408864
       3276.0243      0.20991777
       3276.8281      0.25905338
       3277.6320      0.25989880
       3278.4359      0.18303284
       3279.2397      0.16713938
       3280.0436      0.20300909
       3280.8475      0.26339968
       3281.6513      0.15683136
       3282.4552      0.19720684
       3283.2591      0.17586587
       3284.0629      0.19654513
       3284.8668      0.26287227
       3285.6707      0.20112991
       3286.4746      0.23142160
       3287.2784      0.26195484
       3288.0823      0.19658099
       3288.8862      0.13380078
       3289.6900      0.19600097
       3290.4939      0.23640398
       3291.2978      0.18175850
       3292.1016      0.20055549
       3292.9055      0.16404402
       3293.7094      0.24690485
       3294.5132      0.16608706
       3295.3171      0.21211850
       3296.1210      0.23363507
       3296.9249      0.16957992
       3297.7287      0.28664732
       3298.5326      0.21358957
       3299.3365      0.27929881
       3300.1403      0.14771422
       3300.9442      0.25624924
       3301.7481      0.25861117
       3302.5519      0.21420552
       3303.3558      0.26726315
       3304.1597      0.19130730
       3304.9635      0.24750133
       3305.7674      0.24124875
       3306.5713      0.17989872
       3307.3752      0.25098372
       3308.1790      0.23120687
       3308.9829      0.25286532
       3309.7868      0.15607782
       3310.5906      0.21394288
       3311.3945      0.21007310
       3312.1984      0.20916433
       3313.0022      0.20354000
       3313.8061      0.22168354
       3314.6100      0.25457128
       3315.4139      0.25492935
       3316.2177      0.23419682
       3317.0216      0.23654891
       3317.8255      0.18548557
       3318.6293      0.24153808
       3319.4332      0.25652068
       3320.2371      0.21381466
       3321.0409      0.20499049
       3321.8448      0.20175501
       3322.6487      0.19147603
       3323.4525      0.18853991
       3324.2564      0.22527191
       3325.0603      0.21988329
       3325.8642      0.24154319
       3326.6680      0.18323897
       3327.4719      0.18496849
       3328.2758      0.24231603
       3329.0796      0.23456506
       3329.8835      0.19147433
       3330.6874      0.22980722
       3331.4912      0.20569190
       3332.2951      0.20986224
       3333.0990      0.20146701
       3333.9028      0.18013626
       3334.7067      0.19983393
       3335.5106      0.25600276
       3336.3145      0.25368046
       3337.1183      0.25033090
       3337.9222      0.27339931
       3338.7261      0.19254852
       3339.5299      0.18944479
       3340.3338      0.18283126
       3341.1377      0.14972714
       3341.9415      0.24418013
       3342.7454      0.18353941
       3343.5493      0.23656584
       3344.3531      0.18557627
       3345.1570      0.16372508
       3345.9609      0.27229574
       3346.7648      0.22621118
       3347.5686      0.18226612
       3348.3725      0.19230502
       3349.1764      0.24781520
       3349.9802      0.19756094
       3350.7841      0.23939280
       3351.5880      0.23986215
       3352.3918      0.14383524
       3353.1957      0.30682571
       3353.9996      0.18862127
       3354.8035      0.19676483
       3355.6073      0.19022120
       3356.4112      0.30071908
       3357.2151      0.20029549
       3358.0189      0.22151850
       3358.8228      0.25299328
       3359.6267      0.22401090
       3360.4305      0.14245956
       3361.2344      0.26353750
       3362.0383      0.24604028
       3362.8421      0.17973679
       3363.6460      0.24699323
       3364.4499      0.19191926
       3365.2538      0.15516162
       3366.0576      0.19466016
       3366.8615      0.26104259
       3367.6654      0.18488726
       3368.4692      0.21166378
       3369.2731      0.20840881
       3370.0770      0.17413310
       3370.8808      0.16747264
       3371.6847      0.19303216
       3372.4886      0.13783029
       3373.2924      0.18905804
       3374.0963      0.27022087
       3374.9002      0.24660150
       3375.7041      0.24008405
       3376.5079      0.21272319
       3377.3118      0.20930175
       3378.1157      0.23887282
       3378.9195      0.20668320
       3379.7234      0.18751520
       3380.5273      0.15684452
       3381.3311      0.19577674
       3382.1350      0.18145395
       3382.9389      0.16128432
       3383.7427      0.20403134
       3384.5466      0.22735678
       3385.3505      0.18776506
       3386.1544      0.16678701
       3386.9582      0.17489482
       3387.7621      0.27008141
       3388.5660      0.25432520
       3389.3698      0.21142329
       3390.1737      0.24691146
       3390.9776      0.25143997
       3391.7814      0.21276383
       3392.5853      0.23486403
       3393.3892      0.22503313
       3394.1930      0.23892759
       3394.9969      0.20172139
       3395.8008      0.19347483
       3396.6047      0.27078134
       3397.4085      0.24332003
       3398.2124      0.20608387
       3399.0163      0.23555403
       3399.8201      0.23983871
       3400.6240      0.31658458
       3401.4279      0.22936542
       3402.2317      0.20714200
       3403.0356      0.18269764
       3403.8395      0.24559260
       3404.6434      0.22028592
       3405.4472      0.18626456
       3406.2511      0.25857550
       3407.0550      0.24745276
       3407.8588      0.23897095
       3408.6627      0.27674457
       3409.4666      0.19755523
       3410.2704      0.25668333
       3411.0743      0.18599047
       3411.8782      0.24400438
       3412.6820      0.23408501
       3413.4859      0.21737872
       3414.2898      0.21894548
       3415.0937      0.22688163
       3415.8975      0.25335915
       3416.7014      0.20088300
       3417.5053      0.25113815
       3418.3091      0.22170342
       3419.1130      0.15552125
       3419.9169      0.29340955
       3420.7207      0.30524058
       3421.5246      0.34650010
       3422.3285      0.24046238
       3423.1323      0.24991788
       3423.9362      0.20289479
       3424.7401      0.24362560
       3425.5440      0.26463908
       3426.3478      0.21724211
       3427.1517      0.17315875
       3427.9556      0.31988916
       3428.7594      0.22890353
       3429.5633      0.28470508
       3430.3672      0.23319973
       3431.1710      0.23257114
       3431.9749      0.23064025
       3432.7788      0.25151861
       3433.5826      0.26200553
       3434.3865      0.16966880
       3435.1904      0.27898930
       3435.9943      0.24493513
       3436.7981      0.25366052
       3437.6020      0.23779626
       3438.4059      0.28152605
       3439.2097      0.18960585
       3440.0136      0.19733005
       3440.8175      0.28339908
       3441.6213      0.25934294
       3442.4252      0.22876612
       3443.2291      0.18563880
       3444.0329      0.21457205
       3444.8368      0.18620383
       3445.6407      0.23483172
       3446.4446      0.14928252
       3447.2484      0.16960912
       3448.0523      0.16425441
       3448.8562      0.25895010
       3449.6600      0.21644578
       3450.4639      0.21677086
       3451.2678      0.21897022
       3452.0716      0.17984084
       3452.8755      0.20111243
       3453.6794      0.26418187
       3454.4833      0.24679685
       3455.2871      0.22486371
       3456.0910      0.24062774
       3456.8949      0.20933712
       3457.6987      0.16423700
       3458.5026      0.18756074
       3459.3065      0.19570234
       3460.1103      0.25275664
       3460.9142      0.13972340
       3461.7181      0.23537972
       3462.5219      0.22663022
       3463.3258      0.22622066
       3464.1297      0.24810768
       3464.9336      0.22716501
       3465.7374      0.25398898
       3466.5413      0.28441732
       3467.3452      0.21471784
       3468.1490      0.17486244
       3468.9529      0.20776536
       3469.7568      0.23274379
       3470.5606      0.27358868
       3471.3645      0.32396635
       3472.1684      0.28335753
       3472.9722      0.21535254
       3473.7761      0.26757223
       3474.5800      0.15461376
       3475.3839      0.17096679
       3476.1877      0.22429387
       3476.9916      0.25525142
       3477.7955      0.20599926
       3478.5993      0.24859328
       3479.4032      0.30168646
       3480.2071      0.20341579
       3481.0109      0.22273666
       3481.8148      0.29615689
       3482.6187      0.16923628
       3483.4225      0.27945664
       3484.2264      0.20743413
       3485.0303      0.25274433
       3485.8342      0.16031534
       3486.6380      0.20821249
       3487.4419      0.22085319
       3488.2458      0.26367534
       3489.0496      0.23063957
       3489.8535      0.24395458
       3490.6574      0.24136707
       3491.4612      0.19818439
       3492.2651      0.25006933
       3493.0690      0.16935948
       3493.8728      0.27637220
       3494.6767      0.21698861
       3495.4806      0.25325283
       3496.2845      0.12362227
       3497.0883      0.19251871
       3497.8922      0.26944265
       3498.6961      0.18882699
       3499.4999      0.25371687
       3500.3038      0.23090301
       3501.1077      0.25081707
       3501.9115      0.25767627
       3502.7154      0.20306641
       3503.5193      0.22594343
       3504.3232      0.22516177
       3505.1270      0.17681443
       3505.9309      0.16538392
       3506.7348      0.22473532
       3507.5386      0.17746147
       3508.3425      0.21589204
       3509.1464      0.21196074
       3509.9502      0.25682977
       3510.7541      0.18620986
       3511.5580      0.19067533
       3512.3618      0.27339115
       3513.1657      0.27205153
       3513.9696      0.24285496
       3514.7735      0.26104189
       3515.5773      0.17003014
       3516.3812      0.20694715
       3517.1851      0.22763819
       3517.9889      0.22180803
       3518.7928      0.29177178
       3519.5967      0.27254130
       3520.4005      0.23056968
       3521.2044      0.23151048
       3522.0083      0.22261554
       3522.8121      0.21660772
       3523.6160      0.25550336
       3524.4199      0.23477992
       3525.2238      0.20535939
       3526.0276      0.20953411
       3526.8315      0.18924281
       3527.6354      0.22322920
       3528.4392      0.28550576
       3529.2431      0.25300034
       3530.0470      0.23510670
       3530.8508      0.25197940
       3531.6547      0.29375131
       3532.4586      0.19996891
       3533.2624      0.28225082
       3534.0663      0.26015726
       3534.8702      0.25715789
       3535.6741      0.29719750
       3536.4779      0.19869991
       3537.2818      0.28515989
       3538.0857      0.23609511
       3538.8895      0.27220187
       3539.6934      0.20807469
       3540.4973      0.23483482
       3541.3011      0.26383520
       3542.1050      0.25377382
       3542.9089      0.26405899
       3543.7127      0.21327526
       3544.5166      0.32011873
       3545.3205      0.27447832
       3546.1244      0.26550673
       3546.9282      0.23109116
       3547.7321      0.27317026
       3548.5360      0.27079280
       3549.3398      0.24425979
       3550.1437      0.34779019
       3550.9476      0.30712269
       3551.7514      0.32922996
       3552.5553      0.20191421
       3553.3592      0.28202451
       3554.1631      0.24173829
       3554.9669      0.21574205
       3555.7708      0.28628792
       3556.5747      0.26792642
       3557.3785      0.25857125
       3558.1824      0.30985305
       3558.9863      0.26667038
       3559.7901      0.30715277
       3560.5940      0.27891707
       3561.3979      0.29524962
       3562.2017      0.28283080
       3563.0056      0.33937794
       3563.8095      0.28322609
       3564.6134      0.27928994
       3565.4172      0.19334904
       3566.2211      0.14859636
       3567.0250      0.20654668
       3567.8288      0.23282648
       3568.6327      0.24276025
       3569.4366      0.28616136
       3570.2404      0.25968042
       3571.0443      0.21555966
       3571.8482      0.24793145
       3572.6520      0.29476890
       3573.4559      0.26706175
       3574.2598      0.30361473
       3575.0637      0.25745993
       3575.8675      0.18633660
       3576.6714      0.23183025
       3577.4753      0.21988066
       3578.2791      0.19475529
       3579.0830      0.22269949
       3579.8869      0.25084173
       3580.6907      0.23461445
       3581.4946      0.14711579
       3582.2985      0.23213158
       3583.1023      0.29349553
       3583.9062      0.17952387
       3584.7101      0.22969508
       3585.5140      0.19428691
       3586.3178      0.25217821
       3587.1217      0.16325671
       3587.9256      0.22720775
       3588.7294      0.28601537
       3589.5333      0.24790380
       3590.3372      0.17735618
       3591.1410      0.20932490
       3591.9449      0.20457876
       3592.7488      0.18857615
       3593.5526      0.24028887
       3594.3565      0.25071113
       3595.1604      0.24997878
       3595.9643      0.33596586
       3596.7681      0.27152740
       3597.5720      0.21844684
       3598.3759      0.27273990
       3599.1797      0.28354235
       3599.9836      0.28980684
       3600.7875      0.20820055
       3601.5913      0.29200973
       3602.3952      0.25326367
       3603.1991      0.25294615
       3604.0030      0.21653768
       3604.8068      0.27877569
       3605.6107      0.26398771
       3606.4146      0.19236453
       3607.2184      0.22905970
       3608.0223      0.27846854
       3608.8262      0.30168506
       3609.6300      0.24560053
       3610.4339      0.21038227
       3611.2378      0.20740485
       3612.0416      0.28631831
       3612.8455      0.37971951
       3613.6494      0.24445405
       3614.4533      0.27356808
       3615.2571      0.31701944
       3616.0610      0.26859503
       3616.8649      0.24604299
       3617.6687      0.28733750
       3618.4726      0.21514708
       3619.2765      0.26642672
       3620.0803      0.27617608
       3620.8842      0.33332690
       3621.6881      0.31051553
       3622.4919      0.31155239
       3623.2958      0.23219334
       3624.0997      0.31838600
       3624.9036      0.25993742
       3625.7074      0.27590668
       3626.5113      0.30324195
       3627.3152      0.27123547
       3628.1190      0.31152476
       3628.9229      0.19695554
       3629.7268      0.26116443
       3630.5306      0.23995577
       3631.3345      0.26610843
       3632.1384      0.23302173
       3632.9422      0.21956403
       3633.7461      0.27721412
       3634.5500      0.23966614
       3635.3539      0.25833768
       3636.1577      0.24160961
       3636.9616      0.25784985
       3637.7655      0.31115254
       3638.5693      0.21779209
       3639.3732      0.29092997
       3640.1771      0.21353151
       3640.9809      0.20884674
       3641.7848      0.24154222
       3642.5887      0.36537963
       3643.3925      0.20873874
       3644.1964      0.30681801
       3645.0003      0.26734590
       3645.8042      0.28980936
       3646.6080      0.23749446
       3647.4119      0.24327708
       3648.2158      0.28564520
       3649.0196      0.24572877
       3649.8235      0.28159184
       3650.6274      0.26613560
       3651.4312      0.21586694
       3652.2351      0.27527759
       3653.0390      0.32082169
       3653.8429      0.27892006
       3654.6467      0.30925767
       3655.4506      0.23046571
       3656.2545      0.20992532
       3657.0583      0.28085908
       3657.8622      0.34115289
       3658.6661      0.29083905
       3659.4699      0.25320042
       3660.2738      0.28661348
       3661.0777      0.26365756
       3661.8815      0.22735716
       3662.6854      0.23298015
       3663.4893      0.30218323
       3664.2932      0.27991570
       3665.0970      0.30929389
       3665.9009      0.24385228
       3666.7048      0.31330467
       3667.5086      0.43771941
       3668.3125      0.36673936
       3669.1164      0.32733865
       3669.9202      0.25704628
       3670.7241      0.27918635
       3671.5280      0.30526465
       3672.3318      0.23777561
       3673.1357      0.26905240
       3673.9396      0.26801566
       3674.7435      0.32886240
       3675.5473      0.25035985
       3676.3512      0.31424493
       3677.1551      0.21211153
       3677.9589      0.30181009
       3678.7628      0.26223634
       3679.5667      0.25139928
       3680.3705      0.22377473
       3681.1744      0.24662884
       3681.9783      0.23211001
       3682.7821      0.26954025
       3683.5860      0.30195996
       3684.3899      0.26688406
       3685.1938      0.22974806
       3685.9976      0.25099613
       3686.8015      0.24650280
       3687.6054      0.30274556
       3688.4092      0.25831190
       3689.2131      0.28464543
       3690.0170      0.22419448
       3690.8208      0.28319718
       3691.6247      0.36514722
       3692.4286      0.28830201
       3693.2324      0.29001687
       3694.0363      0.26068132
       3694.8402      0.20898489
       3695.6441      0.23560872
       3696.4479      0.25410787
       3697.2518      0.29248984
       3698.0557      0.24223981
       3698.8595      0.25596738
       3699.6634      0.33884146
       3700.4673      0.28709163
       3701.2711      0.31587941
       3702.0750      0.19756064
       3702.8789      0.29458231
       3703.6828      0.26469571
       3704.4866      0.32396403
       3705.2905      0.23123310
       3706.0944      0.32300788
       3706.8982      0.25767653
       3707.7021      0.29941048
       3708.5060      0.31326411
       3709.3098      0.25854225
       3710.1137      0.26313353
       3710.9176      0.25031005
       3711.7214      0.32364576
       3712.5253      0.30870656
       3713.3292      0.25480858
       3714.1331      0.30528248
       3714.9369      0.37737692
       3715.7408      0.28455659
       3716.5447      0.35168311
       3717.3485      0.43126992
       3718.1524      0.30631159
       3718.9563      0.37598156
       3719.7601      0.49547636
       3720.5640      0.48294278
       3721.3679      0.54620759
       3722.1717      0.64464289
       3722.9756      0.46923870
       3723.7795      0.33309803
       3724.5834      0.40371666
       3725.3872      0.38770949
       3726.1911      0.31807758
       3726.9950      0.24721407
       3727.7988      0.20686807
       3728.6027      0.34509464
       3729.4066      0.24447520
       3730.2104      0.28165524
       3731.0143      0.24916539
       3731.8182      0.29185381
       3732.6220      0.26352264
       3733.4259      0.29317303
       3734.2298      0.35036471
       3735.0337      0.36496839
       3735.8375      0.28898222
       3736.6414      0.21312902
       3737.4453      0.33697780
       3738.2491      0.19872256
       3739.0530      0.20131753
       3739.8569      0.16596958
       3740.6607      0.23733588
       3741.4646      0.21821508
       3742.2685      0.27365195
       3743.0723      0.26703128
       3743.8762      0.27680430
       3744.6801      0.29062383
       3745.4840      0.24689425
       3746.2878      0.36950256
       3747.0917      0.36180776
       3747.8956      0.29792921
       3748.6994      0.36386563
       3749.5033      0.32886551
       3750.3072      0.33831013
       3751.1110      0.34114889
       3751.9149      0.34743118
       3752.7188      0.27723207
       3753.5227      0.30919344
       3754.3265      0.29102251
       3755.1304      0.31971225
       3755.9343      0.31839283
       3756.7381      0.34391157
       3757.5420      0.27308445
       3758.3459      0.35755854
       3759.1497      0.22686856
       3759.9536      0.23364069
       3760.7575      0.26206484
       3761.5613      0.27354030
       3762.3652      0.15062477
       3763.1691      0.22189374
       3763.9730      0.32186512
       3764.7768      0.27799658
       3765.5807      0.28742254
       3766.3846      0.30361921
       3767.1884      0.30345611
       3767.9923      0.27003166
       3768.7962      0.34831920
       3769.6000      0.36071570
       3770.4039      0.41246156
       3771.2078      0.33563227
       3772.0116      0.42800484
       3772.8155      0.35025302
       3773.6194      0.39849290
       3774.4233      0.42329313
       3775.2271      0.32390488
       3776.0310      0.38443743
       3776.8349      0.41294179
       3777.6387      0.36852545
       3778.4426      0.38372334
       3779.2465      0.38769986
       3780.0503      0.29356400
       3780.8542      0.30945469
       3781.6581      0.30824323
       3782.4619      0.28370552
       3783.2658      0.26496586
       3784.0697      0.30553161
       3784.8736      0.35497853
       3785.6774      0.28772889
       3786.4813      0.33370812
       3787.2852      0.26786960
       3788.0890      0.35391583
       3788.8929      0.28986902
       3789.6968      0.29026912
       3790.5006      0.24484908
       3791.3045      0.40700568
       3792.1084      0.26792004
       3792.9122      0.34126778
       3793.7161      0.34846223
       3794.5200      0.38912272
       3795.3239      0.42141101
       3796.1277      0.35445640
       3796.9316      0.34424975
       3797.7355      0.33346245
       3798.5393      0.37589490
       3799.3432      0.36643663
       3800.1471      0.48744048
       3800.9509      0.33015847
       3801.7548      0.37686735
       3802.5587      0.39724068
       3803.3626      0.38539664
       3804.1664      0.46368330
       3804.9703      0.36783898
       3805.7742      0.36021720
       3806.5780      0.36743939
       3807.3819      0.36729735
       3808.1858      0.34538016
       3808.9896      0.37234761
       3809.7935      0.34034766
       3810.5974      0.43342064
       3811.4012      0.36585993
       3812.2051      0.33691979
       3813.0090      0.33400482
       3813.8129      0.30429007
       3814.6167      0.36960845
       3815.4206      0.35784975
       3816.2245      0.32197365
       3817.0283      0.35904496
       3817.8322      0.32775675
       3818.6361      0.32364546
       3819.4399      0.31220002
       3820.2438      0.28337812
       3821.0477      0.33555622
       3821.8515      0.35770436
       3822.6554      0.24845682
       3823.4593      0.29886959
       3824.2632      0.28761867
       3825.0670      0.25655533
       3825.8709      0.27530027
       3826.6748      0.24859776
       3827.4786      0.28070162
       3828.2825      0.38062750
       3829.0864      0.32031372
       3829.8902      0.29237682
       3830.6941      0.30037450
       3831.4980      0.21219266
       3832.3018      0.30027787
       3833.1057      0.30735871
       3833.9096      0.41456066
       3834.7135      0.33382069
       3835.5173      0.37109885
       3836.3212      0.34745309
       3837.1251      0.36834591
       3837.9289      0.42849624
       3838.7328      0.45082501
       3839.5367      0.38061664
       3840.3405      0.41269895
       3841.1444      0.46473813
       3841.9483      0.40167308
       3842.7521      0.41188763
       3843.5560      0.41357609
       3844.3599      0.34766259
       3845.1638      0.33964346
       3845.9676      0.42755532
       3846.7715      0.42359446
       3847.5754      0.39869227
       3848.3792      0.48847272
       3849.1831      0.43206731
       3849.9870      0.36481634
       3850.7908      0.42007771
       3851.5947      0.37427945
       3852.3986      0.43979537
       3853.2025      0.40269284
       3854.0063      0.31528005
       3854.8102      0.32036557
       3855.6141      0.29100095
       3856.4179      0.41970861
       3857.2218      0.28682815
       3858.0257      0.34943909
       3858.8295      0.45369319
       3859.6334      0.35780246
       3860.4373      0.37013148
       3861.2411      0.39579600
       3862.0450      0.46582311
       3862.8489      0.37344081
       3863.6528      0.39110600
       3864.4566      0.34477514
       3865.2605      0.42090660
       3866.0644      0.40682105
       3866.8682      0.32420499
       3867.6721      0.45729741
       3868.4760      0.37295246
       3869.2798      0.35573150
       3870.0837      0.32649008
       3870.8876      0.33561062
       3871.6914      0.36338132
       3872.4953      0.32963131
       3873.2992      0.38327044
       3874.1031      0.28326142
       3874.9069      0.35400701
       3875.7108      0.33355441
       3876.5147      0.34460723
       3877.3185      0.38583510
       3878.1224      0.36311250
       3878.9263      0.40409368
       3879.7301      0.26953587
       3880.5340      0.26742581
       3881.3379      0.37425468
       3882.1417      0.34132815
       3882.9456      0.31178776
       3883.7495      0.37603332
       3884.5534      0.29687189
       3885.3572      0.40825020
       3886.1611      0.37508248
       3886.9650      0.40967236
       3887.7688      0.31234959
       3888.5727      0.40091157
       3889.3766      0.30460600
       3890.1804      0.48314933
       3890.9843      0.31278858
       3891.7882      0.37193003
       3892.5920      0.41049736
       3893.3959      0.39794345
       3894.1998      0.45613293
       3895.0037      0.48457843
       3895.8075      0.42533375
       3896.6114      0.49539831
       3897.4153      0.49394238
       3898.2191      0.41010065
       3899.0230      0.51225878
       3899.8269      0.49501703
       3900.6307      0.45405951
       3901.4346      0.37524435
       3902.2385      0.48062109
       3903.0424      0.42199682
       3903.8462      0.47723489
       3904.6501      0.46288901
       3905.4540      0.46436340
       3906.2578      0.32367456
       3907.0617      0.38878803
       3907.8656      0.44939695
       3908.6694      0.44937930
       3909.4733      0.38978969
       3910.2772      0.44858041
       3911.0810      0.41219213
       3911.8849      0.38776432
       3912.6888      0.40910074
       3913.4927      0.38469732
       3914.2965      0.32302416
       3915.1004      0.36442353
       3915.9043      0.42587325
       3916.7081      0.19619495
       3917.5120      0.34337458
       3918.3159      0.25412575
       3919.1197      0.27680105
       3919.9236      0.37716513
       3920.7275      0.29904129
       3921.5313      0.23528358
       3922.3352      0.37610769
       3923.1391      0.31438782
       3923.9430      0.34353728
       3924.7468      0.46247361
       3925.5507      0.37673732
       3926.3546      0.42473839
       3927.1584      0.35229862
       3927.9623      0.40681271
       3928.7662      0.39404873
       3929.5700      0.41802769
       3930.3739      0.38772960
       3931.1778      0.35712435
       3931.9816      0.39600059
       3932.7855      0.35819392
       3933.5894      0.38411915
       3934.3933      0.45288061
       3935.1971      0.35063829
       3936.0010      0.44918938
       3936.8049      0.39068391
       3937.6087      0.40383281
       3938.4126      0.35051600
       3939.2165      0.40678336
       3940.0203      0.45399555
       3940.8242      0.40499508
       3941.6281      0.44225250
       3942.4319      0.43141231
       3943.2358      0.45179508
       3944.0397      0.36951052
       3944.8436      0.32506429
       3945.6474      0.37962037
       3946.4513      0.38578647
       3947.2552      0.38761261
       3948.0590      0.40439961
       3948.8629      0.38328949
       3949.6668      0.22071456
       3950.4706      0.23566366
       3951.2745      0.29792652
       3952.0784      0.33710606
       3952.8823      0.19863349
       3953.6861      0.22632419
       3954.4900      0.26010089
       3955.2939      0.25701409
       3956.0977      0.28139445
       3956.9016      0.37561728
       3957.7055      0.23890688
       3958.5093      0.19936194
       3959.3132      0.32328072
       3960.1171      0.20864730
       3960.9209      0.29083952
       3961.7248      0.38029170
       3962.5287      0.33837394
       3963.3326      0.43059095
       3964.1364      0.39283612
       3964.9403      0.29472050
       3965.7442      0.40518256
       3966.5480      0.46724419
       3967.3519      0.44278427
       3968.1558      0.46343002
       3968.9596      0.35925559
       3969.7635      0.43980079
       3970.5674      0.46797113
       3971.3712      0.40002952
       3972.1751      0.36596749
       3972.9790      0.40499005
       3973.7829      0.44956934
       3974.5867      0.39677440
       3975.3906      0.41778437
       3976.1945      0.44511963
       3976.9983      0.48274780
       3977.8022      0.52658253
       3978.6061      0.44497711
       3979.4099      0.52527170
       3980.2138      0.46866202
       3981.0177      0.45725013
       3981.8215      0.46555496
       3982.6254      0.32913036
       3983.4293      0.39659526
       3984.2332      0.50788853
       3985.0370      0.41993464
       3985.8409      0.42223886
       3986.6448      0.42177364
       3987.4486      0.46030162
       3988.2525      0.44649159
       3989.0564      0.43388458
       3989.8602      0.51617872
       3990.6641      0.48934192
       3991.4680      0.48180761
       3992.2718      0.41629907
       3993.0757      0.46239820
       3993.8796      0.36035932
       3994.6835      0.44426039
       3995.4873      0.46038998
       3996.2912      0.50672612
       3997.0951      0.44718027
       3997.8989      0.50847113
       3998.7028      0.48606326
       3999.5067      0.39087140
       4000.3105      0.47506058
       4001.1144      0.45499819
       4001.9183      0.46955034
       4002.7222      0.45863362
       4003.5260      0.52193464
       4004.3299      0.41063697
       4005.1338      0.43255488
       4005.9376      0.55185571
       4006.7415      0.47955702
       4007.5454      0.42333446
       4008.3492      0.34163219
       4009.1531      0.38324663
       4009.9570      0.50631844
       4010.7608      0.49831534
       4011.5647      0.44061726
       4012.3686      0.44631771
       4013.1725      0.42114493
       4013.9763      0.38760946
       4014.7802      0.32863756
       4015.5841      0.40683273
       4016.3879      0.48892999
       4017.1918      0.40589147
       4017.9957      0.50797368
       4018.7995      0.44305429
       4019.6034      0.50541312
       4020.4073      0.52241713
       4021.2111      0.51008244
       4022.0150      0.53944273
       4022.8189      0.52579516
       4023.6228      0.47743006
       4024.4266      0.47108622
       4025.2305      0.38594673
       4026.0344      0.42765197
       4026.8382      0.49859363
       4027.6421      0.54012915
       4028.4460      0.51124613
       4029.2498      0.49982060
       4030.0537      0.46736886
       4030.8576      0.41197698
       4031.6614      0.42611636
       4032.4653      0.50297804
       4033.2692      0.47940790
       4034.0731      0.46806190
       4034.8769      0.52280933
       4035.6808      0.49408252
       4036.4847      0.59987921
       4037.2885      0.54126723
       4038.0924      0.49224137
       4038.8963      0.51344461
       4039.7001      0.49168857
       4040.5040      0.39817968
       4041.3079      0.47432623
       4042.1117      0.50092481
       4042.9156      0.38021036
       4043.7195      0.39185480
       4044.5234      0.46488584
       4045.3272      0.45129475
       4046.1311      0.48573402
       4046.9350      0.46123732
       4047.7388      0.50232269
       4048.5427      0.59586367
       4049.3466      0.44981672
       4050.1504      0.37034562
       4050.9543      0.46503669
       4051.7582      0.44420356
       4052.5621      0.47733342
       4053.3659      0.55328271
       4054.1698      0.41476977
       4054.9737      0.43893449
       4055.7775      0.41850704
       4056.5814      0.41920089
       4057.3853      0.50939554
       4058.1891      0.39401934
       4058.9930      0.39527050
       4059.7969      0.36995586
       4060.6007      0.53118790
       4061.4046      0.49422775
       4062.2085      0.46220566
       4063.0124      0.48328184
       4063.8162      0.47331741
       4064.6201      0.43431435
       4065.4240      0.46537685
       4066.2278      0.34138167
       4067.0317      0.43278072
       4067.8356      0.51847400
       4068.6394      0.45737217
       4069.4433      0.38060498
       4070.2472      0.44579546
       4071.0510      0.34716313
       4071.8549      0.44789817
       4072.6588      0.42275242
       4073.4627      0.48070608
       4074.2665      0.40085170
       4075.0704      0.38492718
       4075.8743      0.37819622
       4076.6781      0.36172303
       4077.4820      0.38229779
       4078.2859      0.42784155
       4079.0897      0.32494041
       4079.8936      0.41057609
       4080.6975      0.36197643
       4081.5013      0.42419003
       4082.3052      0.43136906
       4083.1091      0.36750712
       4083.9130      0.33813548
       4084.7168      0.36877382
       4085.5207      0.36470017
       4086.3246      0.30512718
       4087.1284      0.35862862
       4087.9323      0.31078350
       4088.7362      0.32550918
       4089.5400      0.35763571
       4090.3439      0.34692729
       4091.1478      0.50136652
       4091.9516      0.33054546
       4092.7555      0.40324450
       4093.5594      0.47379691
       4094.3633      0.40067477
       4095.1671      0.37007077
       4095.9710      0.42097954
       4096.7749      0.44486500
       4097.5787      0.37008580
       4098.3826      0.39085097
       4099.1865      0.45387114
       4099.9903      0.45633661
       4100.7942      0.44902838
       4101.5981      0.48631182
       4102.4020      0.38364986
       4103.2058      0.46210940
       4104.0097      0.36860760
       4104.8136      0.36259607
       4105.6174      0.50954735
       4106.4213      0.33510731
       4107.2252      0.46878136
       4108.0290      0.50341507
       4108.8329      0.44627538
       4109.6368      0.40229898
       4110.4406      0.33976018
       4111.2445      0.28696988
       4112.0484      0.42065726
       4112.8523      0.47158256
       4113.6561      0.42500962
       4114.4600      0.33556355
       4115.2639      0.44991795
       4116.0677      0.39418203
       4116.8716      0.41271349
       4117.6755      0.37075191
       4118.4793      0.33553075
       4119.2832      0.53256701
       4120.0871      0.28741709
       4120.8909      0.33821688
       4121.6948      0.43729374
       4122.4987      0.37567482
       4123.3026      0.31338671
       4124.1064      0.53780080
       4124.9103      0.23521244
       4125.7142      0.28382421
       4126.5180     0.025927665
       4127.3219      0.47516907
       4128.1258      0.29174529
       4128.9296      0.25880487
       4129.7335      0.31192216
       4130.5374      0.55611802
       4131.3412      0.37694115
       4132.1451      0.21734924
       4132.9490      0.36327831
       4133.7529      0.27703345
       4134.5567      0.32429671
       4135.3606      0.34492598
       4136.1645      0.33548386
       4136.9683      0.39082393
       4137.7722      0.42157839
       4138.5761      0.40062739
       4139.3799      0.30952060
       4140.1838      0.40332783
       4140.9877      0.37974289
       4141.7915      0.40733552
       4142.5954      0.33361171
       4143.3993      0.37426457
       4144.2032      0.35000877
       4145.0070      0.39102058
       4145.8109      0.35545682
       4146.6148      0.37535781
       4147.4186      0.32997395
       4148.2225      0.32605890
       4149.0264      0.38236181
       4149.8302      0.31808082
       4150.6341      0.33141295
       4151.4380      0.30861405
       4152.2419      0.22114848
       4153.0457      0.26239483
       4153.8496      0.31301338
       4154.6535      0.27079221
       4155.4573      0.25354773
       4156.2612      0.25204249
       4157.0651      0.10283112
       4157.8689      0.22922194
       4158.6728      0.28875201
       4159.4767      0.23077383
       4160.2805      0.16729079
       4161.0844      0.30465510
       4161.8883      0.28285675
       4162.6922      0.19256915
       4163.4960      0.19170823
       4164.2999      0.26628068
       4165.1038      0.27319995
       4165.9076      0.21502385
       4166.7115      0.23454520
       4167.5154      0.22422804
       4168.3192      0.17168160
       4169.1231      0.21347864
       4169.9270      0.24201804
       4170.7308      0.23535866
       4171.5347      0.29009757
       4172.3386      0.32219344
       4173.1425      0.27408250
       4173.9463      0.20081436
       4174.7502      0.19921420
       4175.5541      0.22124916
       4176.3579      0.14843413
       4177.1618      0.14786886
       4177.9657      0.25029172
       4178.7695      0.16163249
       4179.5734      0.16934500
       4180.3773      0.20383428
       4181.1811      0.22332972
       4181.9850      0.23168272
       4182.7889      0.20510441
       4183.5928      0.14560771
       4184.3966      0.11800988
       4185.2005      0.18277627
       4186.0044      0.21387811
       4186.8082      0.26259897
       4187.6121     0.098941916
       4188.4160      0.13713331
       4189.2198      0.13833633
       4190.0237      0.11264534
       4190.8276      0.14881229
       4191.6314      0.16695052
       4192.4353      0.22141120
       4193.2392      0.14208361
       4194.0431      0.14162025
       4194.8469      0.14960388
       4195.6508      0.12515574
       4196.4547      0.23861603
       4197.2585      0.20060785
       4198.0624     0.090565596
       4198.8663     0.071565942
       4199.6701      0.17426598
       4200.4740      0.21057151
       4201.2779      0.15050990
       4202.0818      0.17808379
       4202.8856     0.078756716
       4203.6895     0.034845932
       4204.4934      0.16844723
       4205.2972      0.14733550
       4206.1011      0.19076303
       4206.9050      0.16054878
       4207.7088      0.12869303
       4208.5127      0.11524345
       4209.3166      0.10563035
       4210.1204      0.15364321
       4210.9243      0.16861245
       4211.7282     0.034167258
       4212.5321     0.082857280
       4213.3359     0.046011275
       4214.1398     0.033030285
       4214.9437     0.097718698
       4215.7475      0.14847700
       4216.5514     0.091438658
       4217.3553      0.18034759
       4218.1591      0.13709177
       4218.9630      0.11679276
       4219.7669     0.063207101
       4220.5707    -0.017354666
       4221.3746     0.095467037
       4222.1785      0.23966657
       4222.9824      0.16371503
       4223.7862      0.16722714
       4224.5901      0.13527063
       4225.3940     0.064753972
       4226.1978     0.031872440
       4227.0017    -0.021037852
       4227.8056      0.12628307
       4228.6094     0.088068154
       4229.4133      0.11353108
       4230.2172     0.057509951
       4231.0210     0.069419628
       4231.8249     0.091865895
       4232.6288      0.17838882
       4662.7280       1.2065004
       4663.6120      0.91674821
       4664.4960      0.92913460
       4665.3800      0.78908165
       4666.2639      0.80104712
       4667.1479      0.85556981
       4668.0319      0.51211650
       4668.9159      0.57531177
       4669.7999      0.73580924
       4670.6839      0.71686305
       4671.5679      0.71424866
       4672.4519      0.74078148
       4673.3358      0.70348653
       4674.2198      0.73420198
       4675.1038      0.66352496
       4675.9878      0.62674815
       4676.8718      0.67942264
       4677.7558      0.59667560
       4678.6398      0.63570197
       4679.5238      0.59114629
       4680.4077      0.57426174
       4681.2917      0.74366954
       4682.1757      0.87191737
       4683.0597      0.71778248
       4683.9437      0.72716979
       4684.8277      0.62968020
       4685.7117      0.66593062
       4686.5956      0.61246900
       4687.4796      0.71623804
       4688.3636      0.64434628
       4689.2476      0.60906970
       4690.1316      0.59812294
       4691.0156      0.64042846
       4691.8996      0.61937468
       4692.7836      0.60136591
       4693.6675      0.58102618
       4694.5515      0.60294183
       4695.4355      0.68597131
       4696.3195      0.74340197
       4697.2035      0.78329416
       4698.0875      0.78070181
       4698.9715      0.80785592
       4699.8555      0.81852527
       4700.7394      0.55064941
       4701.6234      0.73848533
       4702.5074      0.75017543
       4703.3914      0.65447868
       4704.2754      0.58287287
       4705.1594      0.58113958
       4706.0434      0.64885974
       4706.9273      0.46808176
       4707.8113      0.50541104
       4708.6953      0.45540558
       4709.5793      0.41594838
       4710.4633      0.45215479
       4711.3473      0.58758850
       4712.2313      0.88774552
       4713.1153      0.58089539
       4713.9992      0.53774352
       4714.8832      0.60733042
       4715.7672      0.53666346
       4716.6512      0.75575846
       4717.5352      0.56784062
       4718.4192      0.64130734
       4719.3032      0.58356492
       4720.1872      0.62816086
       4721.0711      0.55382017
       4721.9551      0.81892467
       4722.8391      0.66579976
       4723.7231      0.86027208
       4724.6071      0.79710871
       4725.4911      0.80471277
       4726.3751      0.62013764
       4727.2590      0.64017460
       4728.1430      0.77610949
       4729.0270      0.57438333
       4729.9110      0.65328582
       4730.7950      0.67421948
       4731.6790      0.67356858
       4732.5630      0.59279684
       4733.4470      0.66186058
       4734.3309      0.72014046
       4735.2149      0.64424443
       4736.0989      0.70136636
       4736.9829      0.80188604
       4737.8669      0.70759211
       4738.7509      0.71239001
       4739.6349      0.62545947
       4740.5189      0.71166712
       4741.4028      0.64417591
       4742.2868      0.66498495
       4743.1708      0.57914866
       4744.0548      0.61680601
       4744.9388      0.63942782
       4745.8228      0.68752315
       4746.7068      0.79262165
       4747.5907      0.72329282
       4748.4747      0.73003715
       4749.3587      0.76964262
       4750.2427      0.76708426
       4751.1267      0.62049700
       4752.0107      0.65482704
       4752.8947      0.69146661
       4753.7787      0.64126512
       4754.6626      0.62055367
       4755.5466      0.70353753
       4756.4306      0.76191153
       4757.3146      0.81807638
       4758.1986      0.86275544
       4759.0826      0.81808587
       4759.9666      0.79020058
       4760.8506      0.76406981
       4761.7345      0.86619906
       4762.6185      0.83185176
       4763.5025      0.71143308
       4764.3865      0.71436957
       4765.2705      0.65118964
       4766.1545      0.71085169
       4767.0385      0.71388446
       4767.9224      0.70689023
       4768.8064      0.66505475
       4769.6904      0.68900305
       4770.5744      0.73917847
       4771.4584      0.65042006
       4772.3424      0.81018363
       4773.2264      0.81057900
       4774.1104      0.80834255
       4774.9943      0.63900918
       4775.8783      0.74561229
       4776.7623      0.71354482
       4777.6463      0.83567564
       4778.5303      0.59599700
       4779.4143      0.69667046
       4780.2983      0.70438261
       4781.1823      0.68011740
       4782.0662      0.73036039
       4782.9502      0.65712464
       4783.8342      0.76493687
       4784.7182      0.64987569
       4785.6022      0.82657001
       4786.4862      0.74964371
       4787.3702      0.75200933
       4788.2541      0.60219250
       4789.1381      0.50306326
       4790.0221      0.66585359
       4790.9061      0.62867348
       4791.7901      0.59563942
       4792.6741      0.60082638
       4793.5581      0.68392712
       4794.4421      0.82785135
       4795.3260      0.70055620
       4796.2100      0.62254334
       4797.0940      0.66764148
       4797.9780      0.75422764
       4798.8620      0.68340035
       4799.7460      0.71724173
       4800.6300      0.86366604
       4801.5139      0.71473582
       4802.3979      0.73922810
       4803.2819      0.69549483
       4804.1659      0.74218327
       4805.0499      0.69653918
       4805.9339      0.66742689
       4806.8179      0.56834758
       4807.7019      0.63418744
       4808.5858      0.75479619
       4809.4698      0.76920639
       4810.3538      0.80463387
       4811.2378      0.70404081
       4812.1218      0.81556797
       4813.0058      0.73796054
       4813.8898      0.76104071
       4814.7738      0.78776589
       4815.6577      0.71369186
       4816.5417      0.72562403
       4817.4257      0.74208655
       4818.3097      0.75278997
       4819.1937      0.78273242
       4820.0777      0.64316397
       4820.9617      0.59393449
       4821.8456      0.62322392
       4822.7296      0.71821523
       4823.6136      0.61855758
       4824.4976      0.66656003
       4825.3816      0.51816597
       4826.2656      0.63826180
       4827.1496      0.71498114
       4828.0336      0.60478104
       4828.9175      0.62097888
       4829.8015      0.58226004
       4830.6855      0.68012710
       4831.5695      0.70558821
       4832.4535      0.61737849
       4833.3375      0.66974807
       4834.2215      0.68502975
       4835.1055      0.66324409
       4835.9894      0.64149876
       4836.8734      0.68821987
       4837.7574      0.72665831
       4838.6414      0.72044037
       4839.5254      0.65408329
       4840.4094      0.74549572
       4841.2934      0.81429895
       4842.1773      0.89113909
       4843.0613       1.0307538
       4843.9453       1.0726248
       4844.8293       1.1617810
       4845.7133       1.1203598
       4846.5973       1.1084314
       4847.4813      0.85664357
       4848.3653      0.72675886
       4849.2492      0.68394719
       4850.1332      0.69604934
       4851.0172      0.72937789
       4851.9012      0.62513528
       4852.7852      0.61646446
       4853.6692      0.61583594
       4854.5532      0.58614171
       4855.4372      0.63622113
       4856.3211      0.60375998
       4857.2051      0.64114209
       4858.0891      0.50422504
       4858.9731      0.51633349
       4859.8571      0.60801422
       4860.7411      0.59347318
       4861.6251      0.78413556
       4862.5090      0.71560640
       4863.3930      0.54592322
       4864.2770      0.75661867
       4865.1610      0.70909665
       4866.0450      0.59791560
       4866.9290      0.62242424
       4867.8130      0.69932348
       4868.6970      0.66811415
       4869.5809      0.58989006
       4870.4649      0.62234295
       4871.3489      0.74278183
       4872.2329      0.66048033
       4873.1169      0.69514494
       4874.0009      0.60612513
       4874.8849      0.57937820
       4875.7689      0.71144401
       4876.6528      0.67771038
       4877.5368      0.68461199
       4878.4208      0.63712996
       4879.3048      0.72965351
       4880.1888      0.63129818
       4881.0728      0.72565679
       4881.9568      0.72230999
       4882.8407      0.75785634
       4883.7247      0.77234541
       4884.6087      0.67331371
       4885.4927      0.54349287
       4886.3767      0.64265134
       4887.2607      0.59678773
       4888.1447      0.65083136
       4889.0287      0.65328159
       4889.9126      0.78844002
       4890.7966      0.78043630
       4891.6806      0.75424852
       4892.5646      0.67906209
       4893.4486      0.72017049
       4894.3326      0.67054950
       4895.2166      0.65196522
       4896.1006      0.66898787
       4896.9845      0.63641608
       4897.8685      0.62926093
       4898.7525      0.71708645
       4899.6365      0.66781012
       4900.5205      0.80436319
       4901.4045      0.64620878
       4902.2885      0.63369366
       4903.1724      0.74125908
       4904.0564      0.59612478
       4904.9404      0.67056033
       4905.8244      0.68646792
       4906.7084      0.58977383
       4907.5924      0.66797494
       4908.4764      0.58714920
       4909.3604      0.48828648
       4910.2443      0.65908070
       4911.1283      0.61009189
       4912.0123      0.58447101
       4912.8963      0.65110764
       4913.7803      0.71059574
       4914.6643      0.78487343
       4915.5483      0.73705545
       4916.4322      0.68636797
       4917.3162      0.68587372
       4918.2002      0.75249953
       4919.0842      0.62492059
       4919.9682      0.68000901
       4920.8522      0.63772107
       4921.7362      0.67362379
       4922.6202      0.63790896
       4923.5041      0.58766804
       4924.3881      0.59423909
       4925.2721      0.75591069
       4926.1561      0.65839637
       4927.0401      0.66428787
       4927.9241      0.67136259
       4928.8081      0.71688950
       4929.6921      0.86163441
       4930.5760      0.79132969
       4931.4600      0.65939898
       4932.3440      0.69534310
       4933.2280      0.70018618
       4934.1120      0.69885517
       4934.9960      0.71305649
       4935.8800      0.72095631
       4936.7639      0.74905765
       4937.6479      0.76032949
       4938.5319      0.72948067
       4939.4159      0.71317795
       4940.2999      0.70703436
       4941.1839      0.63055350
       4942.0679      0.75805608
       4942.9519      0.78811361
       4943.8358      0.79475087
       4944.7198      0.69492541
       4945.6038      0.71468137
       4946.4878      0.75950843
       4947.3718      0.81829976
       4948.2558      0.90176352
       4949.1398      0.78818328
       4950.0238      0.77930575
       4950.9077      0.81231024
       4951.7917      0.70062834
       4952.6757      0.69040690
       4953.5597      0.70404775
       4954.4437      0.69306907
       4955.3277      0.75799257
       4956.2117      0.65757795
       4957.0956      0.67643163
       4957.9796      0.76437696
       4958.8636      0.64965035
       4959.7476      0.66000793
       4960.6316      0.65846681
       4961.5156      0.67683718
       4962.3996      0.60592209
       4963.2836      0.56054031
       4964.1675      0.71272824
       4965.0515      0.64981981
       4965.9355      0.69775896
       4966.8195      0.64156419
       4967.7035      0.60742311
       4968.5875      0.67528606
       4969.4715      0.66887673
       4970.3555      0.65627887
       4971.2394      0.50433815
       4972.1234      0.60041547
       4973.0074      0.75751488
       4973.8914      0.60364089
       4974.7754      0.78390436
       4975.6594      0.70785195
       4976.5434      0.76803068
       4977.4273      0.64718969
       4978.3113      0.63459271
       4979.1953      0.59130274
       4980.0793      0.58969893
       4980.9633      0.69409677
       4981.8473      0.68909300
       4982.7313      0.67737610
       4983.6153      0.65439498
       4984.4992      0.65787446
       4985.3832      0.60885981
       4986.2672      0.75443249
       4987.1512      0.58938305
       4988.0352      0.66617469
       4988.9192      0.55397312
       4989.8032      0.69735921
       4990.6872      0.74566114
       4991.5711      0.76867498
       4992.4551      0.84379930
       4993.3391      0.84233972
       4994.2231      0.85032252
       4995.1071      0.93916201
       4995.9911      0.91804480
       4996.8751      0.86464596
       4997.7590      0.76694590
       4998.6430      0.76575770
       4999.5270      0.66956939
       5000.4110      0.78341750
       5001.2950      0.78304360
       5002.1790      0.68105026
       5003.0630      0.62815079
       5003.9470      0.68585836
       5004.8309      0.70218548
       5005.7149      0.59487099
       5006.5989      0.62643909
       5007.4829      0.58870466
       5008.3669      0.64941315
       5009.2509      0.64881157
       5010.1349      0.59050093
       5011.0189      0.56475926
       5011.9028      0.63455746
       5012.7868      0.69607753
       5013.6708      0.61526820
       5014.5548      0.62297406
       5015.4388      0.59252083
       5016.3228      0.62487525
       5017.2068      0.60704702
       5018.0907      0.57200704
       5018.9747      0.60553523
       5019.8587      0.55833795
       5020.7427      0.58903995
       5021.6267      0.71171179
       5022.5107      0.62087588
       5023.3947      0.57494747
       5024.2787      0.74013435
       5025.1626      0.70746389
       5026.0466      0.65666629
       5026.9306      0.68177154
       5027.8146      0.45770559
       5028.6986      0.68302624
       5029.5826      0.65773431
       5030.4666      0.66634344
       5031.3506      0.69597134
       5032.2345      0.75073492
       5033.1185      0.57881135
       5034.0025      0.58457924
       5034.8865      0.65082073
       5035.7705      0.75433773
       5036.6545      0.75543256
       5037.5385      0.61221154
       5038.4224      0.52257917
       5039.3064      0.56727679
       5040.1904      0.57896447
       5041.0744      0.62385727
       5041.9584      0.60070358
       5042.8424      0.61856768
       5043.7264      0.63660668
       5044.6104      0.66610476
       5045.4943      0.74309813
       5046.3783      0.59666711
       5047.2623      0.55758824
       5048.1463      0.65619524
       5049.0303      0.56332665
       5049.9143      0.66108343
       5050.7983      0.67603524
       5051.6822      0.56799585
       5052.5662      0.58635832
       5053.4502      0.70676234
       5054.3342      0.54083734
       5055.2182      0.74242601
       5056.1022      0.66270745
       5056.9862      0.66971935
       5057.8702      0.59295238
       5058.7541      0.59351835
       5059.6381      0.73682815
       5060.5221      0.72193523
       5061.4061      0.69790158
       5062.2901      0.65731299
       5063.1741      0.69924464
       5064.0581      0.68869812
       5064.9421      0.65618250
       5065.8260      0.68829570
       5066.7100      0.64232209
       5067.5940      0.54235702
       5068.4780      0.58913476
       5069.3620      0.67918056
       5070.2460      0.69536815
       5071.1300      0.57740411
       5072.0139      0.78770524
       5072.8979      0.46590257
       5073.7819      0.55631778
       5074.6659      0.45889205
       5075.5499      0.63234465
       5076.4339      0.73053101
       5077.3179      0.53853957
       5078.2019      0.70140123
       5079.0858      0.70011864
       5079.9698      0.59225417
       5080.8538      0.64257080
       5081.7378      0.77763128
       5082.6218      0.67162036
       5083.5058      0.67746593
       5084.3898      0.64235417
       5085.2738      0.63355746
       5086.1577      0.67655971
       5087.0417      0.64871257
       5087.9257      0.71495430
       5088.8097      0.71032123
       5089.6937      0.71664997
       5090.5777      0.71527821
       5091.4617      0.68206391
       5092.3456      0.58895918
       5093.2296      0.66058627
       5094.1136      0.64894892
       5094.9976      0.54370079
       5095.8816      0.69213710
       5096.7656      0.64629150
       5097.6496      0.57584401
       5098.5336      0.61679291
       5099.4175      0.44910246
       5100.3015      0.46637281
       5101.1855      0.52981124
       5102.0695      0.44075663
       5102.9535      0.37549609
       5103.8375      0.48586115
       5104.7215      0.53313539
       5105.6055      0.46756046
       5106.4894      0.58019953
       5107.3734      0.67127158
       5108.2574      0.60632649
       5109.1414      0.61294073
       5110.0254      0.63567623
       5110.9094      0.56335577
       5111.7934      0.60210496
       5112.6773      0.61444559
       5113.5613      0.68798569
       5114.4453      0.58538339
       5115.3293      0.49651684
       5116.2133      0.58985635
       5117.0973      0.59881525
       5117.9813      0.64236688
       5118.8653      0.52950843
       5119.7492      0.57200041
       5120.6332      0.58202373
       5121.5172      0.63819954
       5122.4012      0.63392256
       5123.2852      0.69164602
       5124.1692      0.59378507
       5125.0532      0.59759048
       5125.9372      0.58325789
       5126.8211      0.64910643
       5127.7051      0.57497652
       5128.5891      0.54757220
       5129.4731      0.66225194
       5130.3571      0.59165670
       5131.2411      0.62625459
       5132.1251      0.55733955
       5133.0090      0.60434795
       5133.8930      0.66681885
       5134.7770      0.64303499
       5135.6610      0.55644575
       5136.5450      0.60729672
       5137.4290      0.73394526
       5138.3130      0.54504472
       5139.1970      0.56906502
       5140.0809      0.73119018
       5140.9649      0.54085972
       5141.8489      0.63040894
       5142.7329      0.70433056
       5143.6169      0.73885875
       5144.5009      0.59338704
       5145.3849      0.67709070
       5146.2689      0.63078325
       5147.1528      0.59325172
       5148.0368      0.66703027
       5148.9208      0.58842608
       5149.8048      0.56221445
       5150.6888      0.64122964
       5151.5728      0.63565466
       5152.4568      0.52920725
       5153.3407      0.71187650
       5154.2247      0.72152195
       5155.1087      0.59941445
       5155.9927      0.51559442
       5156.8767      0.67012548
       5157.7607      0.61081818
       5158.6447      0.60521883
       5159.5287      0.54212003
       5160.4126      0.51070261
       5161.2966      0.47524967
       5162.1806      0.47827346
       5163.0646      0.50919488
       5163.9486      0.62419917
       5164.8326      0.50823781
       5165.7166      0.55945002
       5166.6006      0.62053365
       5167.4845      0.64559616
       5168.3685      0.55319012
       5169.2525      0.57805202
       5170.1365      0.69363708
       5171.0205      0.76236350
       5171.9045      0.59719948
       5172.7885      0.58366165
       5173.6724      0.59960818
       5174.5564      0.72955303
       5175.4404      0.56241059
       5176.3244      0.62222729
       5177.2084      0.62256749
       5178.0924      0.58845490
       5178.9764      0.67465178
       5179.8604      0.66955608
       5180.7443      0.57060413
       5181.6283      0.65871974
       5182.5123      0.54297887
       5183.3963      0.66990104
       5184.2803      0.62926606
       5185.1643      0.61215807
       5186.0483      0.56802860
       5186.9322      0.50518644
       5187.8162      0.65405759
       5188.7002      0.67652057
       5189.5842      0.71360386
       5190.4682      0.69537169
       5191.3522      0.70700293
       5192.2362      0.67059681
       5193.1202      0.69812832
       5194.0041      0.70919748
       5194.8881      0.66112687
       5195.7721      0.73861186
       5196.6561      0.76907518
       5197.5401      0.76154629
       5198.4241      0.67229984
       5199.3081      0.61718367
       5200.1921      0.51426725
       5201.0760      0.59921970
       5201.9600      0.58440146
       5202.8440      0.68682665
       5203.7280      0.57316391
       5204.6120      0.60268736
       5205.4960      0.53155381
       5206.3800      0.61081956
       5207.2639      0.79489579
       5208.1479      0.62303786
       5209.0319      0.77324107
       5209.9159      0.57354043
       5210.7999      0.62534028
       5211.6839      0.75988449
       5212.5679      0.57524455
       5213.4519      0.64525016
       5214.3358      0.76182386
       5215.2198      0.64710511
       5216.1038      0.69510314
       5216.9878      0.64903422
       5217.8718      0.71130535
       5218.7558      0.67082938
       5219.6398      0.72660656
       5220.5238      0.64354204
       5221.4077      0.71705203
       5222.2917      0.69032688
       5223.1757      0.65147055
       5224.0597      0.69619691
       5224.9437      0.71987973
       5225.8277      0.72167149
       5226.7117      0.69667290
       5227.5956      0.74146242
       5228.4796      0.90035916
       5229.3636      0.72873762
       5230.2476      0.64288711
       5231.1316      0.73772046
       5232.0156      0.78558179
       5232.8996      0.61028652
       5233.7836      0.66079502
       5234.6675      0.78222007
       5235.5515      0.70283313
       5236.4355      0.76370768
       5237.3195      0.68086084
       5238.2035      0.66790222
       5239.0875      0.70253611
       5239.9715      0.73868929
       5240.8555      0.56975670
       5241.7394      0.67887679
       5242.6234      0.78907632
       5243.5074      0.80653865
       5244.3914      0.67182101
       5245.2754      0.66232961
       5246.1594      0.66784385
       5247.0434      0.71991712
       5247.9273      0.63249894
       5248.8113      0.66350648
       5249.6953      0.66456727
       5250.5793      0.71667747
       5251.4633      0.71506706
       5252.3473      0.65739504
       5253.2313      0.65658785
       5254.1153      0.85427998
       5254.9992      0.73031209
       5255.8832      0.57334168
       5256.7672      0.71212841
       5257.6512      0.57922188
       5258.5352      0.59956341
       5259.4192      0.58510439
       5260.3032      0.64575913
       5261.1872      0.61710836
       5262.0711      0.60255285
       5262.9551      0.59098504
       5263.8391      0.60161944
       5264.7231      0.54718072
       5265.6071      0.67697493
       5266.4911      0.65285307
       5267.3751      0.58575115
       5268.2590      0.58594567
       5269.1430      0.49761938
       5270.0270      0.65242085
       5270.9110      0.62947290
       5271.7950      0.64382343
       5272.6790      0.67021237
       5273.5630      0.67733066
       5274.4470      0.68544061
       5275.3309      0.63986377
       5276.2149      0.67279157
       5277.0989      0.79789338
       5277.9829      0.72743604
       5278.8669      0.66750875
       5279.7509      0.69145506
       5280.6349      0.59448634
       5281.5189      0.62903167
       5282.4028      0.75237998
       5283.2868      0.65324869
       5284.1708      0.77065346
       5285.0548      0.77372807
       5285.9388      0.64531746
       5286.8228      0.74685876
       5287.7068      0.62890569
       5288.5907      0.72344204
       5289.4747      0.70836964
       5290.3587      0.64339558
       5291.2427      0.70747022
       5292.1267      0.75977027
       5293.0107      0.59238303
       5293.8947      0.70461334
       5294.7787      0.66319053
       5295.6626      0.65900897
       5296.5466      0.69874917
       5297.4306      0.59873020
       5298.3146      0.76821858
       5299.1986      0.64842174
       5300.0826      0.63991960
       5300.9666      0.68902329
       5301.8505      0.87775614
       5302.7345      0.83026528
       5303.6185      0.69508349
       5304.5025      0.82068380
       5305.3865      0.76530472
       5306.2705      0.62513110
       5307.1545      0.66825167
       5308.0385      0.69550905
       5308.9224      0.70551126
       5309.8064      0.73364639
       5310.6904      0.64603154
       5311.5744      0.77939249
       5312.4584      0.76058911
       5313.3424      0.68158737
       5314.2264      0.82360754
       5315.1104      0.80408699
       5315.9943      0.68740828
       5316.8783      0.72623557
       5317.7623      0.72065864
       5318.6463      0.67813538
       5319.5303      0.76099235
       5320.4143      0.66420388
       5321.2983      0.60574087
       5322.1822      0.70409607
       5323.0662      0.72576563
       5323.9502      0.68146862
       5324.8342      0.65716832
       5325.7182      0.61046212
       5326.6022      0.71077152
       5327.4862      0.67086952
       5328.3702      0.72136110
       5329.2541      0.68203379
       5330.1381      0.72197070
       5331.0221      0.76780751
       5331.9061      0.81572198
       5332.7901      0.72309380
       5333.6741      0.71936493
       5334.5581      0.63386974
       5335.4421      0.68084829
       5336.3260      0.77502149
       5337.2100      0.82238698
       5338.0940      0.74637421
       5338.9780      0.76550464
       5339.8620      0.58578038
       5340.7460      0.66769899
       5341.6300      0.68907752
       5342.5139      0.70364392
       5343.3979      0.69438147
       5344.2819      0.61542157
       5345.1659      0.74192636
       5346.0499      0.65484752
       5346.9339      0.61724847
       5347.8179      0.72441027
       5348.7019      0.70359409
       5349.5858      0.69013436
       5350.4698      0.75931291
       5351.3538      0.77150603
       5352.2378      0.83131763
       5353.1218      0.77240557
       5354.0058      0.72483262
       5354.8898      0.75866379
       5355.7738      0.82092856
       5356.6577      0.69260003
       5357.5417      0.85687855
       5358.4257      0.67575029
       5359.3097      0.69287993
       5360.1937      0.74224031
       5361.0777      0.69389442
       5361.9617      0.73278750
       5362.8456      0.70160038
       5363.7296      0.85355852
       5364.6136      0.80260757
       5365.4976      0.83952270
       5366.3816      0.78710914
       5367.2656      0.77126666
       5368.1496      0.72784803
       5369.0336      0.69245561
       5369.9175      0.59360817
       5370.8015      0.75377849
       5371.6855      0.77857265
       5372.5695      0.76378551
       5373.4535      0.68196316
       5374.3375      0.83284354
       5375.2215      0.74986291
       5376.1055      0.71127870
       5376.9894      0.75174826
       5377.8734      0.75789661
       5378.7574      0.52382005
       5379.6414      0.76094589
       5380.5254      0.71366197
       5381.4094      0.67739270
       5382.2934      0.71337182
       5383.1773      0.76413080
       5384.0613      0.85717093
       5384.9453      0.79013890
       5385.8293      0.24995092
       5386.7133      0.78526337
       5387.5973      0.67117081
       5388.4813      0.72176962
       5389.3653      0.69048561
       5390.2492      0.52546044
       5391.1332      0.64983898
       5392.0172      0.60339130
       5392.9012      0.68258296
       5393.7852      0.70928498
       5394.6692      0.70636713
       5395.5532      0.67123876
       5396.4372      0.74312017
       5397.3211      0.63871177
       5398.2051      0.64225638
       5399.0891      0.70938682
       5399.9731      0.72044845
       5400.8571      0.79103894
       5401.7411      0.72142189
       5402.6251      0.73357536
       5403.5090      0.70384093
       5404.3930      0.60642170
       5405.2770      0.64518384
       5406.1610      0.58896952
       5407.0450      0.48220314
       5407.9290      0.48419181
       5408.8130      0.32415031
       5409.6970      0.83634121
       5410.5809      0.60022963
       5411.4649      0.55678909
       5412.3489      0.69212151
       5413.2329      0.56884077
       5414.1169      0.69481565
       5415.0009      0.60880408
       5415.8849      0.52530550
       5416.7689      0.66839526
       5417.6528      0.62159132
       5418.5368      0.65135919
       5419.4208      0.64607575
       5420.3048      0.55825783
       5421.1888      0.69648563
       5422.0728      0.75351169
       5422.9568      0.66715419
       5423.8407      0.76511271
       5424.7247      0.72431447
       5425.6087      0.73725478
       5426.4927      0.93162151
       5427.3767      0.73133264
       5428.2607      0.56606093
       5429.1447      0.71292732
       5430.0287      0.60778887
       5430.9126      0.73413964
       5431.7966      0.55381705
       5432.6806      0.62850833
       5433.5646      0.78209003
       5434.4486      0.58909478
       5435.3326      0.74296416
       5436.2166      0.72888134
       5437.1005      0.70666065
       5437.9845      0.68398616
       5438.8685      0.76592223
       5439.7525      0.60974598
       5440.6365      0.56706583
       5441.5205      0.66834305
       5442.4045      0.63193686
       5443.2885      0.71661107
       5444.1724      0.69893330
       5445.0564      0.70793760
       5445.9404      0.71235626
       5446.8244      0.73740809
       5447.7084      0.63154082
       5448.5924      0.68104955
       5449.4764      0.76322642
       5450.3604      0.43041885
       5451.2443      0.84069653
       5452.1283      0.74389876
       5453.0123      0.76078376
       5453.8963      0.58228482
       5454.7803      0.66209150
       5455.6643      0.61292343
       5456.5483      0.78567428
       5457.4322      0.73236503
       5458.3162      0.79069911
       5459.2002      0.50748494
       5460.0842      0.83719121
       5460.9682      0.88998016
       5461.8522      0.70533523
       5462.7362      0.59875019
       5463.6202      0.74967476
       5464.5041      0.84639339
       5465.3881      0.66770032
       5466.2721      0.80669184
       5467.1561      0.74804851
       5468.0401      0.84304052
       5468.9241      0.70912952
       5469.8081      0.54495220
       5470.6921      0.64723458
       5471.5760      0.67396776
       5472.4600      0.70149513
       5473.3440      0.88325988
       5474.2280      0.68727847
       5475.1120      0.64019419
       5475.9960      0.66396072
       5476.8800      0.70919731
       5477.7639      0.61203640
       5478.6479      0.61729810
       5479.5319      0.37965542
       5480.4159      0.51137145
       5481.2999      0.77835436
       5482.1839      0.73528975
       5483.0679      0.58760500
       5483.9519      0.94636981
       5484.8358      0.73771913
       5485.7198      0.83472883
       5486.6038      0.81612244
       5487.4878      0.74652962
       5488.3718      0.83491773
       5489.2558      0.74250195
       5490.1398      0.77615237
       5491.0238      0.82022800
       5491.9077      0.73748602
       5492.7917      0.70967456
       5493.6757      0.86588905
       5494.5597      0.76665497
       5495.4437      0.84895530
       5496.3277      0.85867168
       5497.2117      0.69483329
       5498.0956      0.90375697
       5498.9796      0.62954145
       5499.8636      0.68673353
       5500.7476      0.71841055
       5501.6316      0.74717527
       5502.5156      0.60640538
       5503.3996      0.81351927
       5504.2836      0.65775138
       5505.1675      0.87351363
       5506.0515       1.1061923
       5506.9355      0.71443693
       5507.8195      0.63635000
       5508.7035      0.55345794
       5509.5875      0.80624480
       5510.4715      0.72920431
       5511.3555      0.71830344
       5512.2394      0.71612660
       5513.1234      0.85917243
       5514.0074      0.77255346
       5514.8914      0.73695708
       5515.7754      0.69878581
       5516.6594      0.73520835
       5517.5434      0.72238412
       5518.4273      0.76456030
       5519.3113      0.88508122
       5520.1953      0.91518364
       5521.0793      0.80204837
       5521.9633      0.86738476
       5522.8473      0.72719847
       5523.7313      0.88141381
       5524.6153      0.91464439
       5525.4992      0.83534976
       5526.3832      0.79947951
       5527.2672      0.68937518
       5528.1512      0.81402496
       5529.0352      0.85263956
       5529.9192      0.92777951
       5530.8032      0.87925864
       5531.6872      0.87660580
       5532.5711      0.67301414
       5533.4551      0.61479514
       5534.3391      0.80705376
       5535.2231      0.98444580
       5536.1071      0.77898928
       5536.9911      0.83949846
       5537.8751      0.82107396
       5538.7590      0.71547028
       5539.6430      0.80332409
       5540.5270      0.77580050
       5541.4110      0.74983502
       5542.2950      0.87350081
       5543.1790      0.80660072
       5544.0630      0.77637490
       5544.9470      0.80878625
       5545.8309      0.70346194
       5546.7149      0.74613690
       5547.5989      0.71151009
       5548.4829      0.77515420
       5549.3669      0.72767321
       5550.2509      0.93688633
       5551.1349      0.78053289
       5552.0189      0.80121649
       5552.9028      0.74608519
       5553.7868      0.86089550
       5554.6708      0.61448311
       5555.5548      0.66288699
       5556.4388      0.70122512
       5557.3228      0.89120661
       5558.2068       1.0710227
       5559.0907      0.94675905
       5559.9747      0.75319084
       5560.8587      0.62955786
       5561.7427      0.84888948
       5562.6267      0.73764579
       5563.5107      0.69271787
       5564.3947      0.69267249
       5565.2787      0.78437100
       5566.1626      0.79091780
       5567.0466      0.64325683
       5567.9306      0.77777814
       5568.8146      0.82864616
       5569.6986      0.81905887
       5570.5826      0.84921379
       5571.4666      0.80090996
       5572.3505      0.71904646
       5573.2345      0.85561446
       5574.1185      0.80609410
       5575.0025      0.83318898
       5575.8865      0.67392660
       5576.7705      0.82148523
       5577.6545      0.81588792
       5578.5385      0.84184368
       5579.4224      0.84211341
       5580.3064      0.78395230
       5581.1904      0.70052469
       5582.0744      0.75826909
       5582.9584      0.85079818
       5583.8424      0.86134108
       5584.7264      0.71025863
       5585.6104      0.68601633
       5586.4943      0.67492881
       5587.3783      0.82351126
       5588.2623      0.73686605
       5589.1463      0.79234479
       5590.0303      0.80729119
       5590.9143      0.78538050
       5591.7983      0.74077170
       5592.6822      0.76418801
       5593.5662      0.56570517
       5594.4502      0.63902923
       5595.3342      0.70808009
       5596.2182      0.79224325
       5597.1022      0.59611353
       5597.9862      0.93283471
       5598.8702      0.68437937
       5599.7541      0.74444733
       5600.6381      0.79479195
       5601.5221      0.84413376
       5602.4061      0.85918229
       5603.2901      0.87360971
       5604.1741      0.91619553
       5605.0581      0.75399827
       5605.9421      0.66860959
       5606.8260      0.72976208
       5607.7100      0.94624270
       5608.5940      0.78918952
       5609.4780      0.95249773
       5610.3620      0.95098490
       5611.2460      0.83612619
       5612.1300      0.81761076
       5613.0139      0.86006708
       5613.8979      0.79909942
       5614.7819      0.65974985
       5615.6659      0.93088684
       5616.5499      0.75802081
       5617.4339      0.80916725
       5618.3179      0.84848807
       5619.2019      0.86919941
       5620.0858      0.83184046
       5620.9698      0.89481075
       5621.8538      0.88339840
       5622.7378      0.76998957
       5623.6218      0.81426370
       5624.5058      0.74129009
       5625.3898      0.65592148
       5626.2738      0.88283800
       5627.1577      0.87874414
       5628.0417      0.83889252
       5628.9257      0.71617894
       5629.8097      0.70332755
       5630.6937      0.87776304
       5631.5777      0.71220804
       5632.4617      0.90122748
       5633.3456      0.70118916
       5634.2296      0.78022849
       5635.1136      0.86783694
       5635.9976      0.88734826
       5636.8816      0.63922127
       5637.7656      0.84300400
       5638.6496      0.81352520
       5639.5336      0.72904936
       5640.4175      0.83837421
       5641.3015      0.94545024
       5642.1855      0.65595428
       5643.0695      0.83513154
       5643.9535      0.76669754
       5644.8375      0.81124679
       5645.7215      0.73804818
       5646.6055      0.84362512
       5647.4894      0.82284523
       5648.3734      0.73537372
       5649.2574      0.62306193
       5650.1414      0.66386293
       5651.0254             NaN
       5651.9094             NaN
       5652.7934             NaN
       5653.6773             NaN
       5654.5613             NaN
       5655.4453             NaN
       5656.3293             NaN
       5657.2133             NaN
       5658.0973             NaN
       5658.9813             NaN
       5659.8653             NaN
       5660.7492             NaN
       5661.6332             NaN
       5662.5172             NaN
       5663.4012             NaN
       5664.2852             NaN
       5665.1692             NaN
       5666.0532             NaN
       5666.9372             NaN
       5667.8211             NaN
       5668.7051             NaN
       5669.5891             NaN
       5670.4731             NaN
       5671.3571             NaN
       5672.2411             NaN
       5673.1251             NaN
       5674.0090             NaN
       5674.8930             NaN
       5675.7770             NaN
       5676.6610             NaN
       5677.5450             NaN
       5678.4290             NaN
       5679.3130             NaN
       5680.1970             NaN
       5681.0809             NaN
       5681.9649             NaN
       5682.8489             NaN
       5683.7329             NaN
       5684.6169             NaN
       5685.5009             NaN
       5686.3849             NaN
       5687.2688             NaN
       5688.1528             NaN
       5689.0368             NaN
       5689.9208             NaN
       5690.8048             NaN
       5691.6888             NaN
       5692.5728             NaN
       5693.4568             NaN
       5694.3407             NaN
       5695.2247             NaN
       5696.1087             NaN
       5696.9927             NaN
       5697.8767             NaN
       5698.7607             NaN
       5699.6447             NaN
       5700.5287             NaN
       5701.4126             NaN
       5702.2966             NaN
       5703.1806             NaN
       5704.0646             NaN
       5704.9486             NaN
       5705.8326             NaN
       5706.7166             NaN
       5707.6005             NaN
       5708.4845             NaN
       5709.3685             NaN
       5710.2525             NaN
       5711.1365             NaN
       5712.0205             NaN
       5712.9045             NaN
       5713.7885             NaN
       5714.6724             NaN
       5715.5564             NaN
       5716.4404             NaN
       5717.3244             NaN
       5718.2084             NaN
       5719.0924             NaN
       5719.9764             NaN
       5720.8604             NaN
       5721.7443             NaN
       5722.6283             NaN
       5723.5123             NaN
       5724.3963             NaN
       5725.2803             NaN
       5726.1643             NaN
       5727.0483             NaN
       5727.9322             NaN
       5728.8162             NaN
       5729.7002      0.91416129
       5730.5842      0.97006739
       5731.4682      0.86278649
       5732.3522      0.86554812
       5733.2362      0.81749768
       5734.1202      0.79429083
       5735.0041      0.84596882
       5735.8881      0.57771589
       5736.7721      0.82775140
       5737.6561      0.70579394
       5738.5401      0.62667120
       5739.4241      0.79025232
       5740.3081      0.84462788
       5741.1921      0.28650507
       5742.0760      0.54345849
       5742.9600      0.24471647
       5743.8440      0.54367032
       5744.7280      0.77291704
       5745.6120      0.64160412
       5746.4960      0.79036176
       5747.3800      0.98909587
       5748.2639      0.72453619
       5749.1479      0.82843152
       5750.0319      0.74277780
       5750.9159      0.71188613
       5751.7999      0.76653054
       5752.6839      0.74176710
       5753.5679      0.77470433
       5754.4519      0.82901418
       5755.3358      0.65977752
       5756.2198      0.85933950
       5757.1038      0.82616161
       5757.9878      0.80683544
       5758.8718      0.83521490
       5759.7558      0.88873387
       5760.6398      0.73470918
       5761.5238      0.90664502
       5762.4077      0.71273420
       5763.2917      0.83878982
       5764.1757      0.67330850
       5765.0597      0.55839833
       5765.9437      0.97434535
       5766.8277      0.47600045
       5767.7117      0.73022733
       5768.5956      0.85917683
       5769.4796      0.87574053
       5770.3636       1.0142657
       5771.2476      0.74327580
       5772.1316      0.88862638
       5773.0156      0.92095280
       5773.8996       1.0603724
       5774.7836      0.70743029
       5775.6675      0.66428915
       5776.5515      0.67119798
       5777.4355      0.56553825
       5778.3195      0.66821223
       5779.2035      0.59961868
       5780.0875      0.90963582
       5780.9715      0.97961848
       5781.8555      0.66003717
       5782.7394      0.68564074
       5783.6234      0.75711796
       5784.5074      0.65948720
       5785.3914      0.51576369
       5786.2754      0.68513763
       5787.1594      0.78744756
       5788.0434      0.77812642
       5788.9273      0.75202206
       5789.8113      0.75409536
       5790.6953      0.80619580
       5791.5793      0.67275053
       5792.4633      0.80921177
       5793.3473      0.77980597
       5794.2313      0.70928674
       5795.1153      0.58309363
       5795.9992      0.63040157
       5796.8832      0.91215055
       5797.7672      0.94315793
       5798.6512      0.37097738
       5799.5352      0.78617199
       5800.4192      0.57936499
       5801.3032      0.72355358
       5802.1872      0.59535486
       5803.0711      0.80101912
       5803.9551      0.77102116
       5804.8391      0.98781838
       5805.7231      0.88522656
       5806.6071      0.73596464
       5807.4911      0.70741254
       5808.3751      0.95714875
       5809.2590      0.63410708
       5810.1430      0.72073481
       5811.0270       1.0165547
       5811.9110      0.81385943
       5812.7950      0.79399770
       5813.6790      0.81918567
       5814.5630      0.78219153
       5815.4470      0.79833489
       5816.3309      0.89221305
       5817.2149      0.73476144
       5818.0989      0.83667906
       5818.9829       1.1490046
       5819.8669      0.50935789
       5820.7509      0.82109960
       5821.6349      0.77273365
       5822.5188      0.64436920
       5823.4028      0.90959795
       5824.2868      0.88430201
       5825.1708      0.93420081
       5826.0548      0.79677731
       5826.9388       1.0031670
       5827.8228       1.0540281
       5828.7068      0.89911936
       5829.5907       1.0558246
       5830.4747      0.98873866
       5831.3587      0.86216682
       5832.2427      0.87107679
       5833.1267      0.94996704
       5834.0107      0.81778594
       5834.8947      0.94950562
       5835.7787      0.72591436
       5836.6626      0.56672079
       5837.5466      0.65831159
       5838.4306      0.78386272
       5839.3146      0.84121321
       5840.1986      0.74816356
       5841.0826      0.74364110
       5841.9666      0.70221590
       5842.8505      0.61473388
       5843.7345      0.68334523
       5844.6185      0.86315118
       5845.5025      0.75637101
       5846.3865      0.72423659
       5847.2705      0.59535799
       5848.1545      0.73905068
       5849.0385      0.80585675
       5849.9224      0.74716924
       5850.8064      0.87715810
       5851.6904      0.72253896
       5852.5744      0.82871509
       5853.4584      0.94707291
       5854.3424      0.88684317
       5855.2264      0.71553996
       5856.1104      0.69999496
       5856.9943      0.86056015
       5857.8783      0.61006207
       5858.7623      0.79356760
       5859.6463      0.74126112
       5860.5303      0.84799860
       5861.4143      0.76953435
       5862.2983      0.56541090
       5863.1822      0.77004533
       5864.0662       1.0972054
       5864.9502      0.66155603
       5865.8342      0.74729192
       5866.7182      0.82636862
       5867.6022      0.70266473
       5868.4862      0.86701109
       5869.3702      0.61894770
       5870.2541      0.73266679
       5871.1381      0.70381362
       5872.0221      0.57995975
       5872.9061      0.67463680
       5873.7901      0.96999810
       5874.6741      0.68794420
       5875.5581      0.81450520
       5876.4421      0.73860073
       5877.3260      0.82546442
       5878.2100       1.0520336
       5879.0940      0.78600291
       5879.9780      0.70728846
       5880.8620      0.89761273
       5881.7460      0.89537012
       5882.6300      0.76923628
       5883.5139      0.94324820
       5884.3979      0.80768754
       5885.2819      0.68215136
       5886.1659      0.50555613
       5887.0499      0.69695784
       5887.9339       1.0087432
       5888.8179      0.22469565
       5889.7019      0.62480189
       5890.5858      0.45470168
       5891.4698      0.39698028
       5892.3538      0.18371361
       5893.2378      0.11744439
       5894.1218      0.42974467
       5895.0058      0.65097735
       5895.8898      0.39910038
       5896.7738      0.58319835
       5897.6577      0.64433066
       5898.5417      0.65798290
       5899.4257      0.77007256
       5900.3097      0.54745553
       5901.1937      0.76253759
       5902.0777      0.75144271
       5902.9617      0.75790396
       5903.8456      0.61261286
       5904.7296      0.52604867
       5905.6136      0.91036200
       5906.4976      0.80656932
       5907.3816      0.91365439
       5908.2656      0.82107103
       5909.1496      0.97219320
       5910.0336      0.90568151
       5910.9175      0.89716124
       5911.8015      0.78183700
       5912.6855      0.84992292
       5913.5695      0.77585800
       5914.4535      0.87927991
       5915.3375      0.96899619
       5916.2215      0.67068642
       5917.1055       1.0437671
       5917.9894      0.85659450
       5918.8734      0.82623234
       5919.7574      0.83226986
       5920.6414      0.70193826
       5921.5254      0.72637768
       5922.4094      0.93364470
       5923.2934      0.78683271
       5924.1773      0.71500947
       5925.0613      0.73935334
       5925.9453      0.74904123
       5926.8293      0.95000921
       5927.7133      0.82811578
       5928.5973      0.82068725
       5929.4813      0.88146922
       5930.3653      0.60824799
       5931.2492      0.82341676
       5932.1332      0.75174125
       5933.0172      0.97884845
       5933.9012      0.95121824
       5934.7852      0.84555924
       5935.6692      0.68364504
       5936.5532      0.80545278
       5937.4372      0.77061278
       5938.3211      0.79280953
       5939.2051      0.73577271
       5940.0891      0.53384683
       5940.9731      0.61578000
       5941.8571      0.84214947
       5942.7411      0.93246622
       5943.6251      0.79617310
       5944.5090      0.83407345
       5945.3930      0.92345860
       5946.2770       1.0654908
       5947.1610       1.1040617
       5948.0450       1.0705542
       5948.9290      0.99109565
       5949.8130       1.0530245
       5950.6970       1.0940703
       5951.5809       1.0113720
       5952.4649       1.0722323
       5953.3489      0.92835162
       5954.2329      0.92056752
       5955.1169      0.83250774
       5956.0009      0.69949657
       5956.8849      0.87148002
       5957.7688      0.87666044
       5958.6528      0.74873963
       5959.5368      0.78747707
       5960.4208      0.77679379
       5961.3048      0.83866576
       5962.1888      0.73080220
       5963.0728      0.75806703
       5963.9568      0.63628084
       5964.8407      0.67808627
       5965.7247      0.82949640
       5966.6087      0.89313705
       5967.4927      0.75829941
       5968.3767      0.90311678
       5969.2607      0.85854568
       5970.1447      0.89529629
       5971.0287      0.60760229
       5971.9126      0.94602176
       5972.7966      0.82438939
       5973.6806      0.71241393
       5974.5646      0.79523387
       5975.4486      0.92911108
       5976.3326      0.52173020
       5977.2166      0.94237310
       5978.1005      0.77033818
       5978.9845      0.89985529
       5979.8685      0.79808246
       5980.7525      0.81744675
       5981.6365      0.83442977
       5982.5205      0.82046005
       5983.4045      0.86788801
       5984.2885      0.83046593
       5985.1724      0.86857262
       5986.0564      0.86511309
       5986.9404      0.96235584
       5987.8244       1.0266562
       5988.7084      0.88469660
       5989.5924      0.74436953
       5990.4764      0.91222295
       5991.3604      0.73772909
       5992.2443      0.80005302
       5993.1283      0.89810342
       5994.0123       1.0286057
       5994.8963      0.86190984
       5995.7803      0.59343151
       5996.6643      0.75363156
       5997.5483      0.87706816
       5998.4322      0.88971076
       5999.3162      0.71298943
       6000.2002      0.86309188
       6001.0842      0.78155913
       6001.9682      0.90915185
       6002.8522      0.79668211
       6003.7362      0.94982687
       6004.6202      0.91771805
       6005.5041      0.73957076
       6006.3881      0.92807333
       6007.2721      0.80307115
       6008.1561      0.87183936
       6009.0401      0.81332664
       6009.9241       1.0321632
       6010.8081      0.91149256
       6011.6921      0.79271097
       6012.5760      0.71451003
       6013.4600      0.76158222
       6014.3440      0.98417801
       6015.2280      0.86729425
       6016.1120       1.0506251
       6016.9960      0.89690809
       6017.8800      0.68795211
       6018.7639      0.83920565
       6019.6479       1.0241947
       6020.5319      0.88332899
       6021.4159      0.78103957
       6022.2999      0.88899957
       6023.1839      0.90552380
       6024.0679      0.79708589
       6024.9519       1.0391802
       6025.8358      0.72917728
       6026.7198      0.82712747
       6027.6038      0.71370469
       6028.4878      0.81629582
       6029.3718      0.81739916
       6030.2558      0.82098552
       6031.1398      0.80802373
       6032.0238      0.82276083
       6032.9077      0.94258860
       6033.7917      0.93882998
       6034.6757      0.89849669
       6035.5597      0.88452220
       6036.4437      0.79064162
       6037.3277      0.81444115
       6038.2117      0.86773711
       6039.0956      0.85710353
       6039.9796      0.86670431
       6040.8636      0.96488244
       6041.7476      0.90282908
       6042.6316      0.95839680
       6043.5156      0.97037298
       6044.3996      0.85177140
       6045.2836      0.89648520
       6046.1675      0.78572886
       6047.0515      0.96658782
       6047.9355      0.88011337
       6048.8195      0.93258882
       6049.7035      0.87245649
       6050.5875      0.92259428
       6051.4715      0.98898853
       6052.3555      0.92346692
       6053.2394      0.92103321
       6054.1234      0.95165298
       6055.0074      0.90636756
       6055.8914      0.87796009
       6056.7754      0.87901284
       6057.6594      0.80223104
       6058.5434      0.79466274
       6059.4273      0.91228006
       6060.3113      0.78537139
       6061.1953      0.87926128
       6062.0793      0.96248406
       6062.9633      0.86648865
       6063.8473      0.75521372
       6064.7313      0.68926445
       6065.6153      0.82116062
       6066.4992      0.85004368
       6067.3832       1.0062101
       6068.2672      0.85821633
       6069.1512      0.89088775
       6070.0352      0.75397259
       6070.9192      0.78186354
       6071.8032      0.92196258
       6072.6871      0.82103725
       6073.5711      0.79013248
       6074.4551      0.83728346
       6075.3391      0.94974911
       6076.2231      0.80799221
       6077.1071      0.98826261
       6077.9911      0.95289539
       6078.8751      0.91233356
       6079.7590      0.85464671
       6080.6430      0.81264400
       6081.5270       1.0061633
       6082.4110      0.86656847
       6083.2950      0.78019396
       6084.1790      0.89629211
       6085.0630       1.0662216
       6085.9470      0.89826593
       6086.8309      0.95618918
       6087.7149      0.88980729
       6088.5989      0.75244184
       6089.4829      0.75853724
       6090.3669      0.87160592
       6091.2509      0.96305171
       6092.1349      0.70710123
       6093.0188      0.82774135
       6093.9028      0.79257099
       6094.7868      0.75339080
       6095.6708      0.81129186
       6096.5548      0.92293558
       6097.4388      0.75694060
       6098.3228      0.93473787
       6099.2068      0.81950618
       6100.0907      0.83968916
       6100.9747      0.68167176
       6101.8587      0.72998824
       6102.7427      0.92338284
       6103.6267      0.90579715
       6104.5107      0.73475504
       6105.3947      0.97808198
       6106.2787      0.66602406
       6107.1626      0.81144932
       6108.0466      0.83494717
       6108.9306      0.89694278
       6109.8146      0.98674464
       6110.6986      0.88460787
       6111.5826      0.91559191
       6112.4666      0.87417483
       6113.3505      0.85196682
       6114.2345      0.96620907
       6115.1185      0.95747411
       6116.0025      0.94211812
       6116.8865      0.80190135
       6117.7705      0.95134638
       6118.6545      0.84679000
       6119.5385      0.95434994
       6120.4224       1.0656681
       6121.3064      0.89483046
       6122.1904      0.83247848
       6123.0744      0.86391893
       6123.9584      0.86438029
       6124.8424      0.89397697
       6125.7264      0.91946941
       6126.6104      0.79797069
       6127.4943      0.90847862
       6128.3783      0.82414153
       6129.2623      0.85428070
       6130.1463      0.90958835
       6131.0303      0.85307287
       6131.9143      0.87162165
       6132.7983      0.89098336
       6133.6822      0.74219959
       6134.5662      0.92429089
       6135.4502      0.89613645
       6136.3342      0.96021108
       6137.2182      0.80812866
       6138.1022      0.95880411
       6138.9862      0.95476002
       6139.8702      0.73593516
       6140.7541      0.85471503
       6141.6381      0.70377377
       6142.5221      0.84834455
       6143.4061      0.80810709
       6144.2901      0.83354457
       6145.1741      0.97097038
       6146.0581      0.91823036
       6146.9421      0.96153770
       6147.8260      0.80032332
       6148.7100      0.93325086
       6149.5940      0.80538722
       6150.4780      0.84865506
       6151.3620      0.84998149
       6152.2460      0.79377101
       6153.1300      0.88886526
       6154.0139      0.87436896
       6154.8979      0.97477480
       6155.7819      0.84162858
       6156.6659      0.86733783
       6157.5499      0.90801924
       6158.4339      0.80610950
       6159.3179      0.93289976
       6160.2019      0.75051781
       6161.0858      0.82260624
       6161.9698      0.61241708
       6162.8538      0.64715449
       6163.7378      0.41494871
       6164.6218      0.76257675
       6165.5058      0.83618634
       6166.3898      0.78788320
       6167.2738      0.74243503
       6168.1577      0.80544742
       6169.0417      0.79925005
       6169.9257      0.97886473
       6170.8097       1.0230604
       6171.6937      0.48305392
       6172.5777      0.62039963
       6173.4617      0.64485876
       6174.3456      0.86459658
       6175.2296      0.73902517
       6176.1136      0.41138462
       6176.9976      0.51205789
       6177.8816      0.81877635
       6178.7656      0.63745603
       6179.6496      0.83468156
       6180.5336      0.85031933
       6181.4175      0.74355864
       6182.3015      0.68545413
       6183.1855      0.70419646
       6184.0695      0.88362631
       6184.9535      0.70320926
       6185.8375      0.88946477
       6186.7215      0.84953241
       6187.6055      0.67679963
       6188.4894      0.81040851
       6189.3734      0.79520523
       6190.2574      0.79085916
       6191.1414      0.81111068
       6192.0254      0.84954804
       6192.9094      0.85011789
       6193.7934      0.78956933
       6194.6773       1.0403034
       6195.5613      0.90025340
       6196.4453      0.82649301
       6197.3293      0.81876315
       6198.2133      0.90635958
       6199.0973      0.88700405
       6199.9813      0.89997159
       6200.8653      0.97664580
       6201.7492      0.87640961
       6202.6332      0.87035456
       6203.5172      0.82753921
       6204.4012      0.73970453
       6205.2852      0.89793347
       6206.1692      0.84612982
       6207.0532      0.46108892
       6207.9371      0.83959485
       6208.8211      0.49450471
       6209.7051      0.63647356
       6210.5891      0.34609450
       6211.4731      0.20130645
       6212.3571      0.36766263
       6213.2411      0.80274193
       6214.1251      0.63766881
       6215.0090      0.59037230
       6215.8930      0.64654314
       6216.7770      0.77825483
       6217.6610      0.55562557
       6218.5450      0.74569354
       6219.4290      0.66187445
       6220.3130      0.71128715
       6221.1970      0.83204142
       6222.0809      0.76731673
       6222.9649      0.76862911
       6223.8489      0.91307056
       6224.7329      0.87623159
       6225.6169      0.92294235
       6226.5009      0.89130763
       6227.3849      0.73712215
       6228.2688      0.89081223
       6229.1528      0.78599986
       6230.0368      0.80959271
       6230.9208      0.86008185
       6231.8048      0.80774388
       6232.6888      0.90249136
       6233.5728      0.75641568
       6234.4568      0.64473792
       6235.3407      0.79229331
       6236.2247      0.80465720
       6237.1087      0.75728265
       6237.9927      0.50759022
       6238.8767      0.62984681
       6239.7607      0.79441598
       6240.6447      0.87255629
       6241.5287       1.0135012
       6242.4126      0.92249871
       6243.2966      0.88795622
       6244.1806      0.95519659
       6245.0646      0.94337433
       6245.9486      0.89186382
       6246.8326      0.74159475
       6247.7166      0.81606628
       6248.6005      0.83194323
       6249.4845      0.44864024
       6250.3685      0.25216612
       6251.2525       1.0459428
       6252.1365      0.91972640
       6253.0205      0.68849402
       6253.9045       1.1333409
       6254.7885      0.85043952
       6255.6724      0.89953620
       6256.5564      0.79572147
       6257.4404      0.82419624
       6258.3244      0.87644385
       6259.2084      0.90941856
       6260.0924      0.60212353
       6260.9764       1.0469445
       6261.8604      0.66265561
       6262.7443      0.81509429
       6263.6283      0.62196556
       6264.5123      0.49019332
       6265.3963      0.63380885
       6266.2803      0.85752276
       6267.1643      0.83004176
       6268.0483      0.83246771
       6268.9322      0.87169803
       6269.8162      0.73237352
       6270.7002      0.82446118
       6271.5842      0.68713664
       6272.4682      0.97920166
       6273.3522      0.93165829
       6274.2362      0.81394877
       6275.1202      0.50916027
       6276.0041      0.95069685
       6276.8881      0.71515190
       6277.7721      0.74173906
       6278.6561      0.89425413
       6279.5401      0.86255346
       6280.4241      0.75768833
       6281.3081      0.96342054
       6282.1921       1.0157626
       6283.0760       1.0879574
       6283.9600      0.83544574
       6284.8440       1.0084121
       6285.7280      0.69321142
       6286.6120      0.82080539
       6287.4960      0.77908825
       6288.3800      0.93300520
       6289.2639      0.95488374
       6290.1479      0.67392363
       6291.0319      0.78854373
       6291.9159      0.94095008
       6292.7999      0.80688155
       6293.6839      0.82428633
       6294.5679      0.83261639
       6295.4519      0.76943302
       6296.3358      0.85702772
       6297.2198      0.66032106
       6298.1038      0.73303192
       6298.9878      0.62679891
       6299.8718      0.45571197
       6300.7558      0.49403852
       6301.6398      0.83636186
       6302.5238      0.89991411
       6303.4077      0.66043706
       6304.2917      0.93727176
       6305.1757      0.87398318
       6306.0597      0.99120736
       6306.9437       1.0257080
       6307.8277      0.87812011
       6308.7117       1.0167119
       6309.5956      0.94291385
       6310.4796      0.81995715
       6311.3636      0.89432653
       6312.2476      0.92351944
       6313.1316      0.93171298
       6314.0156      0.88780810
       6314.8996      0.80550395
       6315.7836       1.0258980
       6316.6675       1.0304115
       6317.5515      0.84176053
       6318.4355      0.70121337
       6319.3195      0.88060822
       6320.2035      0.81323868
       6321.0875      0.80139151
       6321.9715       1.1742259
       6322.8555       1.0454119
       6323.7394      0.87873407
       6324.6234      0.78597163
       6325.5074      0.79334082
       6326.3914      0.93681709
       6327.2754      0.82657247
       6328.1594      0.84392797
       6329.0434      0.60702675
       6329.9273      0.97489334
       6330.8113      0.88473051
       6331.6953      0.69314171
       6332.5793      0.84725396
       6333.4633       1.0001750
       6334.3473      0.90867153
       6335.2313      0.98956361
       6336.1153      0.96371595
       6336.9992       1.0039311
       6337.8832       1.0008143
       6338.7672       1.0347093
       6339.6512       1.0586710
       6340.5352      0.98710652
       6341.4192      0.94217496
       6342.3032      0.97805633
       6343.1871      0.83530931
       6344.0711      0.92147641
       6344.9551      0.84872146
       6345.8391      0.98348474
       6346.7231      0.85830315
       6347.6071      0.89099981
       6348.4911      0.79182600
       6349.3751       1.0505435
       6350.2590      0.92193854
       6351.1430       1.0022448
       6352.0270      0.99536192
       6352.9110      0.71742867
       6353.7950      0.96886734
       6354.6790      0.84130340
       6355.5630       1.0059018
       6356.4470      0.96572882
       6357.3309      0.93840660
       6358.2149      0.89253143
       6359.0989      0.77585280
       6359.9829      0.94315279
       6360.8669      0.80608280
       6361.7509      0.81756285
       6362.6349      0.79121336
       6363.5188      0.87532436
       6364.4028      0.71502880
       6365.2868      0.86469678
       6366.1708      0.89640573
       6367.0548      0.95409915
       6367.9388      0.94356708
       6368.8228       1.0476928
       6369.7068       1.0176752
       6370.5907      0.96564977
       6371.4747      0.86506610
       6372.3587      0.93036554
       6373.2427       1.0021384
       6374.1267       1.0089489
       6375.0107      0.83075388
       6375.8947      0.90721347
       6376.7787      0.83702235
       6377.6626      0.99881839
       6378.5466      0.94841136
       6379.4306      0.87687944
       6380.3146      0.90033127
       6381.1986      0.84572063
       6382.0826      0.93557552
       6382.9666      0.85492544
       6383.8505      0.93915320
       6384.7345       1.0284750
       6385.6185      0.88895666
       6386.5025      0.93927750
       6387.3865      0.93926233
       6388.2705      0.88904923
       6389.1545      0.88695950
       6390.0385      0.97013855
       6390.9224      0.78395830
       6391.8064       1.0731943
       6392.6904      0.88904868
       6393.5744      0.86587685
       6394.4584      0.88003733
       6395.3424       1.0247104
       6396.2264      0.85109783
       6397.1104      0.88573101
       6397.9943      0.87121652
       6398.8783      0.95203383
       6399.7623      0.91703475
       6400.6463       1.0029605
       6401.5303      0.90585053
       6402.4143      0.97267271
       6403.2983      0.90881396
       6404.1822      0.82196560
       6405.0662      0.80078850
       6405.9502      0.89419350
       6406.8342      0.84371455
       6407.7182      0.83033199
       6408.6022      0.92819132
       6409.4862      0.77010897
       6410.3702      0.91647519
       6411.2541      0.73778165
       6412.1381      0.78448404
       6413.0221      0.69815122
       6413.9061      0.80452771
       6414.7901      0.63802752
       6415.6741      0.58246202
       6416.5581      0.87516512
       6417.4421      0.76348854
       6418.3260      0.46953398
       6419.2100      0.64204640
       6420.0940       1.1285902
       6420.9780      0.60734118
       6421.8620      0.62000277
       6422.7460      0.85009836
       6423.6300      0.91093764
       6424.5139       1.0562835
       6425.3979      0.92928314
       6426.2819       1.0682908
       6427.1659      0.93313671
       6428.0499      0.97893488
       6428.9339      0.67979855
       6429.8179      0.95311045
       6430.7019      0.87163648
       6431.5858      0.82526242
       6432.4698      0.81089371
       6433.3538      0.75284792
       6434.2378      0.93066282
       6435.1218       1.0461177
       6436.0058      0.60422350
       6436.8898      0.69229106
       6437.7738      0.76358431
       6438.6577      0.44858999
       6439.5417      0.68742647
       6440.4257      0.88576535
       6441.3097      0.84743325
       6442.1937      0.71161455
       6443.0777      0.61201938
       6443.9617      0.92232632
       6444.8456      0.74516563
       6445.7296      0.35326261
       6446.6136      0.65567988
       6447.4976      0.52392887
       6448.3816      0.56433280
       6449.2656      0.48102234
       6450.1496      0.85091818
       6451.0336      0.74898987
       6451.9175      0.86026117
       6452.8015      0.76654598
       6453.6855      0.81044177
       6454.5695       1.1030256
       6455.4535      0.74433366
       6456.3375      0.83554206
       6457.2215      0.69767345
       6458.1054      0.91866456
       6458.9894      0.83626464
       6459.8734      0.90867739
       6460.7574      0.81258108
       6461.6414      0.85099042
       6462.5254      0.88722758
       6463.4094       1.0242775
       6464.2934       1.0163687
       6465.1773      0.95816066
       6466.0613      0.85833952
       6466.9453      0.94651014
       6467.8293      0.99883032
       6468.7133      0.95748915
       6469.5973       1.0816790
       6470.4813      0.84787359
       6471.3653      0.94556624
       6472.2492      0.85958840
       6473.1332      0.90520377
       6474.0172      0.85911904
       6474.9012       1.1313420
       6475.7852      0.98030603
       6476.6692      0.93470385
       6477.5532      0.99449717
       6478.4371      0.96963464
       6479.3211      0.89431185
       6480.2051      0.90515454
       6481.0891      0.98365193
       6481.9731       1.0580784
       6482.8571      0.93029058
       6483.7411       1.0394512
       6484.6251       1.1279500
       6485.5090      0.94891702
       6486.3930      0.97889389
       6487.2770      0.92144195
       6488.1610      0.90002837
       6489.0450      0.97237619
       6489.9290      0.92533411
       6490.8130      0.97650294
       6491.6970      0.83345227
       6492.5809      0.94646390
       6493.4649      0.89816392
       6494.3489      0.88982663
       6495.2329      0.96519021
       6496.1169      0.83515249
       6497.0009      0.98501017
       6497.8849      0.95671561
       6498.7688      0.79819161
       6499.6528      0.95018805
       6500.5368       1.0337769
       6501.4208      0.84470806
       6502.3048      0.88822786
       6503.1888      0.98902489
       6504.0728      0.86810782
       6504.9568      0.83452435
       6505.8407      0.96886450
       6506.7247       1.0440912
       6507.6087      0.94387061
       6508.4927      0.94753667
       6509.3767       1.1131338
       6510.2607       1.0279706
       6511.1447      0.98708906
       6512.0287      0.93383035
       6512.9126      0.90083883
       6513.7966      0.93916548
       6514.6806      0.91837930
       6515.5646      0.74835439
       6516.4486      0.80149707
       6517.3326      0.77632591
       6518.2166      0.63216271
       6519.1005      0.25775251
       6519.9845      0.34407439
       6520.8685      0.93182976
       6521.7525      0.17625155
       6522.6365      0.49202111
       6523.5205      0.48197309
       6524.4045      0.25755683
       6525.2885      0.41729140
       6526.1724      0.58689866
       6527.0564      0.91732486
       6527.9404      0.70718917
       6528.8244      0.69112711
       6529.7084      0.59244549
       6530.5924      0.54987179
       6531.4764      0.92152752
       6532.3604      0.91579958
       6533.2443      0.59565288
       6534.1283      0.64209995
       6535.0123      0.92666287
       6535.8963      0.97257183
       6536.7803       1.0211745
       6537.6643       1.0067475
       6538.5483      0.97690728
       6539.4322       1.1555255
       6540.3162      0.91794038
       6541.2002      0.94067063
       6542.0842      0.95484844
       6542.9682       1.1196543
       6543.8522       1.1517987
       6544.7362       1.1206415
       6545.6202       1.1026399
       6546.5041       1.1242941
       6547.3881       1.3917059
       6548.2721       1.5564075
       6549.1561       1.6625008
       6550.0401       1.8541758
       6550.9241       2.0288630
       6551.8081       2.0178663
       6552.6921       1.6999078
       6553.5760       1.5304805
       6554.4600       1.3175497
       6555.3440       1.2126246
       6556.2280       1.1667450
       6557.1120       1.1619497
       6557.9960       1.2656849
       6558.8800       1.2413358
       6559.7639       1.4067791
       6560.6479       1.8219132
       6561.5319       2.4040266
       6562.4159       3.1821397
       6563.2999       4.5803218
       6564.1839       5.5152102
       6565.0679       5.7442393
       6565.9519       6.2366394
       6566.8358       5.4500721
       6567.7198       4.1207744
       6568.6038       3.2856116
       6569.4878       1.6486099
       6570.3718       1.4782615
       6571.2558       1.1422345
       6572.1398      0.66503945
       6573.0238       1.5228163
       6573.9077      0.74447937
       6574.7917      0.82728081
       6575.6757      0.61797623
       6576.5597      0.97502195
       6577.4437       1.0205757
       6578.3277       1.1819493
       6579.2117       1.2971179
       6580.0956       1.4284100
       6580.9796       1.6438278
       6581.8636       1.5459745
       6582.7476       1.9842974
       6583.6316       2.7610507
       6584.5156       3.2719001
       6585.3996       3.8504513
       6586.2836       3.9502397
       6587.1675       3.8195200
       6588.0515       3.3351442
       6588.9355       2.4199483
       6589.8195       1.9956210
       6590.7035       1.5662441
       6591.5875       1.2730957
       6592.4715       1.1356380
       6593.3554       1.1182930
       6594.2394       1.0792609
       6595.1234      0.98098763
       6596.0074       1.2695396
       6596.8914      0.77550565
       6597.7754      0.77825191
       6598.6594      0.70064397
       6599.5434      0.81852696
       6600.4273       1.1661042
       6601.3113       1.0658183
       6602.1953       1.1268887
       6603.0793       1.0771719
       6603.9633       1.0635510
       6604.8473       1.0244685
       6605.7313      0.97313441
       6606.6153      0.86208151
       6607.4992      0.86009307
       6608.3832      0.76021323
       6609.2672      0.47289485
       6610.1512      0.46619449
       6611.0352      0.89100172
       6611.9192      0.36218585
       6612.8032      0.97665297
       6613.6871       1.0431426
       6614.5711      0.94541394
       6615.4551       1.1982891
       6616.3391      0.99745295
       6617.2231       1.0541759
       6618.1071       1.0894370
       6618.9911       1.1690989
       6619.8751       1.1494793
       6620.7590      0.96294635
       6621.6430       1.2081666
       6622.5270       1.1091815
       6623.4110       1.1129186
       6624.2950       1.2546977
       6625.1790       1.0477719
       6626.0630       1.0491427
       6626.9470      0.99901033
       6627.8309       1.0057854
       6628.7149       1.0714400
       6629.5989      0.94087346
       6630.4829       1.0624156
       6631.3669       1.0856583
       6632.2509      0.75448964
       6633.1349      0.69362277
       6634.0188       1.0868537
       6634.9028      0.39808228
       6635.7868      0.45827777
       6636.6708      0.81375157
       6637.5548      0.33786173
       6638.4388       1.0820981
       6639.3228      0.77126802
       6640.2068      0.79812980
       6641.0907       1.0345656
       6641.9747       1.0912022
       6642.8587       1.1700764
       6643.7427       1.0001986
       6644.6267       1.0792808
       6645.5107       1.1924895
       6646.3947       1.1357844
       6647.2787       1.0324829
       6648.1626      0.97740497
       6649.0466      0.95053350
       6649.9306       1.0515473
       6650.8146      0.98755291
       6651.6986      0.86102571
       6652.5826      0.57086521
       6653.4666      0.54248430
       6654.3505     0.049475428
       6655.2345      0.12618349
       6656.1185      0.71967120
       6657.0025       1.1981610
       6657.8865       1.3299313
       6658.7705       1.3025995
       6659.6545       1.2566955
       6660.5385       1.2415589
       6661.4224       1.1899161
       6662.3064       1.1304951
       6663.1904       1.4126629
       6664.0744       1.0298206
       6664.9584       1.0527039
       6665.8424     -0.39538506
       6666.7264     -0.14014460
       6667.6104      0.35702210
       6668.4943      0.99081653
       6669.3783       1.0479672
       6670.2623       1.0175563
       6671.1463       1.1494245
       6672.0303       1.1457790
       6672.9143       1.1890624
       6673.7983       1.0134549
       6674.6822       1.0713962
       6675.5662       1.0510705
       6676.4502       1.0145579
       6677.3342      0.92058265
       6678.2182       1.0690867
       6679.1022       1.0704321
       6679.9862       1.0518011
       6680.8702       1.0690840
       6681.7541       1.0517512
       6682.6381      0.96012191
       6683.5221      0.94056291
       6684.4061      0.91535424
       6685.2901       1.1999307
       6686.1741       1.0213647
       6687.0581      0.68168318
       6687.9421      0.92440805
       6688.8260       1.2889430
       6689.7100      0.88225587
       6690.5940       1.2645516
       6691.4780       1.0498503
       6692.3620      0.78112921
       6693.2460      0.69143777
       6694.1300      0.70841362
       6695.0139      0.87773366
       6695.8979      0.80542168
       6696.7819      0.75593662
       6697.6659      0.28266962
       6698.5499      0.66611410
       6699.4339      0.79171443
       6700.3179       1.0365779
       6701.2019       1.0259488
       6702.0858      0.93562686
       6702.9698       1.1216054
       6703.8538       1.0818843
       6704.7378       1.0442775
       6705.6218       1.1562366
       6706.5058       1.1727064
       6707.3898      0.91045336
       6708.2738      0.85411296
       6709.1577       1.0987422
       6710.0417       1.1771599
       6710.9257       1.1953946
       6711.8097       1.1694300
       6712.6937       1.2955221
       6713.5777       1.2674432
       6714.4617       1.3127186
       6715.3456       1.4218747
       6716.2296       1.5282830
       6717.1136       1.7827320
       6717.9976       1.7957990
       6718.8816       1.7302742
       6719.7656       1.5716061
       6720.6496       1.3075804
       6721.5336       1.3856835
       6722.4175       1.0723294
       6723.3015       1.1573907
       6724.1855       1.0044814
       6725.0695      0.97681384
       6725.9535       1.0548784
       6726.8375       1.3081253
       6727.7215       1.2262983
       6728.6054       1.1418080
       6729.4894       1.4276274
       6730.3734       1.4015286
       6731.2574       1.5098330
       6732.1414       1.8181417
       6733.0254       1.6185939
       6733.9094       1.4063235
       6734.7934       1.2459873
       6735.6773       1.3280536
       6736.5613       1.2522807
       6737.4453       1.3452245
       6738.3293       1.0319065
       6739.2133       1.0724968
       6740.0973       1.0696607
       6740.9813       1.0347794
       6741.8653      0.96472513
       6742.7492      0.96292314
       6743.6332       1.0723945
       6744.5172       1.0091622
       6745.4012       1.0144722
       6746.2852       1.1674116
       6747.1692       1.1770587
       6748.0532       1.0705131
       6748.9371       1.0663186
       6749.8211       1.0805079
       6750.7051       1.1377688
       6751.5891       1.2149781
       6752.4731       1.3286794
       6753.3571       1.1658234
       6754.2411       1.1544378
       6755.1251       1.1843660
       6756.0090       1.2679289
       6756.8930       1.1686856
       6757.7770       1.3407215
       6758.6610       1.3090838
       6759.5450       1.2771110
       6760.4290       1.1577004
       6761.3130       1.3193960
       6762.1970       1.2776927
       6763.0809       1.1901461
       6763.9649       1.0247819
       6764.8489      0.98550635
       6765.7329      0.83873184
       6766.6169       1.1639338
       6767.5009       1.0485943
       6768.3849       1.2216008
       6769.2688      0.93184178
       6770.1528      0.89840185
       6771.0368       1.3283894
       6771.9208       1.1417046
       6772.8048       1.1607835
       6773.6888       1.0352906
       6774.5728       1.0489805
       6775.4568       1.1656313
       6776.3407       1.1576393
       6777.2247       1.2077294
       6778.1087       1.1714568
       6778.9927       1.1714691
       6779.8767       1.2545463
       6780.7607       1.0776921
       6781.6447       1.2410308
       6782.5287       1.0458137
       6783.4126       1.1237744
       6784.2966       1.0991425
       6785.1806       1.1397553
       6786.0646       1.2226993
       6786.9486       1.1070516
       6787.8326       1.1772281
       6788.7166       1.0614049
       6789.6005       1.1701881
       6790.4845       1.1250959
       6791.3685       1.1025236
       6792.2525       1.1329186
       6793.1365       1.0265192
       6794.0205      0.96714563
       6794.9045       1.1041462
       6795.7885       1.1520800
       6796.6724       1.0356457
       6797.5564       1.0767963
       6798.4404       1.1297278
       6799.3244       1.1172712
       6800.2084       1.1286819
       6801.0924       1.0658247
       6801.9764       1.2280627
       6802.8604       1.1953407
       6803.7443       1.0774969
       6804.6283       1.0910926
       6805.5123       1.3032190
       6806.3963       1.1182996
       6807.2803       1.0096966
       6808.1643       1.1262450
       6809.0483       1.1993821
       6809.9322       1.0108653
       6810.8162       1.0886052
       6811.7002       1.0675275
       6812.5842      0.89080450
       6813.4682       1.1705952
       6814.3522       1.2025221
       6815.2362       1.0627161
       6816.1202       1.2458183
       6817.0041       1.2163841
       6817.8881       1.2394037
       6818.7721       1.3189496
       6819.6561       1.2011368
       6820.5401       1.1138195
       6821.4241       1.2940323
       6822.3081       1.2702013
       6823.1921       1.0605661
       6824.0760       1.1199920
       6824.9600       1.1137670
       6825.8440       1.1811888
       6826.7280      0.97586783
       6827.6120       1.2337943
       6828.4960       1.2945280
       6829.3800       1.2933863
       6830.2639       1.1090680
       6831.1479       1.1712169
       6832.0319       1.2091754
       6832.9159       1.2652373
       6833.7999       1.2249313
       6834.6839       1.2204469
       6835.5679       1.3055703
       6836.4519       1.1259634
       6837.3358       1.2917866
       6838.2198       1.2637478
       6839.1038       1.1460051
       6839.9878       1.1688870
       6840.8718       1.0918451
       6841.7558       1.1609576
       6842.6398       1.2615722
       6843.5237       1.2728562
       6844.4077       1.2846843
       6845.2917       1.3185057
       6846.1757       1.2883252
       6847.0597       1.3188496
       6847.9437       1.2552917
       6848.8277       1.2646839
       6849.7117       1.3178247
       6850.5956       1.1757832
       6851.4796       1.3631490
       6852.3636       1.2360677
       6853.2476       1.1435510
       6854.1316       1.1023584
       6855.0156       1.1600915
       6855.8996       1.2081500
       6856.7836       1.0415309
       6857.6675       1.1892900
       6858.5515       1.2105302
       6859.4355       1.1854576
       6860.3195       1.1657038
       6861.2035       1.1718284
       6862.0875      0.88258093
       6862.9715       1.0708015
       6863.8554       1.3012251
       6864.7394       1.1632559
       6865.6234       1.1366669
       6866.5074       1.1479166
       6867.3914       1.1570377
       6868.2754       1.1174397
       6869.1594       1.3218143
       6870.0434       1.2433822
       6870.9273       1.2031685
       6871.8113       1.1629924
       6872.6953       1.3674385
       6873.5793       1.1345778
       6874.4633       1.2007683
       6875.3473       1.1798759
       6876.2313       1.2694484
       6877.1153       1.3008547
       6877.9992       1.2686479
       6878.8832       1.2466033
       6879.7672       1.2149426
       6880.6512       1.2544751
       6881.5352       1.3346261
       6882.4192       1.1876221
       6883.3032       1.2106213
       6884.1871       1.2060468
       6885.0711       1.2698494
       6885.9551       1.3061549
       6886.8391       1.1431721
       6887.7231       1.1528102
       6888.6071       1.1193577
       6889.4911       1.1088994
       6890.3751       1.1757270
       6891.2590       1.2734991
       6892.1430       1.2100201
       6893.0270       1.2231679
       6893.9110       1.1728432
       6894.7950       1.1659334
       6895.6790       1.0426294
       6896.5630       1.1002684
       6897.4470       1.1532450
       6898.3309       1.2415762
       6899.2149       1.0124221
       6900.0989       1.2427479
       6900.9829       1.0205936
       6901.8669       1.2058956
       6902.7509       1.1686882
       6903.6349       1.3053322
       6904.5188       1.1930373
       6905.4028       1.2819563
       6906.2868       1.2087181
       6907.1708       1.1470649
       6908.0548       1.2364192
       6908.9388       1.2379760
       6909.8228       1.1573612
       6910.7068       1.1784840
       6911.5907       1.2914447
       6912.4747       1.0285080
       6913.3587      0.84480167
       6914.2427       1.1835556
       6915.1267       1.1600069
       6916.0107       1.0794027
       6916.8947       1.1671711
       6917.7787      0.84720870
       6918.6626      0.84233747
       6919.5466      0.76618907
       6920.4306      0.28674927
       6921.3146      0.56289022
       6922.1986      0.37887046
       6923.0826    -0.096537560
       6923.9666     -0.58488574
       6924.8505     -0.32548482
       6925.7345      0.22743321
       6926.6185      0.77365253
       6927.5025      0.61264796
       6928.3865      0.11191754
       6929.2705       1.1636981
       6930.1545      0.30947525
       6931.0385      0.57266943
       6931.9224    -0.026634678
       6932.8064      0.62450034
       6933.6904    -0.065355653
       6934.5744      0.20779992
       6935.4584    -0.076228542
       6936.3424     -0.17771489
       6937.2264      0.91523069
       6938.1104      0.78727648
       6938.9943       1.0139518
       6939.8783       1.0783350
       6940.7623      0.88060673
       6941.6463      0.54662124
       6942.5303      0.82402102
       6943.4143      0.83647425
       6944.2983      0.71043660
       6945.1822      0.67958414
       6946.0662       1.0402077
       6946.9502      0.76732409
       6947.8342      0.82577242
       6948.7182      0.86727504
       6949.6022      0.84513874
       6950.4862      0.78943403
       6951.3702      0.92129553
       6952.2541       1.0551421
       6953.1381       1.1639417
       6954.0221       1.1897024
       6954.9061       1.1143717
       6955.7901       1.0475601
       6956.6741       1.0580844
       6957.5581       1.0380097
       6958.4421       1.0667529
       6959.3260       1.0646973
       6960.2100      0.94984117
       6961.0940       1.0212863
       6961.9780       1.0780902
       6962.8620       1.1613728
       6963.7460       1.2079322
       6964.6300       1.2291797
       6965.5139      0.97533612
       6966.3979      0.88672520
       6967.2819       1.1359153
       6968.1659      0.85247664
       6969.0499      0.26275267
       6969.9339     -0.22167860
       6970.8179      0.13126364
       6971.7019     -0.25468480
       6972.5858     -0.21313378
       6973.4698     -0.34473651
       6974.3538      -1.4673513
       6975.2378      0.34109812
       6976.1218      0.56279205
       6977.0058      0.64807888
       6977.8898      0.86719375
       6978.7737      0.94586257
       6979.6577       1.0485273
       6980.5417       1.2984509
       6981.4257      0.91541094
       6982.3097       1.0219557
       6983.1937       1.0586771
       6984.0777       1.2413879
       6984.9617       1.3432067
       6985.8456       1.1022572
       6986.7296       1.0940040
       6987.6136       1.2264308
       6988.4976       1.3928915
       6989.3816       1.4331918
       6990.2656       1.9894814
       6991.1496       1.8759855
       6992.0336       1.0222812
       6992.9175      0.77578289
       6993.8015      0.34033130
       6994.6855      0.54426461
       6995.5695       1.1942745
       6996.4535       1.2200332
       6997.3375       1.1077470
       6998.2215       1.2009999
       6999.1054       1.1979648
       6999.9894       1.1952838
       7000.8734       1.1351770
       7001.7574      0.83337252
       7002.6414       1.0703909
       7003.5254       1.1013802
       7004.4094      0.67411736
       7005.2934      0.97684433
       7006.1773       1.0432266
       7007.0613      0.72923122
       7007.9453       1.1676245
       7008.8293       1.0564637
       7009.7133       1.0741081
       7010.5973      0.99004304
       7011.4813       1.0769571
       7012.3653       1.1273448
       7013.2492       1.0151691
       7014.1332      0.95867900
       7015.0172       1.1688503
       7015.9012       1.4172593
       7016.7852     0.058076614
       7017.6692      0.78312914
       7018.5532     -0.14136528
       7019.4371     -0.30799260
       7020.3211     -0.75615061
       7021.2051     -0.22851209
       7022.0891      0.93303689
       7022.9731      0.87103262
       7023.8571       1.2822138
       7024.7411       1.1681596
       7025.6251       1.3015465
       7026.5090       1.2838760
       7027.3930       1.3686814
       7028.2770       1.3355311
       7029.1610       1.0211239
       7030.0450       1.2405165
       7030.9290      0.75891100
       7031.8130      0.70843010
       7032.6970      0.74943338
       7033.5809       1.1473987
       7034.4649       1.1591831
       7035.3489      0.85492747
       7036.2329      0.79645415
       7037.1169       1.1835064
       7038.0009       1.0941750
       7038.8849       1.1954396
       7039.7688       1.2287647
       7040.6528      0.99655617
       7041.5368       1.1548610
       7042.4208       1.0829101
       7043.3048       1.0894659
       7044.1888      0.83572382
       7045.0728      0.56905566
       7045.9568       1.1877863
       7046.8407       1.0771077
       7047.7247     0.052240427
       7048.6087    -0.068718048
       7049.4927      0.92208744
       7050.3767      0.75353506
       7051.2607       1.0644437
       7052.1447       1.1219009
       7053.0287       1.0097917
       7053.9126       1.0536153
       7054.7966       1.1424153
       7055.6806       1.2003446
       7056.5646       1.2243023
       7057.4486       1.0939253
       7058.3326      0.79443631
       7059.2166       1.1134133
       7060.1005       1.0470576
       7060.9845      0.86339130
       7061.8685      0.92942459
       7062.7525       1.1138862
       7063.6365      0.52455413
       7064.5205      0.58462246
       7065.4045       1.0128721
       7066.2885      0.88084959
       7067.1724      0.54427337
       7068.0564      0.48722568
       7068.9404      0.79991954
       7069.8244       1.1041938
       7070.7084       1.1379072
       7071.5924       1.4105161
       7072.4764       1.2542692
       7073.3604       1.0294751
       7074.2443       1.1908389
       7075.1283      0.88089234
       7076.0123      0.25198662
       7076.8963      0.52678853
       7077.7803      0.80650932
       7078.6643      0.36422342
       7079.5483      0.45894223
       7080.4322     -0.16208714
       7081.3162      0.71440075
       7082.2002       1.0764798
       7083.0842       1.1359564
       7083.9682       1.1332999
       7084.8522       1.0292594
       7085.7362       1.2447437
       7086.6202       1.0510812
       7087.5041      0.99372363
       7088.3881       1.2202014
       7089.2721       1.2793327
       7090.1561       1.0304525
       7091.0401       1.2468963
       7091.9241       1.1192635
       7092.8081      0.99439550
       7093.6921       1.3183980
       7094.5760       1.0388641
       7095.4600       1.1054774
       7096.3440       1.1907019
       7097.2280       1.0922709
       7098.1120       1.0169104
       7098.9960       1.0324857
       7099.8800       1.2546577
       7100.7639       1.0148445
       7101.6479      0.78321406
       7102.5319      0.78377234
       7103.4159      0.76822473
       7104.2999      0.88069155
       7105.1839      0.96384641
       7106.0679       1.0350701
       7106.9519       1.2345116
       7107.8358       1.1189597
       7108.7198       1.1097998
       7109.6038       1.1002228
       7110.4878      0.70277393
       7111.3718      0.83072851
       7112.2558      0.72332891
       7113.1398      0.73392404
       7114.0237      0.21736329
       7114.9077      0.46231488
       7115.7917      0.38210135
       7116.6757      0.92314348
       7117.5597       1.1786176
       7118.4437       1.0625672
       7119.3277       1.2590466
       7120.2117       1.3102618
       7121.0956       1.1876296
       7121.9796       1.1467319
       7122.8636       1.2381910
       7123.7476       1.1117186
       7124.6316       1.2889705
       7125.5156       1.2729597
       7126.3996       1.2497082
       7127.2836       1.3298110
       7128.1675       1.2809878
       7129.0515       1.1507370
       7129.9355       1.2446275
       7130.8195       1.2869415
       7131.7035       1.0855042
       7132.5875       1.2342058
       7133.4715       1.2434621
       7134.3554       1.2600409
       7135.2394       1.0991363
       7136.1234       1.1846022
       7137.0074      0.98373975
       7137.8914       1.2568869
       7138.7754       1.2020407
       7139.6594       1.2991412
       7140.5434       1.1418655
       7141.4273       1.1687752
       7142.3113      0.71074030
       7143.1953       1.1329774
       7144.0793       1.4230738
       7144.9633       1.2814888
       7145.8473      0.96669175
       7146.7313       1.0911907
       7147.6153       1.2745636
       7148.4992       1.2627126
       7149.3832       1.0012660
       7150.2672       1.2052904
       7151.1512       1.1202940
       7152.0352       1.1890220
       7152.9192       1.1276552
       7153.8032       1.1309953
       7154.6871      0.69637875
       7155.5711       1.0523221
       7156.4551       1.0908548
       7157.3391       1.0721025
       7158.2231       1.2287848
       7159.1071       1.1714713
       7159.9911       1.2419952
       7160.8751       1.1769423
       7161.7590       1.1753613
       7162.6430       1.2016285
       7163.5270       1.2855524
       7164.4110       1.1308181
       7165.2950       1.1638478
       7166.1790       1.2588001
       7167.0630       1.2902543
       7167.9470       1.3045159
       7168.8309       1.3434751
       7169.7149       1.2889599
       7170.5989       1.2388550
       7171.4829       1.2610359
       7172.3669       1.1485141
       7173.2509       1.0194708
       7174.1349       1.1200469
       7175.0188       1.2778264
       7175.9028       1.3373228
       7176.7868       1.4889982
       7177.6708       1.3118494
       7178.5548      0.98852019
       7179.4388       1.2565228
       7180.3228       1.0743826
       7181.2068       1.2290166
       7182.0907       1.1347759
       7182.9747       1.2608345
       7183.8587       1.3654704
       7184.7427       1.0180424
       7185.6267       1.1383597
       7186.5107       1.1701431
       7187.3947       1.2238168
       7188.2787       1.0107167
       7189.1626       1.0296924
       7190.0466      0.80552179
       7190.9306       1.1814477
       7191.8146       1.0485045
       7192.6986       1.2388401
       7193.5826       1.1815497
       7194.4666      0.60178285
       7195.3505       1.0996991
       7196.2345      0.14524182
       7197.1185      0.77703957
       7198.0025      0.68302398
       7198.8865      0.50598679
       7199.7705      0.34493058
       7200.6545      0.95709433
       7201.5385      0.97025219
       7202.4224       1.0015149
       7203.3064      0.73560096
       7204.1904       1.1843836
       7205.0744       1.2430221
       7205.9584       1.1013736
       7206.8424      0.95014027
       7207.7264       1.1885753
       7208.6104      0.76259726
       7209.4943      0.81365029
       7210.3783      0.69552867
       7211.2623       1.0576766
       7212.1463      0.31706742
       7213.0303      0.50554791
       7213.9143       1.0816699
       7214.7983       1.3324751
       7215.6822       1.1703327
       7216.5662       1.1114378
       7217.4502       1.3169192
       7218.3342      0.85030617
       7219.2182       1.1860530
       7220.1022      0.77553967
       7220.9862      0.87952253
       7221.8702       1.1066170
       7222.7541       1.0711604
       7223.6381      0.88415868
       7224.5221      0.76964978
       7225.4061      0.46689070
       7226.2901      0.79317782
       7227.1741       1.1021648
       7228.0581       1.1211673
       7228.9420       1.1438346
       7229.8260       1.1270394
       7230.7100       1.2297474
       7231.5940       1.3476511
       7232.4780       1.3793739
       7233.3620       1.3198764
       7234.2460       1.5050750
       7235.1300       1.3606484
       7236.0139       1.2188266
       7236.8979       1.1049940
       7237.7819      0.76724907
       7238.6659      0.62084781
       7239.5499       1.0370014
       7240.4339      0.83558149
       7241.3179       1.0398655
       7242.2019      0.97792864
       7243.0858      0.94052798
       7243.9698       1.0446309
       7244.8538       1.4804492
       7245.7378       1.3718703
       7246.6218      0.98774358
       7247.5058       1.1829431
       7248.3898       1.1428415
       7249.2737       1.4368841
       7250.1577       1.4631168
       7251.0417       1.2066557
       7251.9257       1.3411398
       7252.8097       1.4355722
       7253.6937       1.4303181
       7254.5777       1.3886754
       7255.4617       1.1563874
       7256.3456       1.1339488
       7257.2296       1.3129313
       7258.1136       1.3095015
       7258.9976       1.2132428
       7259.8816       1.1468171
       7260.7656       1.0535745
       7261.6496       1.3571260
       7262.5336       1.2718042
       7263.4175       1.1706102
       7264.3015       1.2532198
       7265.1855       1.2792660
       7266.0695       1.3214382
       7266.9535       1.3022441
       7267.8375       1.2980374
       7268.7215       1.3348679
       7269.6054       1.2360177
       7270.4894       1.4135057
       7271.3734       1.2187534
       7272.2574       1.4265340
       7273.1414       1.4019046
       7274.0254       1.4780841
       7274.9094       1.3872718
       7275.7934      0.79454780
       7276.6773     -0.38042086
       7277.5613     -0.66822045
       7278.4453     -0.98129996
       7279.3293      0.33322154
       7280.2133     -0.13851198
       7281.0973      0.64691717
       7281.9813       1.1269383
       7282.8653       1.0902303
       7283.7492       1.1464205
       7284.6332      0.91453023
       7285.5172      0.45790022
       7286.4012      0.83459534
       7287.2852       1.4011513
       7288.1692       1.5746640
       7289.0532       1.1766842
       7289.9371       1.0590694
       7290.8211      0.92626600
       7291.7051       1.2766428
       7292.5891       1.4605051
       7293.4731       1.6639716
       7294.3571       1.3983255
       7295.2411       1.4173609
       7296.1251       1.1928096
       7297.0090       1.2492104
       7297.8930       1.1101824
       7298.7770       1.6143067
       7299.6610       1.5437080
       7300.5450       1.3075740
       7301.4290       1.4248717
       7302.3130       1.1056923
       7303.1970       1.2996195
       7304.0809       1.2741883
       7304.9649       1.3749584
       7305.8489       1.4650162
       7306.7329       1.1046671
       7307.6169       1.3076762
       7308.5009       1.1925360
       7309.3849       1.3726360
       7310.2688       1.2812442
       7311.1528       1.1700438
       7312.0368       1.3924691
       7312.9208       1.4623498
       7313.8048       1.3335131
       7314.6888       1.3370196
       7315.5728       1.4048930
       7316.4568       1.1868098
       7317.3407       1.0883788
       7318.2247      0.96931125
       7319.1087      0.43659049
       7319.9927     0.029425593
       7320.8767      0.89275099
       7321.7607      0.92518871
       7322.6447      0.79748373
       7323.5287       1.1853459
       7324.4126       1.2067434
       7325.2966       1.1554240
       7326.1806       1.4983074
       7327.0646       1.4413654
       7327.9486       1.2508022
       7328.8326       1.1023176
       7329.7166       1.1586434
       7330.6005       1.3437686
       7331.4845       1.2507470
       7332.3685       1.2581913
       7333.2525       1.4654790
       7334.1365       1.3304071
       7335.0205      0.96460349
       7335.9045     -0.65864012
       7336.7885     -0.80630488
       7337.6724      0.55326017
       7338.5564      0.85711592
       7339.4404      0.59557186
       7340.3244     -0.96259510
       7341.2084      0.28481466
       7342.0924       1.1406782
       7342.9764       1.5065682
       7343.8604       1.2590752
       7344.7443       1.4121843
       7345.6283       1.2988143
       7346.5123       1.2290956
       7347.3963       1.3865011
       7348.2803       1.4040448
       7349.1643       1.3872624
       7350.0483       1.3608207
       7350.9322       1.3602560
       7351.8162      0.82805656
       7352.7002      0.95031908
       7353.5842       1.0670644
       7354.4682      0.95759690
       7355.3522       1.2783350
       7356.2362       1.6827606
       7357.1202      0.40370799
       7358.0041      0.68097799
       7358.8881       1.1052465
       7359.7721       1.3640534
       7360.6561       1.3417076
       7361.5401       1.3272482
       7362.4241       1.1091637
       7363.3081       1.3477821
       7364.1920       1.2602365
       7365.0760       1.2994166
       7365.9600       1.1254095
       7366.8440      0.54286297
       7367.7280     0.079018973
       7368.6120      0.42375756
       7369.4960     -0.20454777
       7370.3800      0.81608707
       7371.2639     0.081652713
       7372.1479      0.47974462
       7373.0319       1.0212318
       7373.9159       1.1520153
       7374.7999       1.3910622
       7375.6839       1.3289661
       7376.5679       1.0451019
       7377.4519       1.2468126
       7378.3358      0.81534118
       7379.2198       1.1764010
       7380.1038       1.4902646
       7380.9878       1.0622839
       7381.8718       1.3960111
       7382.7558       1.1924038
       7383.6398       1.3833732
       7384.5237       1.1017401
       7385.4077       1.2057822
       7386.2917       1.3706044
       7387.1757      0.75983034
       7388.0597      0.80378411
       7388.9437      0.17256582
       7389.8277    0.0070707692
       7390.7117     -0.10484329
       7391.5956     -0.97043589
       7392.4796      0.37812815
       7393.3636       1.2174310
       7394.2476    -0.052662467
       7395.1316    -0.015914736
       7396.0156      0.59132886
       7396.8996       1.3376973
       7397.7836       1.0101789
       7398.6675    -0.024110011
       7399.5515      0.80738228
       7400.4355       1.3297146
       7401.3195     -0.54041513
       7402.2035     -0.97637267
       7403.0875      0.46043766
       7403.9715      0.43530958
       7404.8554      0.42423473
       7405.7394     0.069275993
       7406.6234     -0.31713556
       7407.5074       1.4261645
       7408.3914       1.5225517
       7409.2754       1.1886252
       7410.1594      0.60866808
       7411.0434       1.4025169
       7411.9273      0.95230339
       7412.8113       1.5170647
       7413.6953       1.0965086
       7414.5793      0.88306373
       7415.4633       1.0522878
       7416.3473       1.1236114
       7417.2313       1.0999393
       7418.1153       1.1582605
       7418.9992       1.1192609
       7419.8832       1.1958472
       7420.7672       1.1725612
       7421.6512       1.1864341
       7422.5352       1.3100939
       7423.4192       1.0653860
       7424.3032       1.3777871
       7425.1871       1.4279055
       7426.0711       1.3296138
       7426.9551       1.2608230
       7427.8391       1.1832699
       7428.7231       1.1638663
       7429.6071       1.1410249
       7430.4911      0.94128594
       7431.3751       1.3480246
       7432.2590       1.2255815
       7433.1430       1.1826201
       7434.0270       1.0045504
       7434.9110      0.87311514
       7435.7950       1.4963369
       7436.6790       1.1436946
       7437.5630       1.1129401
       7438.4470       1.2714504
       7439.3309     -0.37894154
       7440.2149    -0.074485616
       7441.0989       1.0317001
       7441.9829      -1.0890266
       7442.8669      0.51293876
       7443.7509      -2.0963724
       7444.6349     -0.98290109
       7445.5188      0.53255002
       7446.4028      0.92344597
       7447.2868      0.93886104
       7448.1708       1.1694899
       7449.0548      0.35132913
       7449.9388      0.37568893
       7450.8228      0.37232009
       7451.7068       1.5816424
       7452.5907       1.7460562
       7453.4747      0.44191315
       7454.3587       1.2362429
       7455.2427       1.3890834
       7456.1267      0.95684316
       7457.0107       1.1243325
       7457.8947       1.0995687
       7458.7787       1.1190807
       7459.6626       1.2596529
       7460.5466       1.0455715
       7461.4306       1.2877852
       7462.3146      0.79451205
       7463.1986       1.2066740
       7464.0826       1.2086895
       7464.9666      0.58284329
       7465.8505       1.1001751
       7466.7345      0.46182478
       7467.6185       1.2131033
       7468.5025       1.2943659
       7469.3865      0.99186928
       7470.2705       1.1272885
       7471.1545       1.3818177
       7472.0385       1.3186402
       7472.9224       1.0344475
       7473.8064       1.1668112
       7474.6904       1.2563540
       7475.5744      0.78655634
       7476.4584      0.95937655
       7477.3424      0.42580175
       7478.2264      0.24678448
       7479.1104       1.7190410
       7479.9943       1.5112141
       7480.8783       1.1282799
       7481.7623       1.1533271
       7482.6463       1.4353201
       7483.5303       1.3427541
       7484.4143      0.92662844
       7485.2983       1.1770665
       7486.1822       1.4157749
       7487.0662       1.2756555
       7487.9502       1.1971205
       7488.8342       1.1416946
       7489.7182       1.0070345
       7490.6022      0.66972486
       7491.4862    -0.074219299
       7492.3702      0.18364407
       7493.2541     -0.66190439
       7494.1381      0.42816945
       7495.0221      0.75792139
       7495.9061      0.84929094
       7496.7901       1.4236835
       7497.6741       1.5610216
       7498.5581       1.2792931
       7499.4420       1.0783011
       7500.3260      0.86027988
       7501.2100       1.1662478
       7502.0940       1.3068264
       7502.9780       1.2761426
       7503.8620       1.2942398
       7504.7460       1.2339477
       7505.6300       1.0145930
       7506.5139      0.62197658
       7507.3979     -0.17030325
       7508.2819      0.75777643
       7509.1659      0.75234923
       7510.0499      0.72718559
       7510.9339      0.45318260
       7511.8179      0.88034200
       7512.7019       1.0058406
       7513.5858       1.0292632
       7514.4698       1.3360412
       7515.3538       1.0856916
       7516.2378       1.1209407
       7517.1218       1.2140482
       7518.0058       1.2759185
       7518.8898       1.0589408
       7519.7737       1.1826209
       7520.6577       1.6556007
       7521.5417      0.39552395
       7522.4257     -0.46564276
       7523.3097      0.10549163
       7524.1937    -0.084987017
       7525.0777     -0.26069308
       7525.9617     -0.36770808
       7526.8456      0.13012048
       7527.7296       1.2215706
       7528.6136       1.0011494
       7529.4976       1.2726973
       7530.3816       1.0072435
       7531.2656       1.1681269
       7532.1496       1.2146930
       7533.0336      0.82211807
       7533.9175       1.0946868
       7534.8015      0.93646562
       7535.6855       1.2061779
       7536.5695       1.4351164
       7537.4535      0.93033999
       7538.3375       1.2534771
       7539.2215       1.7089968
       7540.1054      0.67159667
       7540.9894      0.52580555
       7541.8734      0.99485316
       7542.7574       1.1589520
       7543.6414      0.23186016
       7544.5254      0.89604326
       7545.4094       1.4812446
       7546.2934      0.52785891
       7547.1773    -0.071171619
       7548.0613       1.3665942
       7548.9453      0.86239657
       7549.8293      0.61588462
       7550.7133       1.4682877
       7551.5973       1.3382135
       7552.4813      0.68960592
       7553.3653       1.3679194
       7554.2492       1.0382948
       7555.1332      0.97963748
       7556.0172      0.94403242
       7556.9012    0.0024395368
       7557.7852       4.3515414
       7558.6692       8.0824498
       7559.5532       3.3878145
       7560.4371      0.84080900
       7561.3211     -0.52085756
       7562.2051      0.80956475
       7563.0891      0.96327682
       7563.9731      0.52076811
       7564.8571       1.0552706
       7565.7411       1.2569231
       7566.6251       1.0824239
       7567.5090      0.83014455
       7568.3930      0.52972525
       7569.2770      0.97071419
       7570.1610       1.6231123
       7571.0450      0.41521271
       7571.9290       1.2716296
       7572.8130       1.5742358
       7573.6970   -0.0037669605
       7574.5809    -0.065397396
       7575.4649       1.1591818
       7576.3489       1.5538425
       7577.2329       1.2206633
       7578.1169      0.86037723
       7579.0009      0.96267141
       7579.8849       1.3779360
       7580.7688      0.28259037
       7581.6528      0.55093524
       7582.5368      0.86710902
       7583.4208       1.1427159
       7584.3048      0.79673231
       7585.1888       1.4250990
       7586.0728      0.58614957
       7586.9568     -0.64367820
       7587.8407      0.59908925
       7588.7247       1.2358607
       7589.6087      0.72065683
       7590.4927      0.29732558
       7591.3767       1.4981725
       7592.2607       1.4802403
       7593.1447       1.4712106
       7594.0287       1.5695562
       7594.9126       1.0938607
       7595.7966       1.2324566
       7596.6806      0.66508868
       7597.5646     -0.10268248
       7598.4486      0.66800091
       7599.3326      0.78190156
       7600.2166      0.60304097
       7601.1005      0.64548110
       7601.9845      0.50270672
       7602.8685      0.94026441
       7603.7525      0.88581517
       7604.6365       1.0457250
       7605.5205      0.53972621
       7606.4045       1.3699218
       7607.2885      0.98144388
       7608.1724      0.76073995
       7609.0564      0.58238266
       7609.9404      0.87175738
       7610.8244      0.66069317
       7611.7084      0.92772158
       7612.5924      0.62910634
       7613.4764      0.50902352
       7614.3603      0.74312569
       7615.2443       1.1701859
       7616.1283       1.2571199
       7617.0123       1.1565548
       7617.8963      0.94389254
       7618.7803      0.96690720
       7619.6643       1.0416796
       7620.5483       1.1348272
       7621.4322      0.95194213
       7622.3162       1.1263274
       7623.2002       1.2675866
       7624.0842      0.83422550
       7624.9682       1.0835797
       7625.8522      0.42400384
       7626.7362      0.95752293
       7627.6202       1.1030867
       7628.5041       1.2716891
       7629.3881       1.2501690
       7630.2721      0.86472961
       7631.1561      0.96132690
       7632.0401      0.78916805
       7632.9241      0.56496629
       7633.8081      0.22769303
       7634.6920      0.39196244
       7635.5760       1.4062593
       7636.4600      0.29665502
       7637.3440       1.1270450
       7638.2280      0.63382376
