# wavelength flux
       1585.8320     0.026694807
       1586.3763    -0.042795771
       1586.9206     0.052588401
       1587.4649    -0.032794641
       1588.0091     0.020981271
       1588.5534     0.039206758
       1589.0977     0.016971391
       1589.6420     0.085799899
       1590.1862   -0.0057061614
       1590.7305    -0.015039253
       1591.2748     0.069524973
       1591.8191      0.14170659
       1592.3633     0.018401173
       1592.9076      0.10422000
       1593.4519    -0.082567762
       1593.9962     0.014004287
       1594.5404     0.036417848
       1595.0847      0.10098618
       1595.6290    -0.013107052
       1596.1733  -0.00087305471
       1596.7175     0.034606764
       1597.2618     0.079495164
       1597.8061     0.053778012
       1598.3504     0.033234152
       1598.8946     0.010493907
       1599.4389     0.080232590
       1599.9832     0.034922430
       1600.5275   -0.0040682366
       1601.0717    -0.023442396
       1601.6160  -0.00081037463
       1602.1603     0.071649727
       1602.7046     0.032219034
       1603.2488     0.052244802
       1603.7931    0.0051845627
       1604.3374    -0.022174346
       1604.8817      0.11281837
       1605.4259      0.11544817
       1605.9702     0.074427458
       1606.5145   -0.0050062951
       1607.0588    -0.019447215
       1607.6030     -0.11089935
       1608.1473      0.10507166
       1608.6916      0.15498037
       1609.2359     0.083420239
       1609.7801     0.045770439
       1610.3244     0.047720165
       1610.8687     0.098584669
       1611.4130     0.080250440
       1611.9572     0.040171105
       1612.5015     0.040421940
       1613.0458     0.064422367
       1613.5901      0.10168950
       1614.1343      0.19126209
       1614.6786      0.12287418
       1615.2229     0.067741121
       1615.7672      0.11303955
       1616.3114     0.029141177
       1616.8557     0.039788400
       1617.4000     0.031543358
       1617.9443     0.053442373
       1618.4885     0.026825968
       1619.0328    -0.017892382
       1619.5771    0.0045589085
       1620.1214     0.043552147
       1620.6656     0.046177123
       1621.2099     0.029037755
       1621.7542     0.047746550
       1622.2985     0.081240708
       1622.8427    -0.050283045
       1623.3870     0.047206295
       1623.9313      0.10502554
       1624.4756     0.052936296
       1625.0198     0.028614846
       1625.5641     0.047077979
       1626.1084      0.11430859
       1626.6526      0.10299625
       1627.1969     0.049314869
       1627.7412     0.047387938
       1628.2855     0.056685454
       1628.8297     0.053055455
       1629.3740     0.013647743
       1629.9183     0.021818310
       1630.4626     0.092217384
       1631.0068     0.035445876
       1631.5511      0.12443025
       1632.0954     0.086626645
       1632.6397      0.10216288
       1633.1839      0.10732377
       1633.7282     0.069427485
       1634.2725     0.040795122
       1634.8168     0.088931661
       1635.3610      0.15702903
       1635.9053      0.11780829
       1636.4496     0.052904081
       1636.9939     0.021924710
       1637.5381      0.13298913
       1638.0824     0.051428073
       1638.6267     0.048307615
       1639.1710     0.080251737
       1639.7152     0.087303471
       1640.2595     0.026640786
       1640.8038    0.0011816451
       1641.3481     0.024794790
       1641.8923     0.052105511
       1642.4366     0.078763279
       1642.9809      0.12347107
       1643.5252      0.11664023
       1644.0694      0.11503900
       1644.6137     0.045173332
       1645.1580     0.044465114
       1645.7023      0.14593454
       1646.2465     0.086614764
       1646.7908    0.0016362653
       1647.3351     0.036082465
       1647.8794     0.060208362
       1648.4236     0.052005937
       1648.9679    0.0094199410
       1649.5122     0.021155487
       1650.0565     0.097795061
       1650.6007     0.087793324
       1651.1450     0.012218425
       1651.6893    0.0031927207
       1652.2336     0.012396871
       1652.7778      0.12828904
       1653.3221     0.018338346
       1653.8664     0.053333815
       1654.4107    0.0015264531
       1654.9549     0.025206120
       1655.4992     0.031396812
       1656.0435     0.057761580
       1656.5878     0.045271153
       1657.1320     0.093764286
       1657.6763     0.083961019
       1658.2206     0.016076039
       1658.7649     0.084906808
       1659.3091     0.085845054
       1659.8534     0.089610224
       1660.3977     0.028466251
       1660.9420     0.056029735
       1661.4862     0.020528135
       1662.0305    -0.029325459
       1662.5748     0.086822959
       1663.1191     0.011052395
       1663.6633    -0.019300407
       1664.2076     0.017276025
       1664.7519     0.051115916
       1665.2962     0.052431796
       1665.8404   -0.0036425980
       1666.3847     0.028876402
       1666.9290     0.049078399
       1667.4733     0.082595075
       1668.0175     0.083526870
       1668.5618      0.10678715
       1669.1061     0.076201068
       1669.6504     0.085198312
       1670.1946   0.00060317714
       1670.7389      0.13619151
       1671.2832     0.037449922
       1671.8275     0.048057745
       1672.3717     0.053921402
       1672.9160     0.045066507
       1673.4603      0.10691035
       1674.0046     0.011633792
       1674.5488     0.062676566
       1675.0931     0.034426846
       1675.6374   -0.0034858848
       1676.1817     0.043226178
       1676.7259     0.078707611
       1677.2702      0.10694808
       1677.8145     0.095751743
       1678.3588     0.051892605
       1678.9030     0.095978452
       1679.4473    0.0068872675
       1679.9916     0.043069910
       1680.5359      0.11699978
       1681.0801     0.075513591
       1681.6244     0.038322710
       1682.1687      0.10273566
       1682.7130     0.045792583
       1683.2572     0.048170009
       1683.8015     0.047046741
       1684.3458     0.064454940
       1684.8901     0.061849960
       1685.4343     0.056672589
       1685.9786     0.068299407
       1686.5229     0.069246432
       1687.0672      0.12780725
       1687.6114      0.11913687
       1688.1557     0.087329945
       1688.7000    0.0041134505
       1689.2443     0.048051639
       1689.7885     0.041417980
       1690.3328   -0.0036113103
       1690.8771     0.051778956
       1691.4214     0.096079243
       1691.9656     0.040396647
       1692.5099   0.00054013607
       1693.0542     0.066502020
       1693.5984     0.079027778
       1694.1427   -0.0061046084
       1694.6870   -0.0083339170
       1695.2313     0.042185894
       1695.7755     0.089130223
       1696.3198     0.052112745
       1696.8641     0.098419602
       1697.4084     0.079347191
       1697.9526   -0.0054716786
       1698.4969     0.061765811
       1699.0412     0.067928681
       1699.5855     0.039743892
       1700.1297     0.060036596
       1700.6740      0.12191169
       1701.2183     0.038507813
       1701.7626     0.018466345
       1702.3068     0.087130602
       1702.8511     0.052684724
       1703.3954     0.035724777
       1703.9397     0.088623431
       1704.4839     0.055450243
       1705.0282     0.049324596
       1705.5725     0.060022513
       1706.1168     0.059369486
       1706.6610     0.086590873
       1707.2053     0.058716547
       1707.7496     0.053420057
       1708.2939     0.025792604
       1708.8381     0.081306158
       1709.3824     0.079464779
       1709.9267      0.11333968
       1710.4710     0.032868805
       1711.0152     0.063799776
       1711.5595     0.030720912
       1712.1038     0.083408713
       1712.6481   -0.0075628717
       1713.1923     0.076822940
       1713.7366     0.066407371
       1714.2809     0.075519239
       1714.8252      0.12646996
       1715.3694     0.020017081
       1715.9137     0.055930219
       1716.4580     0.034449079
       1717.0023     0.087611064
       1717.5465     0.015102539
       1718.0908     0.057370097
       1718.6351      0.12632208
       1719.1794     0.093543858
       1719.7236     0.043424901
       1720.2679     0.090783753
       1720.8122     0.099468984
       1721.3565     0.066337429
       1721.9007      0.10420324
       1722.4450     0.066269535
       1722.9893     0.086502082
       1723.5336     0.059223435
       1724.0778     0.030363556
       1724.6221     0.023496589
       1725.1664     0.051085646
       1725.7107     0.068295775
       1726.2549      0.10054512
       1726.7992     0.081208133
       1727.3435     0.064165088
       1727.8878     0.078681277
       1728.4320     0.078764090
       1728.9763     0.040845876
       1729.5206     0.014119664
       1730.0649     0.072004642
       1730.6091     0.050423853
       1731.1534     0.074305028
       1731.6977     0.076530045
       1732.2420     0.090430551
       1732.7862      0.11363848
       1733.3305     0.077680241
       1733.8748     0.089966606
       1734.4191     0.089394586
       1734.9633     0.067725858
       1735.5076      0.11601630
       1736.0519      0.12947672
       1736.5962     0.037713885
       1737.1404     0.076203404
       1737.6847     0.041547807
       1738.2290     0.062605569
       1738.7733     0.076714158
       1739.3175     0.036642809
       1739.8618     0.058357989
       1740.4061     0.069576735
       1740.9504     0.094464738
       1741.4946      0.11218929
       1742.0389     0.081759145
       1742.5832     0.067816467
       1743.1275     0.088577936
       1743.6717     0.063478686
       1744.2160     0.034788378
       1744.7603     0.049751797
       1745.3046     0.035806311
       1745.8488     0.098681913
       1746.3931     0.058536623
       1746.9374     0.016223456
       1747.4817     0.041733588
       1748.0259     0.054455855
       1748.5702     0.086302304
       1749.1145     0.022125204
       1749.6588     0.085539966
       1750.2030      0.11256129
       1750.7473     0.094339251
       1751.2916     0.041299606
       1751.8359     0.082257906
       1752.3801      0.10341172
       1752.9244     0.088122010
       1753.4687     0.067339310
       1754.0130      0.11100436
       1754.5572      0.11897784
       1755.1015     0.062642726
       1755.6458     0.095281835
       1756.1901     0.096737484
       1756.7343      0.11636734
       1757.2786     0.087602090
       1757.8229     0.082055681
       1758.3671     0.098590749
       1758.9114     0.070842142
       1759.4557      0.13350562
       1760.0000     0.058020671
       1760.5442     0.078586268
       1761.0885      0.10386532
       1761.6328     0.072023270
       1762.1771     0.031029547
       1762.7213     0.096351928
       1763.2656     0.086795622
       1763.8099     0.099442639
       1764.3542     0.083646456
       1764.8984     0.045176478
       1765.4427     0.027332953
       1765.9870     0.082857428
       1766.5313     0.078444052
       1767.0755     0.087309146
       1767.6198     0.079965054
       1768.1641     0.074311484
       1768.7084      0.11690113
       1769.2526     0.043696848
       1769.7969     0.075922801
       1770.3412    -0.017620941
       1770.8855     0.036901963
       1771.4297     0.064853121
       1771.9740      0.12157038
       1772.5183      0.12487946
       1773.0626     0.052165530
       1773.6068     0.088359776
       1774.1511     0.035416662
       1774.6954     0.056736219
       1775.2397     0.078488218
       1775.7839     0.058070722
       1776.3282     0.039180613
       1776.8725     0.075553585
       1777.4168     0.066467047
       1777.9610      0.13388495
       1778.5053     0.090091859
       1779.0496     0.088511035
       1779.5939     0.062515821
       1780.1381    0.0035753236
       1780.6824     0.075406470
       1781.2267     0.090959241
       1781.7710     0.097537299
       1782.3152     0.048681482
       1782.8595     0.081256917
       1783.4038     0.099204840
       1783.9481     0.069474305
       1784.4923      0.11634510
       1785.0366     0.053974246
       1785.5809     0.079077739
       1786.1252     0.095939504
       1786.6694     0.075475274
       1787.2137      0.11471703
       1787.7580     0.038608892
       1788.3023     0.098770545
       1788.8465     0.064735815
       1789.3908      0.10167210
       1789.9351     0.029551817
       1790.4794     0.052499796
       1791.0236      0.13367593
       1791.5679      0.10209981
       1792.1122     0.089319758
       1792.6565     0.079932827
       1793.2007     0.070092873
       1793.7450     0.085069987
       1794.2893     0.069139461
       1794.8336     0.081146922
       1795.3778     0.049354662
       1795.9221     0.092895866
       1796.4664     0.076798903
       1797.0107     0.064510754
       1797.5549     0.046194173
       1798.0992     0.062348849
       1798.6435     0.096866684
       1799.1878     0.049384321
       1799.7320      0.10930546
       1800.2763     0.097335055
       1800.8206     0.048039334
       1801.3649     0.050479398
       1801.9091     0.077236358
       1802.4534     0.058030738
       1802.9977     0.082059008
       1803.5420     0.080317777
       1804.0862     0.082374857
       1804.6305     0.083884062
       1805.1748     0.048906239
       1805.7191     0.059807522
       1806.2633     0.084216308
       1806.8076     0.085551467
       1807.3519      0.10050796
       1807.8962     0.033171761
       1808.4404     0.095181220
       1808.9847      0.10861989
       1809.5290     0.092847368
       1810.0733     0.091162543
       1810.6175     0.068438552
       1811.1618     0.041856283
       1811.7061     0.083651337
       1812.2504     0.089541333
       1812.7946     0.067545686
       1813.3389     0.074596674
       1813.8832     0.064092051
       1814.4275     0.029151651
       1814.9717     0.090182189
       1815.5160     0.054954286
       1816.0603     0.056755126
       1816.6046     0.055665205
       1817.1488     0.098169322
       1817.6931     0.075517446
       1818.2374     0.078967248
       1818.7817     0.091451079
       1819.3259     0.063584931
       1819.8702     0.084267389
       1820.4145      0.10804390
       1820.9588      0.12207845
       1821.5030      0.10317220
       1822.0473     0.033252599
       1822.5916     0.080041364
       1823.1359      0.10421133
       1823.6801     0.090867401
       1824.2244     0.092024238
       1824.7687      0.10272674
       1825.3129     0.050017893
       1825.8572     0.075107376
       1826.4015     0.092469875
       1826.9458      0.15060698
       1827.4900     0.084550346
       1828.0343      0.11654557
       1828.5786     0.071651697
       1829.1229     0.078246415
       1829.6671      0.13662601
       1830.2114     0.087162149
       1830.7557     0.057341727
       1831.3000     0.072635710
       1831.8442     0.087644795
       1832.3885     0.064517463
       1832.9328     0.077688718
       1833.4771     0.042868479
       1834.0213     0.097031078
       1834.5656     0.090994237
       1835.1099     0.092021034
       1835.6542     0.062285702
       1836.1984     0.054860263
       1836.7427     0.060977386
       1837.2870     0.067027861
       1837.8313     0.077278566
       1838.3755     0.036437706
       1838.9198     0.022453843
       1839.4641     0.086545749
       1840.0084     0.085527568
       1840.5526     0.087614928
       1841.0969      0.11032477
       1841.6412     0.047330261
       1842.1855     0.062373952
       1842.7297     0.092468886
       1843.2740      0.12174347
       1843.8183     0.085884027
       1844.3626     0.036804023
       1844.9068      0.10923465
       1845.4511     0.067632002
       1845.9954     0.059506828
       1846.5397     0.082946239
       1847.0839     0.086428327
       1847.6282     0.048600654
       1848.1725     0.065817957
       1848.7168     0.051030736
       1849.2610     0.070160199
       1849.8053     0.075809184
       1850.3496      0.10752944
       1850.8939     0.072659401
       1851.4381     0.065361792
       1851.9824      0.10348237
       1852.5267     0.040514204
       1853.0710     0.061854496
       1853.6152     0.067651907
       1854.1595     0.052295352
       1854.7038     0.052556146
       1855.2481     0.071081109
       1855.7923     0.059294252
       1856.3366     0.071715982
       1856.8809     0.075209397
       1857.4252     0.067985495
       1857.9694     0.053336141
       1858.5137     0.072973127
       1859.0580     0.093760915
       1859.6023     0.071989503
       1860.1465     0.058490911
       1860.6908     0.088193695
       1861.2351     0.061160603
       1861.7794     0.048639954
       1862.3236     0.076048508
       1862.8679     0.076456836
       1863.4122     0.064106520
       1863.9565     0.079406218
       1864.5007     0.037031840
       1865.0450     0.081076974
       1865.5893    0.0048403906
       1866.1336     0.063234926
       1866.6778     0.086650746
       1867.2221     0.053800229
       1867.7664     0.078974138
       1868.3107     0.071224549
       1868.8549     0.097390614
       1869.3992     0.065622081
       1869.9435     0.082363647
       1870.4878     0.065700321
       1871.0320     0.094084989
       1871.5763     0.037907672
       1872.1206     0.073367649
       1872.6649     0.081070171
       1873.2091     0.057107478
       1873.7534     0.038680410
       1874.2977     0.037460272
       1874.8420     0.068167349
       1875.3862     0.085451222
       1875.9305     0.081996081
       1876.4748     0.079861947
       1877.0191     0.069916258
       1877.5633      0.10094695
       1878.1076      0.11968643
       1878.6519      0.12292051
       1879.1962     0.070213417
       1879.7404      0.11409769
       1880.2847     0.099094009
       1880.8290      0.12976109
       1881.3733      0.10558962
       1881.9175     0.096893317
       1882.4618     0.014299905
       1883.0061      0.11616939
       1883.5504      0.11741234
       1884.0946      0.10480433
       1884.6389     0.099924549
       1885.1832     0.097899657
       1885.7275     0.091237901
       1886.2717     0.095426899
       1886.8160      0.10415837
       1887.3603      0.10141028
       1887.9046     0.065850214
       1888.4488     0.080246604
       1888.9931      0.10020402
       1889.5374     0.050417903
       1890.0816     0.074914446
       1890.6259     0.079074326
       1891.1702      0.11632021
       1891.7145     0.085991526
       1892.2587     0.058124462
       1892.8030     0.083381839
       1893.3473     0.063043990
       1893.8916      0.11379603
       1894.4358     0.090155649
       1894.9801     0.085039189
       1895.5244     0.083788622
       1896.0687      0.11748673
       1896.6129     0.071472053
       1897.1572     0.088666429
       1897.7015     0.076739738
       1898.2458     0.064792351
       1898.7900     0.069711867
       1899.3343     0.083089761
       1899.8786      0.10585903
       1900.4229     0.079825702
       1900.9671     0.081996090
       1901.5114     0.081410393
       1902.0557     0.086309481
       1902.6000      0.12786081
       1903.1442     0.028636359
       1903.6885      0.11639199
       1904.2328     0.062091126
       1904.7771     0.070791334
       1905.3213     0.059097737
       1905.8656      0.11168127
       1906.4099     0.076950024
       1906.9542     0.056443992
       1907.4984      0.11852949
       1908.0427     0.077885018
       1908.5870      0.12247923
       1909.1313      0.10522406
       1909.6755     0.050793064
       1910.2198      0.10741595
       1910.7641     0.079817378
       1911.3084      0.11730625
       1911.8526     0.098086170
       1912.3969     0.076862604
       1912.9412     0.098119898
       1913.4855     0.092685370
       1914.0297     0.045811278
       1914.5740     0.090321343
       1915.1183      0.12228388
       1915.6626     0.076272746
       1916.2068     0.094316600
       1916.7511      0.10804770
       1917.2954     0.081813861
       1917.8397     0.071885873
       1918.3839     0.088746623
       1918.9282     0.029857039
       1919.4725     0.059361672
       1920.0168     0.099728753
       1920.5610     0.061409449
       1921.1053     0.076673068
       1921.6496      0.13184523
       1922.1939     0.051093670
       1922.7381     0.075168988
       1923.2824     0.081061243
       1923.8267     0.017012531
       1924.3710     0.047763419
       1924.9152      0.12153041
       1925.4595     0.085177782
       1926.0038     0.080471709
       1926.5481     0.074443820
       1927.0923     0.067230193
       1927.6366      0.13997805
       1928.1809     0.076031178
       1928.7252     0.068026637
       1929.2694     0.077631811
       1929.8137     0.067770209
       1930.3580     0.067053807
       1930.9023     0.085477206
       1931.4465     0.089285237
       1931.9908     0.061673246
       1932.5351     0.049640687
       1933.0794     0.067767027
       1933.6236      0.10482585
       1934.1679     0.088214874
       1934.7122      0.10758918
       1935.2565     0.074744536
       1935.8007     0.079235315
       1936.3450     0.098209068
       1936.8893     0.097350345
       1937.4336     0.080510532
       1937.9778     0.063859148
       1938.5221      0.10004548
       1939.0664      0.10635660
       1939.6107    0.0045357344
       1940.1549     0.088763878
       1940.6992     0.090303882
       1941.2435     0.073727411
       1941.7878     0.060568646
       1942.3320     0.069938758
       1942.8763     0.051012099
       1943.4206     0.056017528
       1943.9649     0.051097811
       1944.5091     0.064545795
       1945.0534     0.077180947
       1945.5977      0.10302886
       1946.1420     0.085502391
       1946.6862     0.051225496
       1947.2305     0.088907490
       1947.7748     0.048516654
       1948.3191     0.056346062
       1948.8633     0.089526358
       1949.4076     0.057028159
       1949.9519      0.10596193
       1950.4962     0.062058915
       1951.0404     0.085739379
       1951.5847     0.057901013
       1952.1290     0.097720433
       1952.6733     0.065991274
       1953.2175     0.087185320
       1953.7618     0.066308434
       1954.3061     0.092399515
       1954.8504     0.063594439
       1955.3946     0.092157012
       1955.9389     0.059216626
       1956.4832     0.052766123
       1957.0274     0.062469202
       1957.5717     0.077803621
       1958.1160     0.084625990
       1958.6603     0.077070911
       1959.2045     0.091692660
       1959.7488     0.091797621
       1960.2931     0.062573954
       1960.8374     0.052204757
       1961.3816     0.068688433
       1961.9259     0.075130526
       1962.4702     0.050032874
       1963.0145     0.042603230
       1963.5587     0.031681191
       1964.1030     0.044182684
       1964.6473     0.080007821
       1965.1916     0.062850120
       1965.7358     0.091016727
       1966.2801     0.079327135
       1966.8244      0.10640572
       1967.3687     0.034432293
       1967.9129     0.058933112
       1968.4572      0.11338373
       1969.0015     0.070584085
       1969.5458     0.058447456
       1970.0900     0.059603422
       1970.6343     0.086930514
       1971.1786     0.058720763
       1971.7229     0.068595924
       1972.2671      0.10509506
       1972.8114     0.092736243
       1973.3557     0.082455244
       1973.9000     0.066997469
       1974.4442     0.071533556
       1974.9885      0.11973201
       1975.5328     0.079547064
       1976.0771     0.071130733
       1976.6213     0.087431140
       1977.1656     0.077695452
       1977.7099     0.074356356
       1978.2542     0.078631237
       1978.7984     0.056542577
       1979.3427      0.10071918
       1979.8870     0.094356381
       1980.4313     0.095937877
       1980.9755     0.037057292
       1981.5198     0.080465491
       1982.0641     0.087207178
       1982.6084      0.10099333
       1983.1526     0.069480901
       1983.6969     0.084929693
       1984.2412     0.091219355
       1984.7855     0.085254522
       1985.3297     0.071784303
       1985.8740     0.079885979
       1986.4183     0.059654813
       1986.9626     0.075382970
       1987.5068     0.049122179
       1988.0511     0.089708665
       1988.5954     0.083175225
       1989.1397      0.11459962
       1989.6839     0.072525967
       1990.2282     0.058466888
       1990.7725     0.099013961
       1991.3168     0.070865127
       1991.8610     0.074400929
       1992.4053     0.087583502
       1992.9496     0.091748530
       1993.4939     0.060458475
       1994.0381     0.082603651
       1994.5824     0.063595375
       1995.1267     0.057860843
       1995.6710     0.083892589
       1996.2152     0.061184747
       1996.7595     0.069777045
       1997.3038     0.051804156
       1997.8481     0.077632787
       1998.3923     0.058569216
       1998.9366     0.054388358
       1999.4809     0.045712968
       2000.0252     0.076680357
       2000.5694     0.084995730
       2001.1137     0.086454565
       2001.6580     0.071130686
       2002.2023     0.098880932
       2002.7465     0.084147772
       2003.2908     0.078757573
       2003.8351     0.078986266
       2004.3794     0.083913618
       2004.9236     0.080894767
       2005.4679     0.061961752
       2006.0122     0.091026523
       2006.5565     0.062610992
       2007.1007      0.10192084
       2007.6450     0.062819396
       2008.1893     0.053164490
       2008.7336     0.059183628
       2009.2778     0.088349817
       2009.8221     0.072535140
       2010.3664     0.086664874
       2010.9107     0.093279291
       2011.4549     0.034640376
       2011.9992     0.090947108
       2012.5435     0.081613204
       2013.0878     0.091621939
       2013.6320     0.068523832
       2014.1763     0.073384698
       2014.7206     0.083882152
       2015.2649     0.054536944
       2015.8091     0.053693959
       2016.3534     0.093492989
       2016.8977     0.068429185
       2017.4420     0.088533253
       2017.9862     0.072573649
       2018.5305     0.056855118
       2019.0748     0.096659412
       2019.6191      0.10931594
       2020.1633     0.059968714
       2020.7076     0.064018542
       2021.2519      0.11719863
       2021.7961     0.098432649
       2022.3404     0.078763928
       2022.8847     0.094894019
       2023.4290      0.10740737
       2023.9732      0.10058018
       2024.5175      0.10136216
       2025.0618      0.10767458
       2025.6061     0.059364334
       2026.1503     0.040448828
       2026.6946      0.11291081
       2027.2389     0.075035925
       2027.7832     0.045707148
       2028.3274     0.077710771
       2028.8717     0.066072412
       2029.4160      0.11114272
       2029.9603     0.089994508
       2030.5045     0.083660727
       2031.0488     0.092496419
       2031.5931     0.077431152
       2032.1374     0.093348190
       2032.6816     0.092441229
       2033.2259     0.072820959
       2033.7702     0.096147856
       2034.3145      0.10360778
       2034.8587      0.11779129
       2035.4030      0.10641080
       2035.9473     0.062381438
       2036.4916     0.074452971
       2037.0358     0.067873433
       2037.5801     0.097023315
       2038.1244      0.10825875
       2038.6687     0.066141296
       2039.2129     0.060156602
       2039.7572     0.093269716
       2040.3015      0.10473398
       2040.8458     0.095479479
       2041.3900     0.070970099
       2041.9343     0.067488061
       2042.4786     0.059770710
       2043.0229     0.094739382
       2043.5671     0.095853585
       2044.1114      0.11587300
       2044.6557     0.064548893
       2045.2000     0.074609847
       2045.7442      0.14453578
       2046.2885      0.11841118
       2046.8328     0.079621634
       2047.3771     0.096442502
       2047.9213     0.071939861
       2048.4656     0.038872530
       2049.0099     0.080160347
       2049.5542     0.039408483
       2050.0984     0.027589083
       2050.6427     0.061730883
       2051.1870     0.055874153
       2051.7313     0.068795338
       2052.2755     0.064736344
       2052.8198      0.11926941
       2053.3641     0.064784043
       2053.9084     0.082710632
       2054.4526     0.099310397
       2054.9969      0.10432939
       2055.5412      0.11053527
       2056.0855      0.10474329
       2056.6297     0.096724458
       2057.1740     0.047864341
       2057.7183     0.066079393
       2058.2626     0.057395929
       2058.8068     0.090627651
       2059.3511     0.068615384
       2059.8954     0.080668213
       2060.4397     0.047127982
       2060.9839      0.10615469
       2061.5282     0.085751445
       2062.0725     0.071053746
       2062.6168     0.071152559
       2063.1610     0.057437667
       2063.7053      0.10209468
       2064.2496     0.054026944
       2064.7939      0.10285738
       2065.3381     0.060098952
       2065.8824     0.066886591
       2066.4267     0.061586175
       2066.9710     0.062179268
       2067.5152      0.10406225
       2068.0595     0.087302339
       2068.6038     0.084146877
       2069.1481      0.10298262
       2069.6923     0.088187593
       2070.2366     0.075245484
       2070.7809     0.057078984
       2071.3252     0.081697491
       2071.8694     0.075928826
       2072.4137     0.081566994
       2072.9580     0.072510727
       2073.5023      0.11083304
       2074.0465     0.053185238
       2074.5908     0.083848141
       2075.1351      0.10044672
       2075.6794     0.097250115
       2076.2236      0.10068711
       2076.7679     0.067391780
       2077.3122      0.10358036
       2077.8565     0.081461741
       2078.4007     0.082089800
       2078.9450     0.097071840
       2079.4893     0.098008944
       2080.0336     0.069609730
       2080.5778     0.075261235
       2081.1221     0.097667612
       2081.6664     0.077228229
       2082.2107      0.11494920
       2082.7549     0.087356212
       2083.2992     0.066807394
       2083.8435     0.058364077
       2084.3878      0.12023982
       2084.9320     0.073649994
       2085.4763     0.075601831
       2086.0206     0.059742569
       2086.5649     0.052710579
       2087.1091     0.050931813
       2087.6534     0.064561030
       2088.1977     0.063683410
       2088.7419     0.088499262
       2089.2862     0.077761834
       2089.8305     0.090608953
       2090.3748     0.091755953
       2090.9190     0.072493316
       2091.4633      0.13493258
       2092.0076     0.056506475
       2092.5519      0.10292143
       2093.0961     0.045444591
       2093.6404     0.080238634
       2094.1847     0.071982804
       2094.7290     0.088442575
       2095.2732     0.099743856
       2095.8175     0.077294719
       2096.3618      0.10210674
       2096.9061     0.094787977
       2097.4503     0.084248343
       2097.9946     0.068728978
       2098.5389      0.12744806
       2099.0832     0.098323783
       2099.6274      0.12423484
       2100.1717     0.092361214
       2100.7160     0.081512635
       2101.2603     0.063831086
       2101.8045     0.077781264
       2102.3488     0.077021209
       2102.8931     0.074145958
       2103.4374     0.070377545
       2103.9816      0.11006220
       2104.5259     0.077685883
       2105.0702      0.10223296
       2105.6145     0.077963941
       2106.1587     0.060944422
       2106.7030     0.047937580
       2107.2473     0.085158629
       2107.7916     0.086626856
       2108.3358     0.089858652
       2108.8801      0.11034552
       2109.4244     0.067965804
       2109.9687      0.10529619
       2110.5129     0.085933951
       2111.0572     0.079856690
       2111.6015     0.082035704
       2112.1458      0.12645309
       2112.6900     0.092872211
       2113.2343     0.079369173
       2113.7786      0.11480014
       2114.3229      0.14810620
       2114.8671     0.093990216
       2115.4114      0.10437190
       2115.9557      0.10311635
       2116.5000     0.094216023
       2117.0442     0.097234786
       2117.5885     0.064838497
       2118.1328     0.072186201
       2118.6771     0.085158649
       2119.2213     0.070475395
       2119.7656      0.10194716
       2120.3099      0.11494226
       2120.8542      0.10158319
       2121.3984     0.072193725
       2121.9427     0.089408590
       2122.4870     0.056627856
       2123.0313     0.046926360
       2123.5755     0.097038768
       2124.1198      0.11628718
       2124.6641     0.079669362
       2125.2084      0.12731950
       2125.7526      0.16780768
       2126.2969      0.17861321
       2126.8412      0.18096568
       2127.3855      0.14677998
       2127.9297      0.13090236
       2128.4740      0.12304087
       2129.0183     0.075721147
       2129.5626     0.062380160
       2130.1068      0.10645731
       2130.6511     0.088213157
       2131.1954     0.079888565
       2131.7397     0.091539780
       2132.2839      0.10461034
       2132.8282      0.10000312
       2133.3725     0.050322194
       2133.9168      0.14849761
       2134.4610     0.076569879
       2135.0053     0.078103720
       2135.5496     0.086459991
       2136.0939     0.066304496
       2136.6381      0.12208310
       2137.1824     0.089953592
       2137.7267      0.12318942
       2138.2710     0.087733562
       2138.8152     0.089227049
       2139.3595      0.12117586
       2139.9038      0.10070979
       2140.4481     0.079714965
       2140.9923     0.073542662
       2141.5366      0.13086603
       2142.0809      0.11712351
       2142.6252      0.13753719
       2143.1694      0.12428243
       2143.7137     0.072312999
       2144.2580     0.071081419
       2144.8023     0.082481687
       2145.3465      0.11425939
       2145.8908     0.077431728
       2146.4351     0.051545124
       2146.9794     0.098328284
       2147.5236     0.069844105
       2148.0679      0.10081232
       2148.6122     0.089471294
       2149.1565      0.12454329
       2149.7007     0.077893762
       2150.2450     0.076370249
       2150.7893     0.088898699
       2151.3336     0.071679463
       2151.8778      0.10177485
       2152.4221     0.073971091
       2152.9664     0.084352225
       2153.5106     0.080995355
       2154.0549      0.12038568
       2154.5992     0.075240757
       2155.1435      0.10663880
       2155.6877      0.13279086
       2156.2320     0.087590736
       2156.7763      0.11621330
       2157.3206      0.14454403
       2157.8648      0.11243082
       2158.4091     0.087977246
       2158.9534     0.098918315
       2159.4977      0.10704272
       2160.0419      0.11145067
       2160.5862     0.059324867
       2161.1305     0.099298175
       2161.6748     0.087262195
       2162.2190     0.091311625
       2162.7633      0.12598879
       2163.3076      0.10439095
       2163.8519      0.10978170
       2164.3961     0.094201655
       2164.9404     0.086091468
       2165.4847      0.11903869
       2166.0290      0.14382594
       2166.5732      0.11405601
       2167.1175     0.096540491
       2167.6618      0.11022123
       2168.2061      0.12085961
       2168.7503     0.067562904
       2169.2946     0.051504087
       2169.8389     0.076079190
       2170.3832     0.068877393
       2170.9274      0.10820038
       2171.4717      0.11265065
       2172.0160     0.094669332
       2172.5603     0.069333726
       2173.1045     0.083817250
       2173.6488     0.083234341
       2174.1931     0.091465117
       2174.7374     0.074412623
       2175.2816     0.079114540
       2175.8259     0.073259606
       2176.3702     0.095177199
       2176.9145     0.070434374
       2177.4587      0.10318861
       2178.0030     0.097411639
       2178.5473     0.099065719
       2179.0916     0.076621660
       2179.6358     0.093548777
       2180.1801      0.12532902
       2180.7244     0.087578034
       2181.2687     0.089851686
       2181.8129     0.087689143
       2182.3572      0.12421173
       2182.9015      0.11411442
       2183.4458     0.084314848
       2183.9900     0.071574794
       2184.5343     0.042564095
       2185.0786      0.11773857
       2185.6229     0.087476785
       2186.1671      0.13416411
       2186.7114     0.082590964
       2187.2557     0.070330053
       2187.8000     0.096061674
       2188.3442      0.10374722
       2188.8885      0.10500437
       2189.4328     0.077677337
       2189.9771      0.11743798
       2190.5213     0.082728162
       2191.0656      0.12603413
       2191.6099     0.041569675
       2192.1542      0.11412706
       2192.6984     0.093451210
       2193.2427     0.062956796
       2193.7870     0.094265684
       2194.3313      0.13475506
       2194.8755      0.10878674
       2195.4198     0.097557738
       2195.9641     0.091935281
       2196.5084      0.11530019
       2197.0526     0.067928063
       2197.5969     0.086232156
       2198.1412      0.11465918
       2198.6855      0.11373804
       2199.2297      0.10169691
       2199.7740     0.075932753
       2200.3183      0.10113421
       2200.8626      0.12704238
       2201.4068      0.10028446
       2201.9511     0.090603093
       2202.4954     0.083773622
       2203.0397      0.10186274
       2203.5839     0.028661284
       2204.1282      0.13526221
       2204.6725     0.086751907
       2205.2168      0.10438589
       2205.7610      0.14096207
       2206.3053     0.097933498
       2206.8496     0.079965441
       2207.3939      0.10588780
       2207.9381      0.14987995
       2208.4824      0.12701872
       2209.0267     0.094156873
       2209.5710      0.11147877
       2210.1152      0.12236624
       2210.6595      0.12135010
       2211.2038      0.11413689
       2211.7481     0.083233868
       2212.2923      0.12499278
       2212.8366     0.097809204
       2213.3809     0.085515151
       2213.9252      0.11017005
       2214.4694     0.082160239
       2215.0137     0.092259145
       2215.5580     0.093152286
       2216.1023      0.12156085
       2216.6465     0.074393690
       2217.1908     0.070825522
       2217.7351     0.080375278
       2218.2794     0.088345865
       2218.8236      0.11816561
       2219.3679      0.13373674
       2219.9122     0.098210438
       2220.4564     0.097873076
       2221.0007      0.12849264
       2221.5450     0.094545483
       2222.0893     0.089190348
       2222.6335      0.13417560
       2223.1778     0.078763310
       2223.7221      0.10363197
       2224.2664      0.13198049
       2224.8106     0.072352720
       2225.3549     0.089380134
       2225.8992      0.12580919
       2226.4435      0.11974842
       2226.9877     0.092362065
       2227.5320      0.10042626
       2228.0763      0.11543978
       2228.6206      0.11413080
       2229.1648     0.084422979
       2229.7091     0.090273634
       2230.2534     0.097621217
       2230.7977     0.091147048
       2231.3419      0.11621778
       2231.8862     0.089152128
       2232.4305     0.068296594
       2232.9748     0.090324115
       2233.5190      0.12867195
       2234.0633     0.067086264
       2234.6076     0.079559481
       2235.1519     0.067010451
       2235.6961     0.071403048
       2236.2404     0.099491734
       2236.7847     0.093571442
       2237.3290      0.12350271
       2237.8732      0.12352386
       2238.4175      0.14264008
       2238.9618     0.076442021
       2239.5061     0.049161544
       2240.0503     0.076717537
       2240.5946     0.080788552
       2241.1389      0.12461858
       2241.6832     0.098666521
       2242.2274     0.042235946
       2242.7717      0.12390138
       2243.3160     0.093445418
       2243.8603      0.14462873
       2244.4045     0.064866104
       2244.9488     0.097697344
       2245.4931     0.092707140
       2246.0374     0.096072320
       2246.5816      0.12985459
       2247.1259     0.092024591
       2247.6702     0.054157963
       2248.2145     0.098595955
       2248.7587      0.11748673
       2249.3030      0.12127711
       2249.8473     0.043301221
       2250.3916     0.075995675
       2250.9358     0.092085180
       2251.4801      0.11520813
       2252.0244      0.12346353
       2252.5687     0.077842584
       2253.1129     0.088964143
       2253.6572     0.048784404
       2254.2015      0.10011426
       2254.7458      0.11677666
       2255.2900     0.073670794
       2255.8343     0.086500138
       2256.3786     0.086481127
       2256.9229      0.12193639
       2257.4671      0.14003249
       2258.0114      0.10419566
       2258.5557      0.10779655
       2259.1000     0.062683689
       2259.6442      0.10588284
       2260.1885     0.094956882
       2260.7328     0.088234243
       2261.2771     0.081914625
       2261.8213      0.11795752
       2262.3656      0.10909079
       2262.9099      0.14333857
       2263.4542     0.082935274
       2263.9984      0.12509938
       2264.5427      0.12911759
       2265.0870      0.10016793
       2265.6313     0.057697399
       2266.1755      0.10150013
       2266.7198     0.097912784
       2267.2641     0.099424443
       2267.8084      0.11810575
       2268.3526      0.11757764
       2268.8969     0.088988089
       2269.4412     0.087022825
       2269.9855     0.086180206
       2270.5297     0.083243232
       2271.0740      0.10021504
       2271.6183      0.12684600
       2272.1626     0.098200922
       2272.7068     0.078056431
       2273.2511      0.14707180
       2273.7954      0.11634479
       2274.3397     0.087743060
       2274.8839      0.12112768
       2275.4282     0.079757071
       2275.9725     0.077348906
       2276.5168     0.097242103
       2277.0610     0.081747324
       2277.6053      0.12630992
       2278.1496      0.11301641
       2278.6939     0.072842328
       2279.2381      0.10533455
       2279.7824      0.12521084
       2280.3267     0.090054455
       2280.8710      0.12270533
       2281.4152      0.12466539
       2281.9595     0.097910639
       2282.5038     0.069801470
       2283.0481      0.12152305
       2283.5923     0.033826654
       2284.1366     0.039848721
       2284.6809     0.075075675
       2285.2252     0.080381605
       2285.7694     0.055917638
       2286.3137      0.12185291
       2286.8580      0.12039609
       2287.4022      0.10722243
       2287.9465      0.11748136
       2288.4908      0.11462576
       2289.0351      0.13038865
       2289.5793      0.12179409
       2290.1236      0.11590861
       2290.6679      0.12943994
       2291.2122     0.070865886
       2291.7564     0.090906717
       2292.3007      0.11702115
       2292.8450      0.10191819
       2293.3893     0.097859590
       2293.9335     0.093244377
       2294.4778      0.13880338
       2295.0221      0.12078827
       2295.5664      0.11520959
       2296.1106     0.094834643
       2296.6549     0.088599743
       2297.1992      0.10885832
       2297.7435     0.054318007
       2298.2877      0.10782973
       2298.8320     0.073197576
       2299.3763     0.099903245
       2299.9206     0.088790349
       2300.4648     0.080848331
       2301.0091     0.074548555
       2301.5534      0.10658392
       2302.0977      0.12019223
       2302.6419      0.11749399
       2303.1862     0.099083625
       2303.7305     0.081024366
       2304.2748     0.092970381
       2304.8190     0.093034048
       2305.3633      0.13661455
       2305.9076     0.080608644
       2306.4519      0.11716849
       2306.9961     0.071988065
       2307.5404     0.061574238
       2308.0847      0.12627305
       2308.6290     0.072690650
       2309.1732      0.10384936
       2309.7175     0.097284966
       2310.2618     0.097433313
       2310.8061     0.097633055
       2311.3503      0.12785270
       2311.8946      0.14587904
       2312.4389     0.059076481
       2312.9832     0.081528710
       2313.5274      0.13534728
       2314.0717     0.080061360
       2314.6160      0.14174306
       2315.1603     0.089232150
       2315.7045     0.059968884
       2316.2488     0.078363782
       2316.7931      0.13768204
       2317.3374      0.12580080
       2317.8816     0.088746138
       2318.4259      0.12233615
       2318.9702     0.098420665
       2319.5145     0.083096270
       2320.0587      0.10661683
       2320.6030     0.059067042
       2321.1473      0.13263919
       2321.6916     0.099876088
       2322.2358     0.094179056
       2322.7801     0.099470668
       2323.3244      0.10966252
       2323.8687     0.075432258
       2324.4129     0.097899465
       2324.9572      0.15398177
       2325.5015      0.14315788
       2326.0458      0.10910911
       2326.5900      0.14497688
       2327.1343      0.10826151
       2327.6786      0.10565485
       2328.2229     0.084551708
       2328.7671      0.14863002
       2329.3114      0.16684054
       2329.8557      0.11225700
       2330.4000     0.091291652
       2330.9442     0.096675558
       2331.4885      0.13257860
       2332.0328      0.10286495
       2332.5771      0.11803137
       2333.1213     0.094928773
       2333.6656     0.097984402
       2334.2099     0.062698893
       2334.7542     0.076253999
       2335.2984      0.12226195
       2335.8427      0.10853608
       2336.3870      0.10196380
       2336.9313     0.085201738
       2337.4755      0.11570421
       2338.0198      0.12482257
       2338.5641      0.11505664
       2339.1084     0.091656008
       2339.6526      0.10869246
       2340.1969      0.10893912
       2340.7412      0.12399082
       2341.2855      0.11663570
       2341.8297     0.083021128
       2342.3740     0.094393636
       2342.9183     0.072335031
       2343.4626     0.083051640
       2344.0068     0.018931625
       2344.5511     0.017803342
       2345.0954     0.046593849
       2345.6397     0.086170561
       2346.1839     0.062484851
       2346.7282     0.064648637
       2347.2725     0.056768377
       2347.8168      0.10617614
       2348.3610      0.11769015
       2348.9053     0.058625585
       2349.4496     0.099949910
       2349.9939      0.14141007
       2350.5381      0.13679205
       2351.0824      0.12830606
       2351.6267      0.12729114
       2352.1709      0.14005550
       2352.7152      0.13879474
       2353.2595      0.10988691
       2353.8038     0.095818350
       2354.3480     0.092997148
       2354.8923      0.13883473
       2355.4366      0.11603057
       2355.9809     0.074155407
       2356.5251      0.11986391
       2357.0694      0.10503251
       2357.6137     0.066754292
       2358.1580      0.10145901
       2358.7022      0.11394046
       2359.2465     0.095420471
       2359.7908     0.090247102
       2360.3351     0.074859255
       2360.8793      0.10950186
       2361.4236      0.13811378
       2361.9679     0.094642954
       2362.5122      0.11760140
       2363.0564      0.12442896
       2363.6007      0.14699923
       2364.1450      0.12256527
       2364.6893     0.072556334
       2365.2335      0.10905536
       2365.7778      0.11737766
       2366.3221      0.15307140
       2366.8664      0.11930961
       2367.4106     0.037636922
       2367.9549     0.088640881
       2368.4992      0.11063591
       2369.0435     0.096731651
       2369.5877      0.12873019
       2370.1320     0.071764113
       2370.6763      0.14305775
       2371.2206     0.078552619
       2371.7648     0.062977288
       2372.3091      0.10098672
       2372.8534     0.070072725
       2373.3977     0.048908115
       2373.9419     0.071518322
       2374.4862      0.10744460
       2375.0305     0.071813684
       2375.5748     0.074671424
       2376.1190     0.095815104
       2376.6633     0.081132641
       2377.2076     0.066312538
       2377.7519     0.028433409
       2378.2961     0.062450566
       2378.8404     0.084082926
       2379.3847      0.11157179
       2379.9290      0.12292580
       2380.4732     0.085252143
       2381.0175     0.051736879
       2381.5618     0.098809890
       2382.1061     0.078638068
       2382.6503     0.050951007
       2383.1946     0.070865876
       2383.7389      0.11929054
       2384.2832     0.053100015
       2384.8274      0.11512403
       2385.3717      0.14997783
       2385.9160      0.10146387
       2386.4603     0.085709885
       2387.0045      0.17354190
       2387.5488     0.096449715
       2388.0931     0.073475915
       2388.6374      0.13815552
       2389.1816      0.12568696
       2389.7259      0.14204656
       2390.2702      0.12823963
       2390.8145      0.10116727
       2391.3587      0.11568492
       2391.9030      0.16671200
       2392.4473      0.10008267
       2392.9916      0.13858799
       2393.5358     0.090390119
       2394.0801      0.10122564
       2394.6244      0.12785898
       2395.1687     0.090255394
       2395.7129      0.13688877
       2396.2572      0.14251774
       2396.8015      0.14341221
       2397.3458      0.16800711
       2397.8900      0.11607598
       2398.4343      0.10197184
       2398.9786     0.075586818
       2399.5229      0.12318857
       2400.0671      0.10578558
       2400.6114      0.13917398
       2401.1557     0.098399157
       2401.7000     0.090986027
       2402.2442     0.067138476
       2402.7885      0.15987467
       2403.3328     0.094288073
       2403.8771      0.12053379
       2404.4213      0.13682613
       2404.9656      0.11223184
       2405.5099      0.12658196
       2406.0542     0.068168073
       2406.5984      0.13982331
       2407.1427     0.076627007
       2407.6870      0.11569194
       2408.2313      0.10480607
       2408.7755      0.10981995
       2409.3198      0.14291339
       2409.8641     0.091906600
       2410.4084      0.11118018
       2410.9526      0.17442283
       2411.4969      0.10660117
       2412.0412      0.12134751
       2412.5855      0.12365215
       2413.1297     0.077940953
       2413.6740      0.10274533
       2414.2183     0.060384380
       2414.7626      0.11273835
       2415.3068      0.11202313
       2415.8511      0.10656721
       2416.3954     0.058514691
       2416.9397      0.10729360
       2417.4839      0.11640814
       2418.0282      0.10960640
       2418.5725      0.10901514
       2419.1167     0.072859549
       2419.6610     0.061962487
       2420.2053     0.087498109
       2420.7496     0.046958173
       2421.2938      0.11838238
       2421.8381      0.16239714
       2422.3824      0.12915492
       2422.9267      0.12050890
       2423.4709      0.16000161
       2424.0152     0.064065094
       2424.5595      0.15549843
       2425.1038     0.097937812
       2425.6480      0.16265989
       2426.1923      0.13360881
       2426.7366      0.14211806
       2427.2809      0.12840955
       2427.8251      0.15253971
       2428.3694     0.076077355
       2428.9137      0.13340013
       2429.4580     0.087072354
       2430.0022     0.082338819
       2430.5465      0.12518734
       2431.0908      0.12415167
       2431.6351     0.054850212
       2432.1793      0.10076543
       2432.7236      0.15143165
       2433.2679      0.14249808
       2433.8122      0.14076456
       2434.3564      0.13046007
       2434.9007      0.20259844
       2435.4450      0.13657662
       2435.9893     0.088919132
       2436.5335     0.059478545
       2437.0778      0.15329643
       2437.6221      0.10270401
       2438.1664      0.16557839
       2438.7106     0.093624134
       2439.2549      0.19074294
       2439.7992      0.18266517
       2440.3435      0.11433885
       2440.8877     0.084653874
       2441.4320      0.10516703
       2441.9763      0.10520707
       2442.5206      0.10359297
       2443.0648      0.15061747
       2443.6091      0.11494317
       2444.1534     0.045973738
       2444.6977      0.11706914
       2445.2419     0.083525185
       2445.7862      0.12057009
       2446.3305      0.11710869
       2446.8748      0.13932579
       2447.4190      0.15923208
       2447.9633     0.098309193
       2448.5076      0.15424849
       2449.0519      0.14954497
       2449.5961     0.088961613
       2450.1404      0.17767896
       2450.6847      0.10763641
       2451.2290     0.094061132
       2451.7732      0.14932176
       2452.3175     0.098344134
       2452.8618      0.13393496
       2453.4061      0.14439488
       2453.9503      0.16380633
       2454.4946     0.067584484
       2455.0389     0.097833486
       2455.5832      0.10788785
       2456.1274      0.17925943
       2456.6717      0.11276564
       2457.2160      0.15801766
       2457.7603     0.036005288
       2458.3045      0.12257146
       2458.8488      0.10554130
       2459.3931      0.15369117
       2459.9374      0.14366310
       2460.4816      0.11416744
       2461.0259      0.14917475
       2461.5702     0.092848576
       2462.1145      0.11170111
       2462.6587     0.057619196
       2463.2030     0.072613499
       2463.7473      0.14721898
       2464.2916     0.066513860
       2464.8358      0.16524511
       2465.3801      0.12246092
       2465.9244      0.15205341
       2466.4687      0.11861036
       2467.0129      0.12270170
       2467.5572      0.11198357
       2468.1015     0.068572469
       2468.6458      0.14776886
       2469.1900      0.12824856
       2469.7343      0.11642185
       2470.2786      0.12989646
       2470.8229      0.14713030
       2471.3671      0.11594290
       2471.9114      0.13506771
       2472.4557      0.12552362
       2473.0000      0.11268115
       2473.5442      0.13916465
       2474.0885      0.17965858
       2474.6328      0.12988275
       2475.1771      0.13270260
       2475.7213     0.089779429
       2476.2656      0.10886227
       2476.8099     0.093843911
       2477.3542      0.14300353
       2477.8984      0.12996514
       2478.4427      0.12254637
       2478.9870      0.12524062
       2479.5313      0.14748674
       2480.0755      0.10879251
       2480.6198     0.087274699
       2481.1641      0.11725105
       2481.7084      0.14825178
       2482.2526      0.12224852
       2482.7969      0.16283720
       2483.3412      0.10421743
       2483.8854      0.13078834
       2484.4297      0.13386729
       2484.9740     0.092241551
       2485.5183     0.033280591
       2486.0625      0.10896409
       2486.6068      0.10937969
       2487.1511     0.074325178
       2487.6954      0.12889911
       2488.2396      0.15328206
       2488.7839      0.14500303
       2489.3282      0.11721770
       2489.8725      0.13118349
       2490.4167      0.18162106
       2490.9610      0.15908948
       2491.5053      0.12749467
       2492.0496      0.11486725
       2492.5938      0.16987390
       2493.1381     0.069863280
       2493.6824     0.091060137
       2494.2267      0.12088855
       2494.7709      0.11906019
       2495.3152      0.14131950
       2495.8595      0.10570635
       2496.4038      0.14177737
       2496.9480     0.073198411
       2497.4923      0.11410167
       2498.0366     0.065452791
       2498.5809     0.073922468
       2499.1251     0.093506564
       2499.6694      0.13203719
       2500.2137      0.12615118
       2500.7580      0.11790348
       2501.3022      0.11587395
       2501.8465     0.096249150
       2502.3908      0.10046505
       2502.9351      0.14077336
       2503.4793      0.14299610
       2504.0236      0.15323499
       2504.5679      0.10608822
       2505.1122      0.10360843
       2505.6564      0.16462199
       2506.2007      0.16034922
       2506.7450     0.086270565
       2507.2893     0.066902228
       2507.8335      0.17799817
       2508.3778      0.13924714
       2508.9221     0.099697577
       2509.4664      0.14384692
       2510.0106      0.12580035
       2510.5549      0.13828130
       2511.0992      0.11985018
       2511.6435      0.16742550
       2512.1877      0.10261767
       2512.7320     0.088033780
       2513.2763      0.13929005
       2513.8206      0.12310360
       2514.3648     0.081636850
       2514.9091      0.11691442
       2515.4534      0.15884455
       2515.9977     0.097432995
       2516.5419     0.072393881
       2517.0862      0.11013611
       2517.6305      0.10875743
       2518.1748     0.096087305
       2518.7190      0.16094723
       2519.2633      0.14569533
       2519.8076      0.13505828
       2520.3519      0.18295200
       2520.8961      0.10520453
       2521.4404      0.12516113
       2521.9847     0.080362956
       2522.5290      0.11233456
       2523.0732      0.11803482
       2523.6175      0.11032654
       2524.1618      0.11727587
       2524.7061     0.082843806
       2525.2503      0.11988303
       2525.7946      0.11780561
       2526.3389      0.11239505
       2526.8832     0.092891540
       2527.4274      0.12353015
       2527.9717     0.073647125
       2528.5160     0.089153935
       2529.0603     0.093188174
       2529.6045      0.10984299
       2530.1488     0.094076580
       2530.6931      0.12209738
       2531.2374      0.15417178
       2531.7816      0.14730555
       2532.3259      0.13760488
       2532.8702      0.12861250
       2533.4145      0.11048361
       2533.9587      0.13129187
       2534.5030      0.15474590
       2535.0473      0.12711581
       2535.5916      0.18706761
       2536.1358     0.089198533
       2536.6801      0.11751741
       2537.2244     0.098593344
       2537.7687      0.13086305
       2538.3129      0.12025670
       2538.8572      0.11046605
       2539.4015     0.067474162
       2539.9458     0.037488106
       2540.4900      0.18231123
       2541.0343      0.14248927
       2541.5786      0.10775506
       2542.1229      0.10873322
       2542.6671      0.11824347
       2543.2114      0.10188728
       2543.7557      0.11618112
       2544.3000      0.10219302
       2544.8442     0.093743246
       2545.3885      0.11225549
       2545.9328     0.085612455
       2546.4771     0.098497931
       2547.0213      0.15925596
       2547.5656      0.11227785
       2548.1099      0.13010671
       2548.6542      0.10861223
       2549.1984      0.10944888
       2549.7427      0.11737353
       2550.2870      0.15232623
       2550.8312      0.11565014
       2551.3755      0.12027538
       2551.9198      0.17834001
       2552.4641      0.11155691
       2553.0083     0.093089830
       2553.5526      0.10513091
       2554.0969      0.10704664
       2554.6412      0.17667058
       2555.1854      0.12351619
       2555.7297     0.076928072
       2556.2740      0.11615422
       2556.8183      0.13458110
       2557.3625      0.16832988
       2557.9068      0.11817755
       2558.4511      0.17252974
       2558.9954     0.092580454
       2559.5396      0.11511645
       2560.0839      0.16496693
       2560.6282      0.15473007
       2561.1725     0.064196378
       2561.7167      0.14331500
       2562.2610      0.11725030
       2562.8053      0.12183949
       2563.3496      0.13662453
       2563.8938      0.13944588
       2564.4381      0.15049418
       2564.9824      0.12357452
       2565.5267      0.14165397
       2566.0709      0.16507504
       2566.6152     0.065717167
       2567.1595      0.14833108
       2567.7038     0.046269482
       2568.2480      0.15746024
       2568.7923      0.14130454
       2569.3366      0.12647591
       2569.8809      0.11306485
       2570.4251      0.10582192
       2570.9694      0.13183237
       2571.5137      0.16621679
       2572.0580     0.095031884
       2572.6022      0.13010975
       2573.1465     0.097171601
       2573.6908      0.13721396
       2574.2351      0.11902693
       2574.7793      0.13807880
       2575.3236      0.10637880
       2575.8679      0.11329025
       2576.4122      0.16552594
       2576.9564     0.089432705
       2577.5007     0.078349529
       2578.0450     0.077992388
       2578.5893     0.086123141
       2579.1335     0.030401868
       2579.6778     0.060093841
       2580.2221     0.033270333
       2580.7664     0.029157227
       2581.3106     0.064497682
       2581.8549     0.055270901
       2582.3992      0.10636818
       2582.9435      0.14906955
       2583.4877      0.12706214
       2584.0320      0.14251559
       2584.5763      0.13298297
       2585.1206      0.11659512
       2585.6648      0.10623701
       2586.2091      0.13279621
       2586.7534      0.10345519
       2587.2977     0.086505006
       2587.8419     0.084726434
       2588.3862      0.12122913
       2588.9305      0.15144390
       2589.4748      0.14607784
       2590.0190     0.056239657
       2590.5633    0.0096537978
       2591.1076     0.077057876
       2591.6519     0.079493598
       2592.1961     0.074922661
       2592.7404     0.038384989
       2593.2847     0.030688050
       2593.8290     0.070645389
       2594.3732     0.063214039
       2594.9175     0.078547948
       2595.4618     0.070951310
       2596.0061      0.10372327
       2596.5503     0.099956744
       2597.0946     0.036466385
       2597.6389      0.11640723
       2598.1832     0.091325855
       2598.7274      0.11490150
       2599.2717     0.094263353
       2599.8160      0.10770878
       2600.3603      0.15712297
       2600.9045      0.14324282
       2601.4488      0.13444646
       2601.9931      0.12219098
       2602.5374      0.13552220
       2603.0816      0.14358860
       2603.6259     0.080535215
       2604.1702      0.19495003
       2604.7145      0.20374310
       2605.2587      0.13928470
       2605.8030      0.14895903
       2606.3473      0.17303697
       2606.8916     0.093905470
       2607.4358      0.13897175
       2607.9801      0.20911494
       2608.5244      0.14768754
       2609.0687      0.14962680
       2609.6129      0.12620916
       2610.1572     0.086092051
       2610.7015      0.11583457
       2611.2458      0.15237476
       2611.7900      0.11350688
       2612.3343      0.13719538
       2612.8786      0.13199905
       2613.4229      0.12797473
       2613.9671      0.12983939
       2614.5114      0.16911103
       2615.0557      0.17633834
       2615.5999      0.14247601
       2616.1442      0.11598652
       2616.6885     0.092178793
       2617.2328      0.14226411
       2617.7770      0.16399029
       2618.3213      0.16941720
       2618.8656      0.19435602
       2619.4099      0.15196361
       2619.9541      0.16150514
       2620.4984      0.16694506
       2621.0427      0.13246298
       2621.5870      0.14934611
       2622.1312      0.13722508
       2622.6755     0.076669622
       2623.2198      0.14516385
       2623.7641      0.14744039
       2624.3083      0.10973289
       2624.8526      0.10765062
       2625.3969      0.10559185
       2625.9412      0.18537642
       2626.4854      0.17608876
       2627.0297      0.11115374
       2627.5740      0.16752635
       2628.1183      0.13373560
       2628.6625      0.10030000
       2629.2068      0.11168029
       2629.7511      0.16693392
       2630.2954      0.11863779
       2630.8396      0.11633835
       2631.3839     0.089702973
       2631.9282      0.12226711
       2632.4725      0.15006638
       2633.0167      0.13127167
       2633.5610      0.13154733
       2634.1053     0.095772218
       2634.6496      0.16482372
       2635.1938      0.16555796
       2635.7381      0.16527748
       2636.2824      0.17584868
       2636.8267      0.15576747
       2637.3709      0.14653281
       2637.9152      0.11564669
       2638.4595      0.15959320
       2639.0038      0.16681803
       2639.5480      0.13789063
       2640.0923      0.15674730
       2640.6366      0.18630921
       2641.1809      0.13786967
       2641.7251      0.11633746
       2642.2694      0.10681447
       2642.8137      0.10398334
       2643.3580      0.11129722
       2643.9022      0.18688525
       2644.4465      0.11199093
       2644.9908      0.11499796
       2645.5351      0.15585423
       2646.0793      0.10935462
       2646.6236      0.16376455
       2647.1679      0.15013647
       2647.7122      0.16620061
       2648.2564      0.14734096
       2648.8007     0.099202003
       2649.3450      0.15334897
       2649.8893      0.12829018
       2650.4335      0.14237057
       2650.9778      0.12082108
       2651.5221      0.11426071
       2652.0664      0.14571827
       2652.6106      0.16524387
       2653.1549     0.091043913
       2653.6992     0.081429973
       2654.2435      0.13961237
       2654.7877     0.084581094
       2655.3320      0.13559242
       2655.8763      0.11832935
       2656.4206      0.13331376
       2656.9648     0.091960206
       2657.5091      0.16111845
       2658.0534      0.20896314
       2658.5977      0.13726382
       2659.1419      0.17218389
       2659.6862      0.15070010
       2660.2305      0.18973729
       2660.7748     0.095768594
       2661.3190     0.095270335
       2661.8633      0.12065003
       2662.4076      0.11392453
       2662.9519      0.15395014
       2663.4961     0.086895172
       2664.0404     0.094877337
       2664.5847     0.088548422
       2665.1290      0.11532974
       2665.6732      0.15373349
       2666.2175      0.11450053
       2666.7618      0.13946294
       2667.3061      0.15850557
       2667.8503      0.14266399
       2668.3946     0.075414451
       2668.9389     0.063688145
       2669.4832      0.18706929
       2670.0274      0.16421128
       2670.5717      0.11004587
       2671.1160     0.094201238
       2671.6603     0.091694425
       2672.2045     0.079718709
       2672.7488      0.13194657
       2673.2931      0.11304591
       2673.8374      0.11350767
       2674.3816      0.10827402
       2674.9259      0.12958678
       2675.4702      0.14225048
       2676.0145      0.17018671
       2676.5587      0.10750202
       2677.1030      0.17031725
       2677.6473      0.15676356
       2678.1916      0.12107422
       2678.7358      0.15117152
       2679.2801      0.13827349
       2679.8244      0.13486323
       2680.3687     0.088717703
       2680.9129      0.12237819
       2681.4572      0.12177135
       2682.0015      0.12085218
       2682.5457     0.094207859
       2683.0900      0.11439282
       2683.6343     0.097593592
       2684.1786      0.10875067
       2684.7228      0.11328090
       2685.2671      0.13197199
       2685.8114      0.12470561
       2686.3557      0.14913245
       2686.8999      0.11801477
       2687.4442     0.091930422
       2687.9885     0.070873792
       2688.5328      0.10145371
       2689.0770      0.10105318
       2689.6213      0.13927183
       2690.1656      0.17305661
       2690.7099      0.13465711
       2691.2541      0.11140838
       2691.7984     0.083257032
       2692.3427      0.13806352
       2692.8870      0.16919596
       2693.4312      0.12030810
       2693.9755      0.17862126
       2694.5198      0.14988789
       2695.0641     0.084317481
       2695.6083      0.11318378
       2696.1526      0.13651971
       2696.6969     0.068180176
       2697.2412      0.11825647
       2697.7854      0.11983050
       2698.3297      0.12485747
       2698.8740      0.12429132
       2699.4183      0.20005886
       2699.9625      0.11860292
       2700.5068      0.17384932
       2701.0511      0.17230836
       2701.5954      0.19742401
       2702.1396      0.11700551
       2702.6839      0.21750359
       2703.2282      0.12769605
       2703.7725      0.10659186
       2704.3167      0.15615140
       2704.8610      0.19645765
       2705.4053      0.16591741
       2705.9496      0.17446999
       2706.4938      0.14549197
       2707.0381      0.19705513
       2707.5824      0.15692775
       2708.1267      0.11690705
       2708.6709     0.092625473
       2709.2152      0.20483726
       2709.7595      0.12216625
       2710.3038      0.12696603
       2710.8480      0.17892787
       2711.3923      0.13593845
       2711.9366     0.078579885
       2712.4809      0.14439186
       2713.0251      0.18211087
       2713.5694      0.15631620
       2714.1137      0.14503406
       2714.6580      0.16071219
       2715.2022      0.14517638
       2715.7465      0.16975151
       2716.2908      0.14327568
       2716.8351      0.12363186
       2717.3793      0.14948893
       2717.9236      0.20646641
       2718.4679     0.063070989
       2719.0122      0.13494831
       2719.5564      0.11332197
       2720.1007      0.13836187
       2720.6450      0.15465030
       2721.1893      0.12405011
       2721.7335      0.21391374
       2722.2778      0.16251997
       2722.8221      0.11337701
       2723.3664      0.15796190
       2723.9106     0.070596140
       2724.4549     0.090853913
       2724.9992      0.15241572
       2725.5435      0.13619977
       2726.0877      0.14051209
       2726.6320      0.14835844
       2727.1763      0.19511238
       2727.7206      0.13392759
       2728.2648      0.23518361
       2728.8091      0.16701051
       2729.3534      0.18157329
       2729.8977     0.070406132
       2730.4419     0.098102944
       2730.9862      0.13088027
       2731.5305      0.14908336
       2732.0748      0.12086061
       2732.6190      0.13782977
       2733.1633      0.12965789
       2733.7076      0.12517090
       2734.2519      0.10602388
       2734.7961      0.10416778
       2735.3404     0.085074969
       2735.8847     0.084957548
       2736.4290      0.13623304
       2736.9732      0.14367874
       2737.5175      0.20456817
       2738.0618     0.085255198
       2738.6061      0.11887023
       2739.1503      0.15575118
       2739.6946     0.057104929
       2740.2389      0.18550376
       2740.7832      0.18593005
       2741.3274     0.081011246
       2741.8717      0.11908838
       2742.4160      0.12114284
       2742.9603      0.17864539
       2743.5045      0.12276546
       2744.0488      0.11010471
       2744.5931      0.16440191
       2745.1374     0.087725601
       2745.6816      0.21235755
       2746.2259      0.11673539
       2746.7702     0.092504777
       2747.3144      0.14201109
       2747.8587      0.15711076
       2748.4030      0.17068208
       2748.9473      0.14173309
       2749.4915      0.13626189
       2750.0358      0.10359566
       2750.5801      0.24023848
       2751.1244      0.13309764
       2751.6686      0.15549197
       2752.2129      0.17368426
       2752.7572      0.13585683
       2753.3015      0.13425073
       2753.8457      0.14792396
       2754.3900      0.12954693
       2754.9343      0.14683949
       2755.4786      0.15664203
       2756.0228      0.17069770
       2756.5671      0.11097521
       2757.1114      0.14576078
       2757.6557      0.24208000
       2758.1999      0.13154148
       2758.7442      0.18012950
       2759.2885      0.14006158
       2759.8328      0.14865514
       2760.3770      0.14948077
       2760.9213      0.16221092
       2761.4656      0.15749579
       2762.0099      0.12318984
       2762.5541      0.11396404
       2763.0984      0.13483050
       2763.6427     0.099216769
       2764.1870      0.10260788
       2764.7312     0.056836808
       2765.2755      0.14107469
       2765.8198      0.19404408
       2766.3641      0.18068450
       2766.9083      0.11050982
       2767.4526      0.14593407
       2767.9969      0.12134120
       2768.5412      0.15269530
       2769.0854      0.13002523
       2769.6297      0.11897333
       2770.1740      0.17642718
       2770.7183      0.10789116
       2771.2625      0.11969790
       2771.8068     0.098518837
       2772.3511      0.14586690
       2772.8954      0.10215966
       2773.4396      0.15364161
       2773.9839      0.11309948
       2774.5282      0.12212184
       2775.0725      0.15803823
       2775.6167      0.11484531
       2776.1610      0.11436332
       2776.7053     0.069061224
       2777.2496     0.068991075
       2777.7938     0.085374548
       2778.3381     0.055767352
       2778.8824      0.11685200
       2779.4267      0.11152733
       2779.9709     0.074745453
       2780.5152     0.064941921
       2781.0595     0.079824924
       2781.6038     0.091763398
       2782.1480     0.079486474
       2782.6923     0.070350276
       2783.2366     0.034274981
       2783.7809     0.049747281
       2784.3251     0.051887221
       2784.8694      0.10027836
       2785.4137      0.14637668
       2785.9580      0.13001877
       2786.5022    -0.024657616
       2787.0465     0.091894499
       2787.5908    -0.011841253
       2788.1351     0.085533086
       2788.6793     0.020403539
       2789.2236     0.010564105
       2789.7679    -0.046485678
       2790.3122     -0.15757236
       2790.8564    0.0011471107
       2791.4007     -0.10789739
       2791.9450     -0.20163361
       2792.4893      0.49024147
       2793.0335     -0.16766395
       2793.5778     -0.28656227
       2794.1221     -0.21327330
       2794.6664      0.13918070
       2795.2106      0.17473043
       2795.7549      0.16710519
       2796.2992      0.16310846
       2796.8435      0.18104641
       2797.3877      0.10349207
       2797.9320      0.14772237
       2798.4763      0.22334260
       2799.0206      0.18500641
       2799.5648      0.22321270
       2800.1091      0.11306060
       2800.6534      0.14350385
       2801.1977      0.12677584
       2801.7419      0.18894137
       2802.2862      0.13314843
       2802.8305      0.16821854
       2803.3748     0.094947127
       2803.9190      0.11897385
       2804.4633      0.15742365
       2805.0076     0.057555675
       2805.5519      0.13258190
       2806.0961      0.10006382
       2806.6404     0.099086506
       2807.1847      0.14709179
       2807.7290     0.096517817
       2808.2732     0.061270103
       2808.8175      0.11736072
       2809.3618     0.080046400
       2809.9061     0.068137258
       2810.4503      0.16190127
       2810.9946      0.12230493
       3009.0421      0.37091424
       3009.6426      0.37611204
       3010.2431      0.40442930
       3010.8435      0.13467507
       3011.4440      0.13032330
       3012.0444      0.22927360
       3012.6449      0.52417003
       3013.2454      0.40870504
       3013.8458      0.40090878
       3014.4463      0.57306020
       3015.0467      0.52184130
       3015.6472      0.44344646
       3016.2476      0.40464367
       3016.8481      0.39501487
       3017.4486      0.43296935
       3018.0490      0.40781774
       3018.6495      0.53587666
       3019.2499      0.40928970
       3019.8504      0.36194542
       3020.4509      0.45662643
       3021.0513      0.52754338
       3021.6518      0.55007055
       3022.2522      0.44295720
       3022.8527      0.28376363
       3023.4532      0.14937312
       3024.0536      0.27298462
       3024.6541      0.67019395
       3025.2545      0.34952405
       3025.8550      0.50040476
       3026.4555      0.55713725
       3027.0559      0.33738296
       3027.6564      0.38366975
       3028.2568      0.48754909
       3028.8573      0.44763312
       3029.4578      0.44135882
       3030.0582      0.24814294
       3030.6587      0.45572404
       3031.2591      0.36738362
       3031.8596      0.38224194
       3032.4600      0.48188314
       3033.0605      0.41028468
       3033.6610      0.51457903
       3034.2614      0.58762254
       3034.8619      0.48502885
       3035.4623      0.55379712
       3036.0628      0.42527051
       3036.6633      0.50723229
       3037.2637      0.22239657
       3037.8642      0.46904646
       3038.4646      0.43680460
       3039.0651      0.43273734
       3039.6656      0.27298548
       3040.2660      0.45047266
       3040.8665      0.46625213
       3041.4669      0.56488857
       3042.0674      0.29942891
       3042.6679      0.60267856
       3043.2683      0.51321363
       3043.8688      0.11002953
       3044.4692      0.51866117
       3045.0697      0.48349514
       3045.6702      0.42414104
       3046.2706      0.43242433
       3046.8711      0.52630727
       3047.4715      0.54844660
       3048.0720      0.54751476
       3048.6725      0.50263997
       3049.2729      0.42455934
       3049.8734      0.41334121
       3050.4738      0.55235109
       3051.0743      0.35814207
       3051.6747      0.48442738
       3052.2752      0.29479455
       3052.8757      0.44794804
       3053.4761      0.31904474
       3054.0766      0.36186111
       3054.6770      0.40543946
       3055.2775      0.40949340
       3055.8780      0.41443530
       3056.4784      0.62964601
       3057.0789      0.64971713
       3057.6793      0.48807307
       3058.2798      0.52054062
       3058.8803      0.49411740
       3059.4807      0.36490211
       3060.0812      0.52769724
       3060.6816      0.49882378
       3061.2821      0.50387653
       3061.8826      0.51720318
       3062.4830      0.36140686
       3063.0835      0.69370031
       3063.6839      0.23474782
       3064.2844      0.18141421
       3064.8849      0.32401840
       3065.4853      0.46502098
       3066.0858      0.47961482
       3066.6862      0.51174136
       3067.2867      0.37431074
       3067.8871      0.46540231
       3068.4876      0.29251305
       3069.0881      0.36627586
       3069.6885      0.41073012
       3070.2890      0.55099120
       3070.8894      0.59651972
       3071.4899      0.40979737
       3072.0904      0.36951091
       3072.6908      0.35447287
       3073.2913      0.36676675
       3073.8917      0.45436734
       3074.4922      0.31941070
       3075.0927      0.39276810
       3075.6931      0.32190349
       3076.2936      0.48703420
       3076.8940      0.40838961
       3077.4945      0.48696312
       3078.0950      0.24551097
       3078.6954      0.49075839
       3079.2959      0.48432586
       3079.8963      0.44068598
       3080.4968      0.57496169
       3081.0973      0.42091888
       3081.6977      0.43407564
       3082.2982      0.54363818
       3082.8986      0.39501197
       3083.4991      0.44478005
       3084.0995      0.33548027
       3084.7000      0.16868480
       3085.3005      0.48001862
       3085.9009      0.42724494
       3086.5014      0.36385185
       3087.1018      0.42247497
       3087.7023      0.61488154
       3088.3028      0.53579914
       3088.9032      0.48153289
       3089.5037      0.43397961
       3090.1041      0.70105838
       3090.7046      0.54089121
       3091.3051      0.60662171
       3091.9055      0.37502952
       3092.5060      0.51159302
       3093.1064      0.61212484
       3093.7069      0.51143504
       3094.3074      0.50407757
       3094.9078      0.44455569
       3095.5083      0.44158142
       3096.1087      0.66823029
       3096.7092      0.50034429
       3097.3097      0.44100325
       3097.9101      0.36312941
       3098.5106      0.49308109
       3099.1110      0.30175742
       3099.7115      0.58130595
       3100.3119      0.56550053
       3100.9124      0.66463332
       3101.5129      0.53700642
       3102.1133      0.58919536
       3102.7138      0.46012054
       3103.3142      0.54367526
       3103.9147      0.47028101
       3104.5152      0.42318321
       3105.1156      0.43628206
       3105.7161      0.47946004
       3106.3165      0.51191605
       3106.9170      0.53927095
       3107.5175      0.45593988
       3108.1179      0.38448381
       3108.7184      0.46199230
       3109.3188      0.49080319
       3109.9193      0.49983038
       3110.5198      0.47590200
       3111.1202      0.55103045
       3111.7207      0.28655410
       3112.3211      0.60492104
       3112.9216      0.65325115
       3113.5221      0.47215972
       3114.1225      0.26221232
       3114.7230      0.27973860
       3115.3234      0.44290791
       3115.9239      0.43396261
       3116.5243      0.35820277
       3117.1248      0.43441031
       3117.7253      0.57944770
       3118.3257      0.39480433
       3118.9262      0.43075118
       3119.5266      0.26572449
       3120.1271      0.47630734
       3120.7276      0.45177572
       3121.3280      0.52144428
       3121.9285      0.39740679
       3122.5289      0.45646580
       3123.1294      0.58331441
       3123.7299      0.60255139
       3124.3303      0.54300528
       3124.9308      0.64255848
       3125.5312      0.65796522
       3126.1317      0.60619566
       3126.7322      0.55189986
       3127.3326      0.72986788
       3127.9331      0.52024300
       3128.5335      0.47430582
       3129.1340      0.60032783
       3129.7345      0.58440968
       3130.3349      0.56610772
       3130.9354      0.57150329
       3131.5358      0.53089181
       3132.1363      0.56137111
       3132.7367      0.53655812
       3133.3372      0.59902255
       3133.9377      0.61693458
       3134.5381      0.26567403
       3135.1386      0.44042055
       3135.7390      0.56687991
       3136.3395      0.59607356
       3136.9400      0.65227359
       3137.5404      0.41779019
       3138.1409      0.63835685
       3138.7413      0.59948943
       3139.3418      0.52154605
       3139.9423      0.44449827
       3140.5427      0.70669600
       3141.1432      0.50821581
       3141.7436      0.67797692
       3142.3441      0.33626859
       3142.9446      0.62460268
       3143.5450      0.59293697
       3144.1455      0.47589197
       3144.7459      0.19181397
       3145.3464      0.50750819
       3145.9469      0.49204821
       3146.5473      0.48853336
       3147.1478      0.44314161
       3147.7482      0.50830234
       3148.3487      0.59172581
       3148.9491      0.46286407
       3149.5496      0.50513453
       3150.1501      0.61853943
       3150.7505      0.43019198
       3151.3510      0.31611692
       3151.9514      0.44511623
       3152.5519      0.61270899
       3153.1524      0.80062020
       3153.7528       1.5161693
       3154.3533       1.4030339
       3154.9537       1.1646023
       3155.5542      0.18302000
       3156.1547     -0.57753749
       3156.7551     -0.34852238
       3157.3556      0.37484259
       3157.9560      0.46040069
       3158.5565      0.28113332
       3159.1570      0.43105767
       3159.7574      0.54293143
       3160.3579      0.82190147
       3160.9583      0.68839720
       3161.5588      0.66038219
       3162.1593      0.54207833
       3162.7597      0.61646167
       3163.3602      0.51132547
       3163.9606      0.41625680
       3164.5611      0.30303952
       3165.1615      0.39482179
       3165.7620      0.50468389
       3166.3625      0.54292262
       3166.9629      0.56677337
       3167.5634      0.56402145
       3168.1638      0.56907262
       3168.7643      0.73414684
       3169.3648      0.40718354
       3169.9652      0.49509208
       3170.5657      0.59861874
       3171.1661      0.50609904
       3171.7666      0.66912428
       3172.3671      0.51554314
       3172.9675      0.49309691
       3173.5680      0.42673665
       3174.1684      0.59584547
       3174.7689      0.46007035
       3175.3694      0.55586351
       3175.9698      0.58504558
       3176.5703      0.47215408
       3177.1707      0.66086102
       3177.7712      0.69186032
       3178.3717      0.48988063
       3178.9721      0.59865279
       3179.5726      0.40056873
       3180.1730      0.37143357
       3180.7735      0.39401058
       3181.3739      0.42949522
       3181.9744      0.52075504
       3182.5749      0.71616698
       3183.1753      0.67210125
       3183.7758      0.54656113
       3184.3762      0.38298698
       3184.9767      0.25602124
       3185.5772      0.44692141
       3186.1776      0.25673388
       3186.7781      0.42191155
       3187.3785      0.33844691
       3187.9790      0.94207857
       3188.5795      0.73500129
       3189.1799     0.034613568
       3189.7804      0.46813082
       3190.3808      0.24985574
       3190.9813      0.79133741
       3191.5818      0.47483353
       3192.1822      0.47318481
       3192.7827      0.66906625
       3193.3831      0.63556125
       3193.9836      0.45741672
       3194.5841      0.48022121
       3195.1845      0.56911571
       3195.7850      0.29085461
       3196.3854      0.47245743
       3196.9859      0.38920420
       3197.5863      0.51191671
       3198.1868      0.48293952
       3198.7873      0.47114097
       3199.3877      0.46829138
       3199.9882      0.43556595
       3200.5886      0.46870140
       3201.1891      0.38640039
       3201.7896      0.55583442
       3202.3900      0.54091160
       3202.9905      0.54169102
       3203.5909      0.40219277
       3204.1914      0.59421897
       3204.7919      0.51405104
       3205.3923      0.47337762
       3205.9928      0.48565454
       3206.5932      0.60225697
       3207.1937      0.47644536
       3207.7942      0.45609142
       3208.3946      0.53918566
       3208.9951      0.58737698
       3209.5955      0.36749613
       3210.1960      0.58935683
       3210.7965      0.59067015
       3211.3969      0.53646385
       3211.9974      0.61624262
       3212.5978      0.65629133
       3213.1983      0.41709828
       3213.7987      0.48674147
       3214.3992      0.42848900
       3214.9997      0.52606253
       3215.6001      0.52647952
       3216.2006      0.50426296
       3216.8010      0.56088822
       3217.4015      0.63651105
       3218.0020      0.52117191
       3218.6024      0.29595649
       3219.2029      0.51377840
       3219.8033      0.43736968
       3220.4038      0.51476744
       3221.0043      0.52712473
       3221.6047      0.52486933
       3222.2052      0.55218131
       3222.8056      0.53416778
       3223.4061      0.59489774
       3224.0066      0.41202084
       3224.6070      0.51886450
       3225.2075      0.33772156
       3225.8079      0.43122492
       3226.4084      0.58038218
       3227.0089      0.55827278
       3227.6093      0.55920038
       3228.2098      0.57497868
       3228.8102      0.49481439
       3229.4107      0.57763744
       3230.0111      0.42105428
       3230.6116      0.37434802
       3231.2121      0.49949064
       3231.8125      0.34920652
       3232.4130      0.45852295
       3233.0134      0.47002573
       3233.6139     0.099949413
       3234.2144      0.40767503
       3234.8148      0.40622059
       3235.4153      0.43454393
       3236.0157      0.31809155
       3236.6162      0.56807286
       3237.2167      0.60641885
       3237.8171      0.61758672
       3238.4176      0.47567096
       3239.0180      0.44412157
       3239.6185      0.44522700
       3240.2190      0.24088732
       3240.8194      0.30498439
       3241.4199      0.58444558
       3242.0203      0.46633229
       3242.6208      0.61522926
       3243.2213      0.51594151
       3243.8217      0.44080399
       3244.4222      0.64859688
       3245.0226      0.42340432
       3245.6231      0.25549966
       3246.2235      0.49652305
       3246.8240      0.62904456
       3247.4245      0.48591370
       3248.0249      0.77474541
       3248.6254      0.70176163
       3249.2258      0.73109998
       3249.8263      0.57358964
       3250.4268      0.65797063
       3251.0272      0.67145539
       3251.6277      0.50774003
       3252.2281      0.38434277
       3252.8286      0.57739207
       3253.4291      0.47933722
       3254.0295      0.46628658
       3254.6300      0.44022505
       3255.2304      0.39408028
       3255.8309      0.55325303
       3256.4314      0.41001617
       3257.0318      0.36545192
       3257.6323      0.43736751
       3258.2327      0.44783428
       3258.8332      0.48428614
       3259.4337      0.63161082
       3260.0341      0.72465523
       3260.6346      0.47610428
       3261.2350      0.48948208
       3261.8355      0.43992279
       3262.4359      0.57095387
       3263.0364      0.61723209
       3263.6369      0.42815932
       3264.2373      0.43950042
       3264.8378      0.41164946
       3265.4382      0.42767026
       3266.0387      0.47536770
       3266.6392      0.56444623
       3267.2396      0.56238585
       3267.8401      0.57439204
       3268.4405      0.51783533
       3269.0410      0.33524310
       3269.6415      0.36333901
       3270.2419      0.43660712
       3270.8424      0.58290886
       3271.4428      0.43961185
       3272.0433      0.33710145
       3272.6438      0.50457644
       3273.2442      0.41753191
       3273.8447      0.43513061
       3274.4451      0.55606381
       3275.0456      0.44329202
       3275.6461      0.42492596
       3276.2465      0.53223799
       3276.8470      0.58139856
       3277.4474      0.51211647
       3278.0479      0.50796635
       3278.6483      0.39486369
       3279.2488      0.51803708
       3279.8493      0.53076933
       3280.4497      0.56172704
       3281.0502      0.37910696
       3281.6506      0.40096389
       3282.2511      0.57495134
       3282.8516      0.66929093
       3283.4520      0.60732236
       3284.0525      0.54298183
       3284.6529      0.24689990
       3285.2534      0.61210621
       3285.8539      0.48254309
       3286.4543      0.44985216
       3287.0548      0.36933271
       3287.6552      0.64361684
       3288.2557      0.49297801
       3288.8562      0.55212774
       3289.4566      0.70253546
       3290.0571      0.42811856
       3290.6575      0.36235703
       3291.2580      0.47740468
       3291.8585      0.39232168
       3292.4589      0.45994193
       3293.0594      0.35319315
       3293.6598      0.33695587
       3294.2603      0.46357371
       3294.8607      0.35995054
       3295.4612      0.39862049
       3296.0617      0.63126589
       3296.6621      0.46142968
       3297.2626      0.44554344
       3297.8630      0.59585868
       3298.4635      0.57309586
       3299.0640      0.64137181
       3299.6644      0.59393375
       3300.2649      0.31314956
       3300.8653      0.73737094
       3301.4658      0.52826277
       3302.0663      0.47927206
       3302.6667      0.38365884
       3303.2672      0.30914755
       3303.8676      0.39415784
       3304.4681      0.39995611
       3305.0686      0.57407802
       3305.6690      0.39876835
       3306.2695      0.33782475
       3306.8699      0.69704293
       3307.4704      0.57100190
       3308.0709      0.50225224
       3308.6713      0.45239552
       3309.2718      0.66644693
       3309.8722      0.54475869
       3310.4727      0.68759297
       3311.0731      0.62105288
       3311.6736      0.50087010
       3312.2741      0.55048132
       3312.8745      0.49122824
       3313.4750      0.54365330
       3314.0754      0.53041262
       3314.6759      0.42068801
       3315.2764      0.33131834
       3315.8768      0.49488785
       3316.4773      0.49397001
       3317.0777      0.35573489
       3317.6782      0.39834637
       3318.2787      0.40414502
       3318.8791      0.52743952
       3319.4796      0.50333208
       3320.0800      0.52677580
       3320.6805      0.45492622
       3321.2810      0.45299878
       3321.8814      0.65361054
       3322.4819      0.41727722
       3323.0823      0.42446765
       3323.6828      0.40422690
       3324.2833      0.44325764
       3324.8837      0.56236526
       3325.4842      0.59633902
       3326.0846      0.32231332
       3326.6851      0.49565045
       3327.2855      0.53823576
       3327.8860      0.42459141
       3328.4865      0.59427136
       3329.0869      0.37355678
       3329.6874      0.74225367
       3330.2878      0.62001748
       3330.8883      0.56582253
       3331.4888      0.55895891
       3332.0892      0.48894836
       3332.6897      0.57080520
       3333.2901      0.44547073
       3333.8906      0.50996590
       3334.4911      0.53311974
       3335.0915      0.53936020
       3335.6920      0.43712313
       3336.2924      0.40207900
       3336.8929      0.49209183
       3337.4934      0.38511751
       3338.0938      0.50083609
       3338.6943      0.57811584
       3339.2947      0.36487410
       3339.8952      0.41464586
       3340.4957      0.34488780
       3341.0961      0.38272839
       3341.6966      0.59616340
       3342.2970      0.49328717
       3342.8975      0.47300341
       3343.4979      0.43739274
       3344.0984      0.41962627
       3344.6989      0.32743232
       3345.2993      0.35245371
       3345.8998      0.68345475
       3346.5002      0.51467744
       3347.1007      0.42654745
       3347.7012      0.37197860
       3348.3016      0.41997986
       3348.9021      0.54461349
       3349.5025      0.55440237
       3350.1030      0.41777591
       3350.7035      0.50973472
       3351.3039      0.53853368
       3351.9044      0.29536305
       3352.5048      0.36545975
       3353.1053      0.34174792
       3353.7058      0.45551591
       3354.3062      0.34977845
       3354.9067      0.38241059
       3355.5071      0.36650438
       3356.1076      0.43959994
       3356.7081      0.47300207
       3357.3085      0.37993409
       3357.9090      0.43756571
       3358.5094      0.58843353
       3359.1099      0.55017426
       3359.7103      0.43563229
       3360.3108      0.62603373
       3360.9113      0.33661447
       3361.5117      0.52280739
       3362.1122      0.65064478
       3362.7126      0.21619741
       3363.3131      0.61463620
       3363.9136      0.53268244
       3364.5140      0.84632057
       3365.1145      0.51510482
       3365.7149      0.61073382
       3366.3154      0.42635167
       3366.9159      0.49597561
       3367.5163      0.45668596
       3368.1168      0.48550499
       3368.7172      0.48837242
       3369.3177      0.43177436
       3369.9182      0.59931676
       3370.5186      0.40764505
       3371.1191      0.36824368
       3371.7195      0.54066567
       3372.3200      0.46267698
       3372.9205      0.43935890
       3373.5209      0.52135153
       3374.1214      0.57915850
       3374.7218      0.46751365
       3375.3223      0.45207889
       3375.9227      0.53345088
       3376.5232      0.48551353
       3377.1237      0.49376807
       3377.7241      0.54301226
       3378.3246      0.44031542
       3378.9250      0.54432828
       3379.5255      0.52153414
       3380.1260      0.62312383
       3380.7264      0.53695517
       3381.3269      0.45779054
       3381.9273      0.48472436
       3382.5278      0.49139475
       3383.1283      0.59522078
       3383.7287      0.41584691
       3384.3292      0.46510794
       3384.9296      0.51732176
       3385.5301      0.62412946
       3386.1306      0.34532206
       3386.7310      0.55621388
       3387.3315      0.44230234
       3387.9319      0.57670320
       3388.5324      0.54841032
       3389.1329      0.56758905
       3389.7333      0.50918980
       3390.3338      0.54883394
       3390.9342      0.59914753
       3391.5347      0.45443469
       3392.1351      0.43489766
       3392.7356      0.58051481
       3393.3361      0.44935080
       3393.9365      0.52956236
       3394.5370      0.32957389
       3395.1374      0.50749936
       3395.7379      0.41602898
       3396.3384      0.39872329
       3396.9388      0.27710957
       3397.5393      0.35034467
       3398.1397      0.42620994
       3398.7402      0.41792608
       3399.3407      0.64633480
       3399.9411      0.58848717
       3400.5416      0.62626245
       3401.1420      0.60216822
       3401.7425      0.57588634
       3402.3430      0.53988974
       3402.9434      0.55387387
       3403.5439      0.56093333
       3404.1443      0.45094235
       3404.7448      0.45706389
       3405.3453      0.39203264
       3405.9457      0.42388175
       3406.5462      0.46857504
       3407.1466      0.43537168
       3407.7471      0.60127103
       3408.3475      0.44635972
       3408.9480      0.32633941
       3409.5485      0.50640452
       3410.1489      0.65881846
       3410.7494      0.54001433
       3411.3498      0.52294474
       3411.9503      0.55952962
       3412.5508      0.49324039
       3413.1512      0.47895439
       3413.7517      0.43743449
       3414.3521      0.43419364
       3414.9526      0.46968307
       3415.5531      0.57893848
       3416.1535      0.54214595
       3416.7540      0.61559548
       3417.3544      0.41087083
       3417.9549      0.42699818
       3418.5554      0.47145931
       3419.1558      0.47184277
       3419.7563      0.50327641
       3420.3567      0.45643104
       3420.9572      0.52471217
       3421.5577      0.27053693
       3422.1581      0.49349851
       3422.7586      0.54850210
       3423.3590      0.53108186
       3423.9595      0.54782340
       3424.5600      0.45875165
       3425.1604      0.43350895
       3425.7609      0.61170474
       3426.3613      0.49316253
       3426.9618      0.62948159
       3427.5622      0.37423177
       3428.1627      0.47430136
       3428.7632      0.39380256
       3429.3636      0.27001818
       3429.9641      0.48864055
       3430.5645      0.59208295
       3431.1650      0.55409720
       3431.7655      0.49040559
       3432.3659      0.77274752
       3432.9664      0.66540373
       3433.5668      0.26310599
       3434.1673      0.51133735
       3434.7678      0.37326389
       3435.3682      0.34504067
       3435.9687      0.47492022
       3436.5691      0.49474367
       3437.1696      0.67473664
       3437.7701      0.44039205
       3438.3705      0.40971819
       3438.9710      0.55031043
       3439.5714      0.51160278
       3440.1719      0.52866865
       3440.7724      0.43332666
       3441.3728      0.52383945
       3441.9733      0.51994034
       3442.5737      0.49317798
       3443.1742      0.43161808
       3443.7746      0.62623275
       3444.3751      0.28250109
       3444.9756      0.47561231
       3445.5760      0.59045977
       3446.1765      0.51084419
       3446.7769      0.56582927
       3447.3774      0.48299455
       3447.9779      0.29884069
       3448.5783      0.28020904
       3449.1788      0.27369883
       3449.7792      0.36547305
       3450.3797      0.46821620
       3450.9802      0.37135815
       3451.5806      0.34842949
       3452.1811      0.49856230
       3452.7815      0.41083130
       3453.3820      0.44680825
       3453.9825      0.55157733
       3454.5829      0.40649998
       3455.1834      0.48582924
       3455.7838      0.45870845
       3456.3843      0.35131133
       3456.9848      0.37334413
       3457.5852      0.39230800
       3458.1857      0.52141896
       3458.7861      0.47814622
       3459.3866      0.63832282
       3459.9870      0.47767497
       3460.5875      0.40815611
       3461.1880      0.54965587
       3461.7884      0.28219687
       3462.3889      0.49552263
       3462.9893      0.41235701
       3463.5898      0.43019748
       3464.1903      0.44409290
       3464.7907      0.23711292
       3465.3912      0.52936722
       3465.9916      0.65647279
       3466.5921      0.52885305
       3467.1926      0.53478096
       3467.7930      0.46102708
       3468.3935      0.47301995
       3468.9939      0.40484902
       3469.5944      0.52831261
       3470.1949      0.43555887
       3470.7953      0.47876041
       3471.3958      0.43128851
       3471.9962      0.42755622
       3472.5967      0.33612792
       3473.1972      0.55830059
       3473.7976      0.47756497
       3474.3981      0.43609001
       3474.9985      0.48464256
       3475.5990      0.64778924
       3476.1994      0.50670396
       3476.7999      0.41387108
       3477.4004      0.27241368
       3478.0008      0.43823056
       3478.6013      0.48341320
       3479.2017      0.46045859
       3479.8022      0.29137847
       3480.4027      0.50916629
       3481.0031      0.43970403
       3481.6036      0.49127928
       3482.2040      0.49032450
       3482.8045      0.47930349
       3483.4050      0.42520042
       3484.0054      0.53544058
       3484.6059      0.52818746
       3485.2063      0.46182754
       3485.8068      0.47594230
       3486.4073      0.50094607
       3487.0077      0.49877769
       3487.6082      0.41736486
       3488.2086      0.46035498
       3488.8091      0.41021577
       3489.4096      0.54782664
       3490.0100      0.63056049
       3490.6105      0.33601126
       3491.2109      0.47698826
       3491.8114      0.17121468
       3492.4118      0.51280678
       3493.0123      0.55670772
       3493.6128      0.44132259
       3494.2132      0.39653525
       3494.8137      0.53764742
       3495.4141      0.78908899
       3496.0146      0.58590679
       3496.6151      0.59017332
       3497.2155      0.44668237
       3497.8160      0.55275605
       3498.4164      0.49407762
       3499.0169      0.43088984
       3499.6174      0.57486283
       3500.2178      0.46763222
       3500.8183      0.46087134
       3501.4187      0.33503973
       3502.0192      0.62229546
       3502.6197      0.47757342
       3503.2201      0.42411222
       3503.8206      0.65374832
       3504.4210      0.52226649
       3505.0215      0.50900738
       3505.6220      0.42411773
       3506.2224      0.59137186
       3506.8229      0.53142867
       3507.4233      0.50088826
       3508.0238      0.60966410
       3508.6242      0.47505297
       3509.2247      0.38364057
       3509.8252      0.55574199
       3510.4256      0.40289876
       3511.0261      0.56009288
       3511.6265      0.44250488
       3512.2270      0.58689741
       3512.8275      0.51339386
       3513.4279      0.62674446
       3514.0284      0.48952414
       3514.6288      0.54913049
       3515.2293      0.46374214
       3515.8298      0.45192567
       3516.4302      0.41594016
       3517.0307      0.55210804
       3517.6311      0.59475199
       3518.2316      0.46338418
       3518.8321      0.54759265
       3519.4325      0.38295215
       3520.0330      0.46820417
       3520.6334      0.55429165
       3521.2339      0.58140230
       3521.8344      0.69929073
       3522.4348      0.59331698
       3523.0353      0.45608711
       3523.6357      0.54716841
       3524.2362      0.57258463
       3524.8366      0.58503582
       3525.4371      0.50676495
       3526.0376      0.45863395
       3526.6380      0.58551393
       3527.2385      0.37157401
       3527.8389      0.61224988
       3528.4394      0.56765722
       3529.0399      0.50541237
       3529.6403      0.45139400
       3530.2408      0.70618279
       3530.8412      0.50183760
       3531.4417      0.62794685
       3532.0422      0.51898281
       3532.6426      0.52406583
       3533.2431      0.60956018
       3533.8435      0.44439006
       3534.4440      0.53987991
       3535.0445      0.57314070
       3535.6449      0.59804882
       3536.2454      0.57165278
       3536.8458      0.42657202
       3537.4463      0.48693022
       3538.0468      0.56885378
       3538.6472      0.62141555
       3539.2477      0.47481436
       3539.8481      0.66045602
       3540.4486      0.57953964
       3541.0490      0.40406109
       3541.6495      0.50895858
       3542.2500      0.38020810
       3542.8504      0.52348858
       3543.4509      0.67691354
       3544.0513      0.46424227
       3544.6518      0.58786717
       3545.2523      0.66742706
       3545.8527      0.63276078
       3546.4532      0.40529421
       3547.0536      0.54053457
       3547.6541      0.50353296
       3548.2546      0.51561229
       3548.8550      0.60344264
       3549.4555      0.53457411
       3550.0559      0.42256087
       3550.6564      0.47758906
       3551.2569      0.45723867
       3551.8573      0.63133374
       3552.4578      0.55858371
       3553.0582      0.36029634
       3553.6587      0.48120116
       3554.2592      0.63473478
       3554.8596      0.48000198
       3555.4601      0.39647921
       3556.0605      0.61390035
       3556.6610      0.60571086
       3557.2614      0.62056070
       3557.8619      0.63887815
       3558.4624      0.48894050
       3559.0628      0.65621126
       3559.6633      0.64800203
       3560.2637      0.74545224
       3560.8642      0.62369455
       3561.4647      0.54830101
       3562.0651      0.60963847
       3562.6656      0.40960723
       3563.2660      0.50506674
       3563.8665      0.47563467
       3564.4670      0.58171397
       3565.0674      0.60755011
       3565.6679      0.46558531
       3566.2683      0.52322644
       3566.8688      0.53193366
       3567.4693      0.66402565
       3568.0697      0.47515799
       3568.6702      0.48551467
       3569.2706      0.55656371
       3569.8711      0.55627275
       3570.4716      0.54729887
       3571.0720      0.53983373
       3571.6725      0.48295764
       3572.2729      0.51516214
       3572.8734      0.44850221
       3573.4738      0.58730495
       3574.0743      0.45511939
       3574.6748      0.43418440
       3575.2752      0.44437141
       3575.8757      0.49293903
       3576.4761      0.51065927
       3577.0766      0.50768213
       3577.6771      0.38185643
       3578.2775      0.39428656
       3578.8780      0.56592143
       3579.4784      0.47517763
       3580.0789      0.36334124
       3580.6794      0.46046270
       3581.2798      0.65152253
       3581.8803      0.36482021
       3582.4807      0.56437702
       3583.0812      0.60544370
       3583.6817      0.50926867
       3584.2821      0.48780674
       3584.8826      0.57618954
       3585.4830      0.44685625
       3586.0835      0.50121748
       3586.6840      0.50829396
       3587.2844      0.58596799
       3587.8849      0.39241994
       3588.4853      0.41611930
       3589.0858      0.44708184
       3589.6862      0.66369618
       3590.2867      0.49491188
       3590.8872      0.55039054
       3591.4876      0.51099752
       3592.0881      0.43927744
       3592.6885      0.49924894
       3593.2890      0.36643271
       3593.8895      0.41580813
       3594.4899      0.67459354
       3595.0904      0.59454763
       3595.6908      0.47628614
       3596.2913      0.56747449
       3596.8918      0.62531136
       3597.4922      0.49505558
       3598.0927      0.48577975
       3598.6931      0.54395903
       3599.2936      0.62795428
       3599.8941      0.51959142
       3600.4945      0.65551011
       3601.0950      0.56744039
       3601.6954      0.47929945
       3602.2959      0.62660631
       3602.8964      0.53056167
       3603.4968      0.50611624
       3604.0973      0.44740658
       3604.6977      0.53889055
       3605.2982      0.39740884
       3605.8986      0.52580543
       3606.4991      0.46642582
       3607.0996      0.38842040
       3607.7000      0.53774933
       3608.3005      0.46200392
       3608.9009      0.50876777
       3609.5014      0.58700877
       3610.1019      0.58230853
       3610.7023      0.40227917
       3611.3028      0.44260085
       3611.9032      0.40893899
       3612.5037      0.53652711
       3613.1042      0.40741717
       3613.7046      0.50969959
       3614.3051      0.44566358
       3614.9055      0.53440029
       3615.5060      0.45115513
       3616.1065      0.47009098
       3616.7069      0.50733775
       3617.3074      0.40850451
       3617.9078      0.53455255
       3618.5083      0.49342008
       3619.1088      0.50001136
       3619.7092      0.52909780
       3620.3097      0.54816537
       3620.9101      0.56414532
       3621.5106      0.54729012
       3622.1110      0.48912293
       3622.7115      0.45327745
       3623.3120      0.57468219
       3623.9124      0.61441474
       3624.5129      0.54437630
       3625.1133      0.57167062
       3625.7138      0.46199845
       3626.3143      0.54132080
       3626.9147      0.59077810
       3627.5152      0.46739148
       3628.1156      0.52066406
       3628.7161      0.60093938
       3629.3166      0.54684169
       3629.9170      0.54853025
       3630.5175      0.49447003
       3631.1179      0.44734963
       3631.7184      0.49979271
       3632.3189      0.44029392
       3632.9193      0.36265249
       3633.5198      0.39238597
       3634.1202      0.40261700
       3634.7207      0.44380704
       3635.3212      0.59091342
       3635.9216      0.44221714
       3636.5221      0.50074413
       3637.1225      0.51209705
       3637.7230      0.67828371
       3638.3234      0.35160203
       3638.9239      0.71631063
       3639.5244      0.73247063
       3640.1248      0.57976725
       3640.7253      0.40742724
       3641.3257      0.28272235
       3641.9262      0.38461687
       3642.5267      0.78246459
       3643.1271      0.50540014
       3643.7276      0.45841367
       3644.3280      0.48966019
       3644.9285      0.56130339
       3645.5290      0.37837015
       3646.1294      0.63986528
       3646.7299      0.53698120
       3647.3303      0.38963388
       3647.9308      0.64657214
       3648.5313      0.71376801
       3649.1317      0.59512613
       3649.7322      0.50047435
       3650.3326      0.57414606
       3650.9331      0.52248977
       3651.5336      0.60041801
       3652.1340      0.50703190
       3652.7345      0.52839014
       3653.3349      0.45904435
       3653.9354      0.54700061
       3654.5358      0.71459365
       3655.1363      0.67440865
       3655.7368      0.47095880
       3656.3372      0.58207056
       3656.9377      0.72325514
       3657.5381      0.66255225
       3658.1386      0.35749028
       3658.7391      0.62320771
       3659.3395      0.37031027
       3659.9400      0.16075649
       3660.5404      0.41390327
       3661.1409      0.61295272
       3661.7414      0.59907329
       3662.3418      0.40686981
       3662.9423      0.33127996
       3663.5427      0.41604887
       3664.1432      0.45716028
       3664.7437      0.61030883
       3665.3441      0.56452091
       3665.9446      0.46475638
       3666.5450      0.66576851
       3667.1455      0.53952701
       3667.7460      0.57182800
       3668.3464      0.51103024
       3668.9469      0.41165695
       3669.5473      0.51261190
       3670.1478      0.45118435
       3670.7482      0.31730404
       3671.3487      0.34167183
       3671.9492      0.47320590
       3672.5496      0.52142170
       3673.1501      0.62768501
       3673.7505      0.52454744
       3674.3510      0.46509003
       3674.9515      0.47013701
       3675.5519      0.66974690
       3676.1524      0.66298583
       3676.7528      0.45947985
       3677.3533      0.44477298
       3677.9538      0.28800418
       3678.5542      0.56935984
       3679.1547      0.57546138
       3679.7551      0.81649539
       3680.3556      0.96282551
       3680.9561      0.52620314
       3681.5565      0.56737386
       3682.1570      0.74605789
       3682.7574      0.44837921
       3683.3579      0.40520237
       3683.9584      0.72625840
       3684.5588      0.44033258
       3685.1593      0.56088034
       3685.7597      0.41305434
       3686.3602      0.26839636
       3686.9606      0.27305295
       3687.5611      0.24256710
       3688.1616      0.58256179
       3688.7620      0.42721332
       3689.3625      0.63345191
       3689.9629      0.71630226
       3690.5634      0.19272594
       3691.1639      0.34267015
       3691.7643      0.31291385
       3692.3648      0.38039623
       3692.9652      0.73489435
       3693.5657      0.68846221
       3694.1662      0.70909964
       3694.7666      0.59314119
       3695.3671      0.48707060
       3695.9675      0.48045256
       3696.5680      0.65642812
       3697.1685      0.61726171
       3697.7689      0.60740349
       3698.3694      0.55969282
       3698.9698      0.57071406
       3699.5703      0.47962509
       3700.1708      0.76000906
       3700.7712      0.48030749
       3701.3717      0.71710618
       3701.9721      0.58439651
       3702.5726      0.53926454
       3703.1730      0.24186276
       3703.7735      0.40286132
       3704.3740      0.64403457
       3704.9744      0.78432672
       3705.5749      0.24538062
       3706.1753      0.44881998
       3706.7758      0.54690467
       3707.3763      0.42295476
       3707.9767      0.44276423
       3708.5772      0.64735641
       3709.1776      0.41204602
       3709.7781      0.59767598
       3710.3786      0.61858161
       3710.9790      0.58460621
       3711.5795      0.45953301
       3712.1799      0.59608584
       3712.7804      0.68626563
       3713.3809      0.52142737
       3713.9813      0.51257557
       3714.5818      0.49602899
       3715.1822      0.53709886
       3715.7827      0.55886224
       3716.3832      0.61774956
       3716.9836      0.49289313
       3717.5841      0.73062566
       3718.1845      0.66080625
       3718.7850      0.52569795
       3719.3854      0.86215070
       3719.9859      0.62184886
       3720.5864       1.0655509
       3721.1868      0.97513730
       3721.7873       1.5025051
       3722.3877       1.5460808
       3722.9882       1.8135893
       3723.5887       2.1441664
       3724.1891       2.0833693
       3724.7896       2.3305484
       3725.3900       2.4600228
       3725.9905       2.3269869
       3726.5910       2.3469657
       3727.1914       2.2772797
       3727.7919       2.5622965
       3728.3923       2.3434376
       3728.9928       2.2643983
       3729.5933       2.1479678
       3730.1937       1.9796515
       3730.7942       1.7576148
       3731.3946       1.7325413
       3731.9951       1.3502176
       3732.5956       1.2454766
       3733.1960      0.96954298
       3733.7965      0.85703690
       3734.3969      0.72358441
       3734.9974      0.72947017
       3735.5978      0.62095707
       3736.1983      0.63864443
       3736.7988      0.65092219
       3737.3992      0.54740912
       3737.9997      0.63248592
       3738.6001      0.60003792
       3739.2006      0.58555257
       3739.8011      0.77600935
       3740.4015      0.59002993
       3741.0020      0.64922699
       3741.6024      0.61759732
       3742.2029      0.48905093
       3742.8034      0.62845501
       3743.4038      0.58560777
       3744.0043      0.46604530
       3744.6047      0.47339944
       3745.2052      0.60400753
       3745.8057      0.67653037
       3746.4061      0.66662359
       3747.0066      0.63672769
       3747.6070      0.62259016
       3748.2075      0.48010128
       3748.8080      0.63823328
       3749.4084      0.48056909
       3750.0089      0.58019422
       3750.6093      0.67743062
       3751.2098      0.49920508
       3751.8102      0.66593409
       3752.4107      0.49211882
       3753.0112      0.54410938
       3753.6116      0.63051272
       3754.2121      0.77433750
       3754.8125      0.62248755
       3755.4130      0.73319644
       3756.0135      0.80991252
       3756.6139      0.79495838
       3757.2144      0.47569517
       3757.8148      0.77475365
       3758.4153      0.88046442
       3759.0158      0.45190781
       3759.6162      0.74003544
       3760.2167      0.77053840
       3760.8171      0.72773192
       3761.4176      0.68466018
       3762.0181      0.58807809
       3762.6185      0.66127732
       3763.2190      0.54325091
       3763.8194      0.54483636
       3764.4199      0.69886226
       3765.0204      0.49032153
       3765.6208      0.54214839
       3766.2213      0.61717501
       3766.8217      0.54225636
       3767.4222      0.77220202
       3768.0226      0.60264472
       3768.6231      0.62609273
       3769.2236      0.43986604
       3769.8240      0.61349614
       3770.4245      0.66510234
       3771.0249      0.55698475
       3771.6254      0.56458874
       3772.2259      0.64385084
       3772.8263      0.65780189
       3773.4268      0.70967610
       3774.0272      0.62564988
       3774.6277      0.76476260
       3775.2282      0.59209709
       3775.8286      0.55667396
       3776.4291      0.68556932
       3777.0295      0.71147955
       3777.6300      0.73827477
       3778.2305      0.56700199
       3778.8309      0.74564759
       3779.4314      0.78651160
       3780.0318      0.76570180
       3780.6323      0.83137357
       3781.2328      0.66550111
       3781.8332      0.83457578
       3782.4337      0.74479634
       3783.0341      0.75947274
       3783.6346      0.73045135
       3784.2350      0.78688097
       3784.8355      0.37759511
       3785.4360      0.64830216
       3786.0364      0.68369487
       3786.6369      0.69239057
       3787.2373      0.68863881
       3787.8378      0.74882622
       3788.4383      0.54227735
       3789.0387      0.71384420
       3789.6392      0.86201289
       3790.2396      0.73978773
       3790.8401      0.57060168
       3791.4406      0.59194248
       3792.0410      0.63781007
       3792.6415      0.50941415
       3793.2419      0.46730455
       3793.8424      0.55060438
       3794.4429      0.65946657
       3795.0433      0.57514412
       3795.6438      0.75149636
       3796.2442      0.49684364
       3796.8447      0.59645872
       3797.4452      0.45046422
       3798.0456      0.58412631
       3798.6461      0.60350901
       3799.2465      0.60539928
       3799.8470      0.71477334
       3800.4475      0.83570634
       3801.0479      0.62639049
       3801.6484      0.71669232
       3802.2488      0.83696808
       3802.8493      0.72670640
       3803.4497      0.65230365
       3804.0502      0.69392731
       3804.6507      0.82808971
       3805.2511      0.77071979
       3805.8516      0.81914211
       3806.4520      0.88185492
       3807.0525      0.75652541
       3807.6530      0.92561872
       3808.2534      0.78013462
       3808.8539      0.99811185
       3809.4543      0.81498111
       3810.0548      0.82325646
       3810.6553      0.77279712
       3811.2557      0.86139954
       3811.8562      0.74880175
       3812.4566      0.92940318
       3813.0571      0.75217500
       3813.6576      0.86607673
       3814.2580      0.78512675
       3814.8585      0.89240964
       3815.4589      0.88948251
       3816.0594      0.81093835
       3816.6599      0.80038360
       3817.2603      0.85207922
       3817.8608      0.99338778
       3818.4612      0.76840444
       3819.0617      0.76421852
       3819.6621      0.65320185
       3820.2626      0.54246441
       3820.8631      0.42632595
       3821.4635      0.17707088
       3822.0640      0.45130150
       3822.6644      0.40064985
       3823.2649      0.23998907
       3823.8654      0.34022533
       3824.4658             NaN
       3825.0663             NaN
       3825.6667             NaN
       3826.2672             NaN
       3826.8677             NaN
       3827.4681             NaN
       3828.0686             NaN
       3828.6690             NaN
       3829.2695             NaN
       3829.8700             NaN
       3830.4704             NaN
       3831.0709             NaN
       3831.6713             NaN
       3832.2718             NaN
       3832.8723             NaN
       3833.4727             NaN
       3834.0732             NaN
       3834.6736             NaN
       3835.2741             NaN
       3835.8745             NaN
       3836.4750             NaN
       3837.0755             NaN
       3837.6759             NaN
       3838.2764             NaN
       3838.8768             NaN
       3839.4773             NaN
       3840.0778             NaN
       3840.6782             NaN
       3841.2787             NaN
       3841.8791             NaN
       3842.4796             NaN
       3843.0801             NaN
       3843.6805             NaN
       3844.2810             NaN
       3844.8814             NaN
       3845.4819             NaN
       3846.0824             NaN
       3846.6828             NaN
       3847.2833             NaN
       3847.8837             NaN
       3848.4842             NaN
       3849.0847             NaN
       3849.6851             NaN
       3850.2856             NaN
       3850.8860             NaN
       3851.4865             NaN
       3852.0869             NaN
       3852.6874             NaN
       3853.2879             NaN
       3853.8883             NaN
       3854.4888             NaN
       3855.0892             NaN
       3855.6897             NaN
       3856.2902             NaN
       3856.8906             NaN
       3857.4911             NaN
       3858.0915             NaN
       3858.6920             NaN
       3859.2925             NaN
       3859.8929             NaN
       3860.4934             NaN
       3861.0938             NaN
       3861.6943             NaN
       3862.2948             NaN
       3862.8952             NaN
       3863.4957             NaN
       3864.0961             NaN
       3864.6966             NaN
       3865.2971             NaN
       3865.8975             NaN
       3866.4980             NaN
       3867.0984             NaN
       3867.6989             NaN
       3868.2993             NaN
       3868.8998             NaN
       3869.5003             NaN
       3870.1007             NaN
       3870.7012             NaN
       3871.3016             NaN
       3871.9021             NaN
       3872.5026             NaN
       3873.1030             NaN
       3873.7035             NaN
       3874.3039             NaN
       3874.9044             NaN
       3875.5049             NaN
       3876.1053             NaN
       3876.7058             NaN
       3877.3062             NaN
       3877.9067      0.92537236
       3878.5072      0.46295371
       3879.1076      0.45466817
       3879.7081      0.90358930
       3880.3085     0.025813946
       3880.9090      0.56121155
       3881.5095      0.25754770
       3882.1099      0.60009829
       3882.7104      0.46304011
       3883.3108      0.40439455
       3883.9113      0.52071787
       3884.5117      0.93840876
       3885.1122      0.98859245
       3885.7127      0.64651015
       3886.3131      0.62684135
       3886.9136      0.71692506
       3887.5140      0.84439889
       3888.1145      0.82803013
       3888.7150      0.67831060
       3889.3154      0.65311166
       3889.9159      0.53233898
       3890.5163      0.84559102
       3891.1168      0.73834842
       3891.7173      0.79178137
       3892.3177      0.91999950
       3892.9182      0.71849374
       3893.5186      0.75943500
       3894.1191      0.60437968
       3894.7196      0.76752172
       3895.3200      0.66425142
       3895.9205      0.65772508
       3896.5209      0.82219398
       3897.1214      0.63471738
       3897.7219      0.73903410
       3898.3223      0.80307698
       3898.9228       1.1355833
       3899.5232      0.99177541
       3900.1237      0.64147943
       3900.7241      0.92968522
       3901.3246      0.73085540
       3901.9251      0.93067903
       3902.5255      0.84394112
       3903.1260      0.61543530
       3903.7264       1.0994588
       3904.3269      0.66354584
       3904.9274      0.77728855
       3905.5278      0.75431268
       3906.1283      0.77398417
       3906.7287      0.86164383
       3907.3292      0.71852081
       3907.9297      0.85277550
       3908.5301      0.87948575
       3909.1306      0.84426958
       3909.7310       1.1361089
       3910.3315      0.79178797
       3910.9320       1.0183183
       3911.5324      0.99949399
       3912.1329      0.61715509
       3912.7333      0.73361149
       3913.3338      0.91697329
       3913.9343      0.89912556
       3914.5347      0.96271815
       3915.1352      0.97898972
       3915.7356      0.95943016
       3916.3361      0.86831278
       3916.9365      0.63666893
       3917.5370      0.92439892
       3918.1375      0.84744853
       3918.7379      0.69855818
       3919.3384      0.92950249
       3919.9388      0.77150244
       3920.5393       1.0900491
       3921.1398      0.76960485
       3921.7402      0.55496404
       3922.3407      0.58159603
       3922.9411      0.65057321
       3923.5416      0.76439729
       3924.1421      0.89489091
       3924.7425      0.85956738
       3925.3430       1.0760209
       3925.9434      0.81892703
       3926.5439      0.98635742
       3927.1444      0.54305306
       3927.7448      0.94141136
       3928.3453      0.67349986
       3928.9457      0.70710438
       3929.5462      0.76002619
       3930.1467      0.72625707
       3930.7471      0.72041631
       3931.3476      0.71949948
       3931.9480      0.55231458
       3932.5485      0.81840523
       3933.1489      0.63682186
       3933.7494      0.59417646
       3934.3499      0.68960687
       3934.9503      0.76934492
       3935.5508       1.0490873
       3936.1512      0.93300951
       3936.7517       1.0097883
       3937.3522      0.60375649
       3937.9526      0.63805584
       3938.5531      0.79600705
       3939.1535      0.80381628
       3939.7540      0.54155269
       3940.3545      0.72489721
       3940.9549      0.75873450
       3941.5554      0.84690573
       3942.1558      0.81069640
       3942.7563      0.80048912
       3943.3568      0.66692653
       3943.9572      0.78215539
       3944.5577      0.92437791
       3945.1581      0.77440874
       3945.7586      0.89157146
       3946.3591      0.91931756
       3946.9595      0.69133412
       3947.5600      0.74980475
       3948.1604      0.85283695
       3948.7609      0.91780457
       3949.3613      0.86565285
       3949.9618      0.87696555
       3950.5623       1.1348186
       3951.1627      0.76894274
       3951.7632      0.58193692
       3952.3636      0.49244723
       3952.9641      0.41793724
       3953.5646      0.60787554
       3954.1650      0.30230128
       3954.7655      0.44525420
       3955.3659      0.86370856
       3955.9664      0.57111719
       3956.5669      0.71309609
       3957.1673      0.66107466
       3957.7678      0.72359736
       3958.3682      0.87297035
       3958.9687      0.75851245
       3959.5692      0.65916128
       3960.1696      0.62721953
       3960.7701      0.93413184
       3961.3705      0.91351707
       3961.9710      0.75441515
       3962.5715       1.0447999
       3963.1719      0.81986332
       3963.7724      0.33414970
       3964.3728      0.59150308
       3964.9733      0.69591249
       3965.5737      0.55630077
       3966.1742      0.76466071
       3966.7747      0.70745666
       3967.3751      0.89201903
       3967.9756      0.50827846
       3968.5760      0.54738081
       3969.1765      0.48701416
       3969.7770      0.74627329
       3970.3774      0.99400435
       3970.9779      0.55608232
       3971.5783      0.31691830
       3972.1788      0.60302137
       3972.7793      0.83457479
       3973.3797      0.78848739
       3973.9802      0.66747148
       3974.5806      0.69820826
       3975.1811      0.74599222
       3975.7816      0.58222541
       3976.3820      0.85876040
       3976.9825      0.79444941
       3977.5829      0.78282455
       3978.1834      0.89723802
       3978.7839      0.72587734
       3979.3843      0.95947720
       3979.9848      0.55045798
       3980.5852      0.97542476
       3981.1857      0.87861112
       3981.7861      0.85579557
       3982.3866      0.85893226
       3982.9871      0.60258376
       3983.5875      0.88920576
       3984.1880      0.85663444
       3984.7884      0.63597724
       3985.3889      0.79798104
       3985.9894      0.42381880
       3986.5898      0.28171600
       3987.1903      0.53940612
       3987.7907      0.70976425
       3988.3912      0.43453303
       3988.9917      0.90258947
       3989.5921      0.50350057
       3990.1926      0.78457274
       3990.7930      0.52133784
       3991.3935      0.65483625
       3991.9940      0.64162261
       3992.5944      0.66797327
       3993.1949      0.66658935
       3993.7953      0.80913788
       3994.3958      0.76341069
       3994.9963      0.93615587
       3995.5967      0.85203480
       3996.1972      0.86318849
       3996.7976       1.0143099
       3997.3981      0.78530714
       3997.9985      0.99945063
       3998.5990      0.87185597
       3999.1995       1.2562608
       3999.7999       1.0250009
       4000.4004      0.85508869
       4001.0008      0.63627482
       4001.6013      0.69108264
       4002.2018      0.90296679
       4002.8022      0.69041440
       4003.4027      0.98296546
       4004.0031      0.81117593
       4004.6036      0.89342686
       4005.2041       1.1941746
       4005.8045      0.70733710
       4006.4050      0.87798548
       4007.0054      0.86531866
       4007.6059      0.60058158
       4008.2064       1.1184306
       4008.8068      0.88306122
       4009.4073      0.67120319
       4010.0077      0.85957616
       4010.6082       1.1177463
       4011.2087      0.85273965
       4011.8091      0.89894546
       4012.4096       1.0614339
       4013.0100      0.91985530
       4013.6105      0.96762407
       4014.2109      0.81787310
       4014.8114      0.70592313
       4015.4119      0.69626346
       4016.0123      0.79481412
       4016.6128      0.99158776
       4017.2132       1.0105150
       4017.8137       1.1265894
       4018.4142       1.1490983
       4019.0146      0.74452899
       4019.6151      0.98869482
       4020.2155       1.3093396
       4020.8160      0.89674487
       4021.4165       1.1429357
       4022.0169      0.79058529
       4022.6174       1.1374141
       4023.2178       1.1531831
       4023.8183       1.0929226
       4024.4188      0.64247873
       4025.0192      0.71530115
       4025.6197      0.98033746
       4026.2201      0.93127408
       4026.8206      0.86992713
       4027.4211      0.88628080
       4028.0215      0.92731453
       4028.6220      0.90501980
       4029.2224      0.85459822
       4029.8229      0.83651553
       4030.4233      0.88084368
       4031.0238       1.2438275
       4031.6243      0.82275756
       4032.2247      0.95405641
       4032.8252       1.0532096
       4033.4256       1.0373772
       4034.0261      0.83027579
       4034.6266      0.84105189
       4035.2270      0.62063516
       4035.8275      0.70397719
       4036.4279       1.0187410
       4037.0284       1.0178020
       4037.6289      0.89108987
       4038.2293      0.92918503
       4038.8298      0.62809599
       4039.4302      0.70468226
       4040.0307      0.60138409
       4040.6312      0.80562396
       4041.2316       1.0218334
       4041.8321      0.89198639
       4042.4325      0.80498043
       4043.0330      0.87436683
       4043.6335      0.88795785
       4044.2339      0.82915486
       4044.8344      0.92998162
       4045.4348      0.79621936
       4046.0353      0.83230786
       4046.6357       1.0587810
       4047.2362       1.0092830
       4047.8367       1.0331406
       4048.4371       1.0000025
       4049.0376      0.87845921
       4049.6380      0.99492371
       4050.2385      0.90759547
       4050.8390      0.76114539
       4051.4394      0.83655101
       4052.0399      0.90137815
       4052.6403      0.80501598
       4053.2408      0.90178461
       4053.8413      0.94677086
       4054.4417      0.78881166
       4055.0422      0.99535072
       4055.6426       1.0224273
       4056.2431       1.0716877
       4056.8436       1.0231910
       4057.4440      0.80374393
       4058.0445       1.0431874
       4058.6449      0.88423274
       4059.2454       1.0353553
       4059.8459      0.87427120
       4060.4463      0.84577697
       4061.0468      0.89530650
       4061.6472      0.97310462
       4062.2477      0.83974098
       4062.8481       1.0715480
       4063.4486      0.75744702
       4064.0491      0.90041025
       4064.6495       1.0452855
       4065.2500      0.99836143
       4065.8504       1.0618257
       4066.4509      0.93811870
       4067.0514      0.76497943
       4067.6518      0.82964388
       4068.2523      0.82587073
       4068.8527       1.0071585
       4069.4532      0.80381992
       4070.0537      0.75475975
       4070.6541      0.87651418
       4071.2546      0.99559426
       4071.8550      0.87290448
       4072.4555      0.84639213
       4073.0560      0.83468747
       4073.6564      0.87719143
       4074.2569      0.74086455
       4074.8573      0.91199328
       4075.4578      0.81454431
       4076.0583      0.94773664
       4076.6587       1.0411125
       4077.2592      0.82672843
       4077.8596      0.78417903
       4078.4601      0.89160755
       4079.0605      0.82487265
       4079.6610      0.76028881
       4080.2615      0.87453432
       4080.8619      0.88670378
       4081.4624      0.97210621
       4082.0628      0.91630654
       4082.6633      0.83443912
       4083.2638      0.84797170
       4083.8642      0.83903632
       4084.4647      0.83617134
       4085.0651      0.87694040
       4085.6656      0.77713434
       4086.2661      0.71870171
       4086.8665      0.88133816
       4087.4670      0.88451305
       4088.0674      0.84991735
       4088.6679      0.76657795
       4089.2684      0.77075826
       4089.8688      0.71242969
       4090.4693      0.74044715
       4091.0697      0.86091736
       4091.6702      0.81423877
       4092.2707      0.73806658
       4092.8711      0.79370641
       4093.4716      0.70551890
       4094.0720      0.76305313
       4094.6725      0.73949810
       4095.2729      0.71816560
       4095.8734      0.73695509
       4096.4739      0.74733251
       4097.0743      0.87678328
       4097.6748      0.85300157
       4098.2752      0.65816108
       4098.8757      0.80310922
       4099.4762      0.76456022
       4100.0766      0.76848417
       4100.6771      0.69846913
       4101.2775      0.70778675
       4101.8780      0.75018088
       4102.4785      0.69743009
       4103.0789      0.86982010
       4103.6794      0.90336240
       4104.2798      0.78273018
       4104.8803      0.78562530
       4105.4808      0.88652081
       4106.0812      0.85091600
       4106.6817      0.90975607
       4107.2821      0.87025674
       4107.8826      0.80943878
       4108.4831      0.84596088
       4109.0835      0.91135169
       4109.6840      0.68152830
       4110.2844      0.80733147
       4110.8849      0.83349225
       4111.4853      0.69176634
       4112.0858      0.82461645
       4112.6863      0.67679024
       4113.2867      0.69361490
       4113.8872      0.72995260
       4114.4876      0.83453921
       4115.0881      0.84359546
       4115.6886      0.82459604
       4116.2890      0.78218010
       4116.8895      0.73346842
       4117.4899      0.97929943
       4118.0904      0.77873353
       4118.6909      0.65107088
       4119.2913      0.71655867
       4119.8918      0.97194529
       4120.4922      0.77162706
       4121.0927      0.84945720
       4121.6932      0.78267120
       4122.2936      0.75845175
       4122.8941      0.78336558
       4123.4945      0.78220217
       4124.0950      0.84794705
       4124.6955      0.81833193
       4125.2959      0.78502463
       4125.8964      0.76049393
       4126.4968      0.82110633
       4127.0973      0.83884200
       4127.6977      0.96949063
       4128.2982       1.0958960
       4128.8987      0.77782116
       4129.4991      0.89563124
       4130.0996      0.89725214
       4130.7000      0.80542806
       4131.3005      0.77073268
       4131.9010      0.86081377
       4132.5014      0.77668351
       4133.1019      0.95631263
       4133.7023      0.91930219
       4134.3028      0.98162234
       4134.9033      0.84428218
       4135.5037      0.82413577
       4136.1042      0.83685488
       4136.7046      0.89923783
       4137.3051      0.84480810
       4137.9056      0.74698016
       4138.5060      0.73745509
       4139.1065      0.74705754
       4139.7069      0.89302321
       4140.3074      0.85011887
       4140.9079      0.80774982
       4141.5083      0.79581341
       4142.1088      0.90156748
       4142.7092      0.93392833
       4143.3097      0.91284681
       4143.9101      0.97232185
       4144.5106      0.80524708
       4145.1111      0.81682785
       4145.7115      0.76172843
       4146.3120      0.81260899
       4146.9124      0.85489849
       4147.5129      0.77301016
       4148.1134      0.83099228
       4148.7138      0.76595813
       4149.3143      0.95384048
       4149.9147       1.0101626
       4150.5152      0.87566582
       4151.1157      0.96129058
       4151.7161      0.94895840
       4152.3166      0.79920595
       4152.9170      0.74635296
       4153.5175      0.96430674
       4154.1180      0.96828770
       4154.7184      0.91627141
       4155.3189      0.86223346
       4155.9193      0.98463316
       4156.5198      0.96840970
       4157.1203      0.84004043
       4157.7207      0.80763416
       4158.3212      0.74467056
       4158.9216      0.73616778
       4159.5221      0.91546092
       4160.1225       1.0190267
       4160.7230      0.91506989
       4161.3235      0.80838725
       4161.9239      0.84374885
       4162.5244      0.71318355
       4163.1248      0.70148348
       4163.7253       1.1018632
       4164.3258      0.88764076
       4164.9262       1.0255361
       4165.5267      0.82043329
       4166.1271       1.0240378
       4166.7276       1.1320136
       4167.3281       1.1042541
       4167.9285       1.0729123
       4168.5290      0.85825320
       4169.1294      0.80417231
       4169.7299       1.0363609
       4170.3304       1.0204238
       4170.9308      0.80604932
       4171.5313      0.87185409
       4172.1317      0.53721657
       4172.7322      0.72202450
       4173.3327       1.0174683
       4173.9331      0.92925643
       4174.5336      0.86931899
       4175.1340      0.61242085
       4175.7345      0.78650753
       4176.3350      0.55706614
       4176.9354       1.0411505
       4177.5359      0.97073805
       4178.1363      0.92446906
       4178.7368      0.81157725
       4179.3372       1.0402528
       4179.9377      0.91888644
       4180.5382      0.90366571
       4181.1386      0.78667701
       4181.7391      0.76339139
       4182.3395      0.70534388
       4182.9400      0.80118407
       4183.5405      0.84827320
       4184.1409       1.0111292
       4184.7414      0.96909948
       4185.3418      0.85980766
       4185.9423      0.76195918
       4186.5428      0.96666625
       4187.1432      0.93730423
       4187.7437       1.0590280
       4188.3441      0.99916079
       4188.9446       1.0640274
       4189.5451      0.91330858
       4190.1455      0.94278938
       4190.7460      0.88421685
       4191.3464       1.1156340
       4191.9469       1.1273112
       4192.5474      0.82636226
       4193.1478      0.96763268
       4193.7483       1.0017873
       4194.3487      0.78582818
       4194.9492      0.84559330
       4195.5496      0.83808678
       4196.1501      0.85424821
       4196.7506      0.97481693
       4197.3510      0.89253969
       4197.9515       1.0921023
       4198.5519       1.2313055
       4199.1524      0.61810578
       4199.7529       1.3783113
       4200.3533      0.77340460
       4200.9538      0.56655448
       4201.5542      0.79949539
       4202.1547       1.0667206
       4202.7552      0.95004124
       4203.3556      0.35033178
       4203.9561      0.50209093
       4204.5565       1.0322265
       4205.1570      0.81807667
       4205.7575      0.90325740
       4206.3579      0.84366935
       4206.9584       1.0360913
       4207.5588      0.80191731
       4208.1593      0.97697828
       4208.7598      0.81430873
       4209.3602      0.81555573
       4209.9607       1.1962282
       4210.5611      0.96459800
       4211.1616      0.98595510
       4211.7620       1.0654743
       4212.3625      0.90316112
       4212.9630      0.96833667
       4213.5634       1.0002185
       4214.1639      0.89760293
       4214.7643      0.90184944
       4215.3648       1.0825147
       4215.9653      0.74976204
       4216.5657      0.82687267
       4217.1662       1.2608313
       4217.7666      0.91387651
       4218.3671      0.98122828
       4218.9676       1.0588988
       4219.5680      0.90989440
       4220.1685      0.98294391
       4220.7689       1.0763180
       4221.3694       1.0622429
       4221.9699      0.96248846
       4222.5703      0.86250368
       4223.1708      0.99862563
       4223.7712       1.0709110
       4224.3717       1.0076057
       4224.9722       1.1759159
       4225.5726      0.93459443
       4226.1731       1.1019581
       4226.7735       1.0550822
       4227.3740      0.86111392
       4227.9744      0.95165169
       4228.5749      0.98672244
       4229.1754      0.87207903
       4229.7758      0.89057343
       4230.3763      0.90072714
       4230.9767       1.0033953
       4231.5772      0.70413389
       4232.1777       1.1922355
       4232.7781       1.1272418
       4233.3786       1.2407836
       4233.9790      0.68114395
       4234.5795      0.82324637
       4235.1800      0.88163781
       4235.7804       1.0080727
       4236.3809      0.99916474
       4236.9813       1.0182382
       4237.5818      0.80111427
       4238.1823      0.69668785
       4238.7827      0.99374100
       4239.3832      0.51441138
       4239.9836      0.82222466
       4240.5841      0.79393239
       4241.1846      0.96881385
       4241.7850       1.0155353
       4242.3855       1.0112380
       4242.9859      0.83994554
       4243.5864      0.98332213
       4244.1868      0.93795909
       4244.7873      0.90933704
       4245.3878      0.87025962
       4245.9882      0.89191328
       4246.5887      0.88088001
       4247.1891      0.88092167
       4247.7896      0.94008593
       4248.3901      0.89890896
       4248.9905       1.0180130
       4249.5910      0.84310608
       4250.1914      0.67250129
       4250.7919      0.82166271
       4251.3924      0.96601926
       4251.9928       1.2773768
       4252.5933       1.2789438
       4253.1937      0.86456698
       4253.7942      0.82233574
       4254.3947      0.93712083
       4254.9951       1.0641694
       4255.5956       1.1070069
       4256.1960      0.65987910
       4256.7965       1.1846713
       4257.3970      0.92267790
       4257.9974      0.99791553
       4258.5979      0.63539356
       4259.1983       1.2613417
       4259.7988      0.77534548
       4260.3992      0.38520689
       4260.9997      0.86404555
       4261.6002      0.93476431
       4262.2006       1.0203181
       4262.8011      0.92398031
       4263.4015      0.88508605
       4264.0020       1.1057065
       4264.6025       1.0338017
       4265.2029      0.94787773
       4265.8034      0.93339460
       4266.4038      0.85150927
       4267.0043      0.97855132
       4267.6048       1.0771514
       4268.2052       1.0506109
       4268.8057      0.88506529
       4269.4061      0.95153450
       4270.0066      0.89799335
       4270.6071       1.0896753
       4271.2075      0.91721863
       4271.8080      0.90839367
       4272.4084      0.84970684
       4273.0089      0.69700815
       4273.6094      0.84276971
       4274.2098      0.94268771
       4274.8103       1.0194609
       4275.4107      0.82854396
       4276.0112      0.75994084
       4276.6116      0.86284185
       4277.2121      0.78942626
       4277.8126      0.73588767
       4278.4130      0.77238166
       4279.0135      0.95499237
       4279.6139      0.80391662
       4280.2144       1.2935869
       4280.8149       1.1111717
       4281.4153      0.79908747
       4282.0158      0.87557551
       4282.6162      0.93668257
       4283.2167      0.87704537
       4283.8172      0.86627035
       4284.4176       1.0080764
       4285.0181       1.0291388
       4285.6185      0.90195466
       4286.2190      0.88441238
       4286.8195      0.87365069
       4287.4199      0.96371413
       4288.0204       1.0151267
       4288.6208      0.95117934
       4289.2213       1.1012252
       4289.8218      0.86291467
       4290.4222       1.0024124
       4291.0227      0.98928460
       4291.6231       1.0421413
       4292.2236      0.91899035
       4292.8240      0.84814150
       4293.4245      0.91395642
       4294.0250      0.89714314
       4294.6254      0.87786304
       4295.2259      0.77181195
       4295.8263      0.82779394
       4296.4268      0.92702570
       4297.0273      0.89810055
       4297.6277      0.76418155
       4298.2282      0.84021310
       4298.8286      0.95840283
       4299.4291      0.94473701
       4300.0296      0.93327425
       4300.6300       1.0619223
       4301.2305      0.74459841
       4301.8309       1.0885381
       4302.4314      0.91274425
       4303.0319      0.86050234
       4303.6323      0.88113768
       4304.2328      0.71844406
       4304.8332      0.58912568
       4305.4337      0.63855543
       4306.0342      0.82402624
       4306.6346      0.80014386
       4307.2351      0.77937972
       4307.8355      0.87282384
       4308.4360      0.90386539
       4309.0364      0.87532926
       4309.6369      0.79617507
       4310.2374      0.87692665
       4310.8378      0.98523346
       4311.4383      0.90383670
       4312.0387      0.88730285
       4312.6392      0.80849972
       4313.2397      0.92721040
       4313.8401      0.98359722
       4314.4406      0.74751193
       4315.0410      0.72764375
       4315.6415      0.91794229
       4316.2420       1.0105503
       4316.8424      0.99843037
       4317.4429      0.78776870
       4318.0433      0.92942039
       4318.6438       1.0042604
       4319.2443      0.78060062
       4319.8447      0.97646977
       4320.4452      0.94084673
       4321.0456      0.89339150
       4321.6461       1.1211241
       4322.2466      0.78770787
       4322.8470      0.88828495
       4323.4475      0.94608443
       4324.0479      0.96160068
       4324.6484      0.87672614
       4325.2488      0.93373624
       4325.8493      0.89534421
       4326.4498      0.94128816
       4327.0502      0.81196865
       4327.6507      0.63122785
       4328.2511      0.80672456
       4328.8516      0.85006367
       4329.4521      0.82201254
       4330.0525      0.97151178
       4330.6530      0.76543355
       4331.2534      0.78623827
       4331.8539      0.65543882
       4332.4544      0.67190770
       4333.0548      0.75496644
       4333.6553      0.76895780
       4334.2557       1.0693192
       4334.8562       1.1663369
       4335.4567       1.0301390
       4336.0571       1.2607377
       4336.6576       1.4221466
       4337.2580       1.0429077
       4337.8585      0.92949080
       4338.4590       1.2303657
       4339.0594       1.3269702
       4339.6599       1.4927006
       4340.2603       1.3044906
       4340.8608      0.55887097
       4341.4612      0.77672475
       4342.0617      0.95311676
       4342.6622      0.64838821
       4343.2626       1.1892582
       4343.8631       1.1211653
       4344.4635      0.77275006
       4345.0640       1.1981532
       4345.6645       1.4779604
       4346.2649       1.3299977
       4346.8654      0.92282451
       4347.4658      0.80836126
       4348.0663      0.85079075
       4348.6668       1.0762522
       4349.2672      0.85142933
       4349.8677      0.55121732
       4350.4681      0.93666041
       4351.0686      0.91458911
       4351.6691      0.74965448
       4352.2695      0.72418148
       4352.8700      0.61718302
       4353.4704       1.0349590
       4354.0709       1.3104219
       4354.6714      0.68838324
       4355.2718      0.60670040
       4355.8723      0.73450392
       4356.4727      0.86437753
       4357.0732      0.61815345
       4357.6736      0.68946096
       4358.2741       1.1115292
       4358.8746       1.1548893
       4359.4750       1.3548853
       4360.0755       1.1229872
       4360.6759       1.1332472
       4361.2764      0.79543839
       4361.8769       1.1319115
       4362.4773       1.1015097
       4363.0778       1.4003361
       4363.6782       1.1240583
       4364.2787      0.88953030
       4364.8792       1.1304677
       4365.4796      0.94141113
       4366.0801       1.0721901
       4366.6805      0.94913763
       4367.2810       1.1228821
       4367.8815      0.88776930
       4368.4819      0.93771361
       4369.0824      0.63785442
       4369.6828      0.87989436
       4370.2833      0.94060900
       4370.8838       1.0263466
       4371.4842      0.89840718
       4372.0847      0.72505809
       4372.6851      0.83422387
       4373.2856      0.81753183
       4373.8860      0.83816266
       4374.4865      0.81288540
       4375.0870      0.77022233
       4375.6874      0.82920905
       4376.2879       1.0821956
       4376.8883      0.55140124
       4377.4888      0.51361705
       4378.0893      0.80025617
       4378.6897      0.74699449
       4379.2902      0.96384320
       4379.8906       1.1402985
       4380.4911       1.0545453
       4381.0916       1.0526620
       4381.6920      0.96918016
       4382.2925      0.98678903
       4382.8929      0.99346251
       4383.4934       1.1225152
       4384.0939      0.97991428
       4384.6943       1.1192359
       4385.2948       1.0382501
       4385.8952      0.93980547
       4386.4957       1.0653250
       4387.0962       1.0593306
       4387.6966      0.92639006
       4388.2971       1.0979466
       4388.8975      0.86257915
       4389.4980       1.0397485
       4390.0984       1.0307035
       4390.6989      0.93225233
       4391.2994      0.99401556
       4391.8998      0.88125425
       4392.5003      0.94648493
       4393.1007      0.94901316
       4393.7012       1.0222115
       4394.3017      0.93978501
       4394.9021      0.94029883
       4395.5026      0.85579523
       4396.1030      0.88322357
       4396.7035      0.96336642
       4397.3040      0.95128636
       4397.9044       1.0064229
       4398.5049      0.99155739
       4399.1053      0.94806755
       4399.7058      0.95164803
       4400.3063      0.90137152
       4400.9067      0.87222108
       4401.5072       1.0248044
       4402.1076      0.85718916
       4402.7081      0.89419925
       4403.3086      0.75989915
       4403.9090      0.97878267
       4404.5095      0.72165413
       4405.1099       1.3039135
       4405.7104      0.63698378
       4406.3108      0.97817094
       4406.9113      0.45024431
       4407.5118       1.2458386
       4408.1122       1.3427729
       4408.7127       1.1209181
       4409.3131       1.7272287
       4409.9136       1.2227245
       4410.5141       1.0477503
       4411.1145      0.92021540
       4411.7150       1.3996740
       4412.3154      0.74879047
       4412.9159      0.94655030
       4413.5164      0.73976543
       4414.1168       1.0508929
       4414.7173       1.7437051
       4415.3177      0.91018157
       4415.9182      0.53466981
       4416.5187      0.51890707
       4417.1191      0.66379229
       4417.7196       1.0893718
       4418.3200       1.0483456
       4418.9205       1.0566537
       4419.5210      0.97852089
       4420.1214       1.1871067
       4420.7219      0.84382617
       4421.3223       1.2774045
       4421.9228       1.0162599
       4422.5232      0.86155556
       4423.1237       1.1064277
       4423.7242      0.95513926
       4424.3246      0.92989141
       4424.9251       1.1222865
       4425.5255      0.94977725
       4426.1260      0.84082873
       4426.7265       1.0533704
       4427.3269      0.91762538
       4427.9274      0.97780475
       4428.5278      0.90858746
       4429.1283      0.91477605
       4429.7288      0.96188159
       4430.3292      0.97023545
       4430.9297       1.0578030
       4431.5301      0.90466304
       4432.1306       1.2496293
       4432.7311       1.1853414
       4433.3315      0.90977420
       4433.9320       1.0581362
       4434.5324       1.0201531
       4435.1329       1.0728401
       4435.7334       1.0325635
       4436.3338       1.0500829
       4436.9343      0.97548666
       4437.5347      0.47287827
       4438.1352      0.70159875
       4438.7356      0.92264822
       4439.3361       1.0116546
       4439.9366      0.57713805
       4440.5370      0.49816190
       4441.1375      0.12313766
       4441.7379      0.69637709
       4442.3384      0.96164570
       4442.9389       1.1308674
       4443.5393       1.1965879
       4444.1398       1.1224314
       4444.7402       1.2262090
       4445.3407      0.94999186
       4445.9412       1.2243789
       4446.5416      0.85267528
       4447.1421      0.74402817
       4447.7425       1.0426630
       4448.3430       1.0344879
       4448.9435       1.1886166
       4449.5439       1.0065493
       4450.1444      0.92899731
       4450.7448       1.0308919
       4451.3453      0.84395272
       4451.9458       1.1059513
       4452.5462       1.0644290
       4453.1467      0.95388330
       4453.7471       1.2188784
       4454.3476      0.95518273
       4454.9480       1.1479213
       4455.5485       1.0559235
       4456.1490       1.1632675
       4456.7494       1.2839589
       4457.3499       1.2020570
       4457.9503       1.4945561
       4458.5508      0.85683578
       4459.1513       1.3161832
       4459.7517      0.92859583
       4460.3522       1.2375134
       4460.9526      0.83116227
       4461.5531      0.86427361
       4462.1536       1.1348628
       4462.7540       1.0704509
       4463.3545       1.1211238
       4463.9549       1.0874368
       4464.5554      0.96713587
       4465.1559      0.88773930
       4465.7563      0.98905008
       4466.3568       1.0080744
       4466.9572      0.82800839
       4467.5577      0.40414230
       4468.1582      0.65074538
       4468.7586       1.2793839
       4469.3591       1.0917751
       4469.9595       1.2527575
       4470.5600      0.89712886
       4471.1604      0.98320715
       4471.7609       1.0699235
       4472.3614       1.1628440
       4472.9618       1.0194938
       4473.5623       1.0395424
       4474.1627       1.0445964
       4474.7632      0.97143328
       4475.3637      0.99595761
       4475.9641      0.94746534
       4476.5646      0.94662374
       4477.1650       1.0754331
       4477.7655       1.1985219
       4478.3660      0.52267553
       4478.9664      0.85437213
       4479.5669      0.83068425
       4480.1673       1.1558455
       4480.7678       1.2448735
       4481.3683       1.0634029
       4481.9687       1.0480438
       4482.5692      0.97300130
       4483.1696      0.73996520
       4483.7701      0.79100242
       4484.3706      0.79482656
       4484.9710       1.4263164
       4485.5715      0.92036580
       4486.1719       1.3180246
       4486.7724      0.75636678
       4487.3728       1.1554250
       4487.9733       1.2365145
       4488.5738       1.0405570
       4489.1742       1.0466144
       4489.7747       1.2135866
       4490.3751       1.1929528
       4490.9756       1.2179815
       4491.5761      0.96241517
       4492.1765      0.93270570
       4492.7770       1.0989603
       4493.3774       1.2867195
       4493.9779       1.0009427
       4494.5784       1.0956841
       4495.1788      0.98172447
       4495.7793      0.75917540
       4496.3797      0.74710336
       4496.9802      0.67410051
       4497.5807       1.2507093
       4498.1811       1.0975426
       4498.7816       1.5479630
       4499.3820       1.0744707
       4499.9825       1.2002959
       4500.5830       1.0064034
       4501.1834      0.96358035
       4501.7839      0.99954173
       4502.3843       1.1673792
       4502.9848      0.76408303
       4503.5852       1.1497761
       4504.1857      0.86509430
       4504.7862       1.4239671
       4505.3866       1.5168842
       4505.9871      0.93430377
       4506.5875       1.2324257
       4507.1880       1.0168685
       4507.7885       1.0747314
       4508.3889       1.0496803
       4508.9894       1.1247411
       4509.5898       1.1564212
       4510.1903       1.0365227
       4510.7908      0.98979797
       4511.3912       1.0720757
       4511.9917       1.0483974
       4512.5921       1.2175763
       4513.1926      0.98903100
       4513.7931       1.1605296
       4514.3935       1.1147760
       4514.9940      0.92344225
       4515.5944       1.1659791
       4516.1949       1.0659244
       4516.7954      0.99075354
       4517.3958      0.98410660
       4517.9963      0.93047383
       4518.5967      0.99510062
       4519.1972       1.2392397
       4519.7976      0.87019526
       4520.3981      0.69668010
       4520.9986      0.77930935
       4521.5990       1.0310714
       4522.1995      0.90015697
       4522.7999      0.90951118
       4523.4004       1.0260413
       4524.0009       1.1431961
       4524.6013       1.1360619
       4525.2018      0.47183645
       4525.8022      0.58033529
       4526.4027      0.74613437
       4527.0032      0.26476349
       4527.6036      0.81015351
       4528.2041      0.68754160
       4528.8045       1.2146483
       4529.4050      0.93765015
       4530.0055      0.95627192
       4530.6059      0.89632269
       4531.2064      0.98396762
       4531.8068      0.90449686
       4532.4073      0.89278802
       4533.0078       1.0123024
       4533.6082       1.2272240
       4534.2087       1.0684044
       4534.8091       1.0874595
       4535.4096      0.97987409
       4536.0100       1.1417879
       4536.6105       1.1001790
       4537.2110       1.2755065
       4537.8114       1.0388381
       4538.4119       1.1290061
       4539.0123      0.96439834
       4539.6128       1.0034367
       4540.2133       1.0188050
       4540.8137       1.1949023
       4541.4142      0.98602220
       4542.0146       1.0547212
       4542.6151       1.0636430
       4543.2156      0.88699351
       4543.8160      0.72090288
       4544.4165       1.0309634
       4545.0169      0.80447253
       4545.6174      0.97686383
       4546.2179      0.88110771
       4546.8183       1.0456509
       4547.4188      0.98050824
       4548.0192       1.0390236
       4548.6197      0.98912578
       4549.2202      0.83764252
       4549.8206       1.1128729
       4550.4211       1.2885570
       4551.0215      0.85578727
       4551.6220       1.0949148
       4552.2225      0.70679763
       4552.8229      0.91056531
       4553.4234       1.3171058
       4554.0238       1.0202078
       4554.6243       1.1659608
       4555.2247       1.0399650
       4555.8252       1.1787541
       4556.4257       1.0853961
       4557.0261       1.0164104
       4557.6266       1.1101365
       4558.2270       1.1418293
       4558.8275      0.76419780
       4559.4280       1.1956071
       4560.0284       1.2096997
       4560.6289       1.0282099
       4561.2293       1.1559465
       4561.8298       1.1195462
       4562.4303       1.1686134
       4563.0307       1.1521653
       4563.6312       1.0455653
       4564.2316      0.98870850
       4564.8321       1.2951097
       4565.4326       1.2132731
       4566.0330       1.0197581
       4566.6335      0.96953727
       4567.2339       1.1222981
       4567.8344      0.97579050
       4568.4349      0.92559480
       4569.0353       1.0991637
       4569.6358       1.0712233
       4570.2362      0.83300607
       4570.8367       1.2442112
       4571.4371       1.0582895
       4572.0376      0.89741343
       4572.6381       1.0821028
       4573.2385       1.1458549
       4573.8390       1.1863394
       4574.4394       1.1766663
       4575.0399       1.1130943
       4575.6404       1.1896600
       4576.2408       1.1530186
       4576.8413       1.1612653
       4577.4417      0.95622404
       4578.0422      0.95764834
       4578.6427       1.0410110
       4579.2431       1.0025320
       4579.8436      0.86090479
       4580.4440       1.1105926
       4581.0445       1.1776098
       4581.6450       1.4759154
       4582.2454       1.4361532
       4582.8459       1.3803841
       4583.4463       1.1645556
       4584.0468       1.0830893
       4584.6473       1.1182432
       4585.2477       1.1046051
       4585.8482       1.1127252
       4586.4486      0.92773923
       4587.0491       1.0748499
       4587.6495       1.1099350
       4588.2500       1.0424430
       4588.8505      0.89763824
       4589.4509       1.1208320
       4590.0514       1.0006265
       4590.6518       1.2160749
       4591.2523       1.1612498
       4591.8528       1.1703432
       4592.4532       1.1771542
       4593.0537      0.94211180
       4593.6541      0.93057379
       4594.2546       1.1216909
       4594.8551       1.0355005
       4595.4555       1.0636161
       4596.0560       1.1662020
       4596.6564       1.0548367
       4597.2569       1.0876924
       4597.8574       1.1467559
       4598.4578       1.1795579
       4599.0583       1.0222486
       4599.6587       1.1621688
       4600.2592       1.1528738
       4600.8597       1.1999179
       4601.4601       1.2112645
       4602.0606       1.0763605
       4602.6610       1.2266995
       4603.2615       1.0471248
       4603.8619      0.92856520
       4604.4624       1.2409549
       4605.0629       1.2422745
       4605.6633       1.2655118
       4606.2638       1.0896443
       4606.8642      0.85468997
       4607.4647      0.92281479
       4608.0652       1.2318216
       4608.6656       1.3937363
       4609.2661       1.3437069
       4609.8665       1.0911545
       4610.4670       1.0665482
       4611.0675       1.0543498
       4611.6679       1.0729930
       4612.2684       1.0099529
       4612.8688       1.2199399
       4613.4693       1.2589595
       4614.0698      0.88929229
       4614.6702       1.0273555
       4615.2707       1.0290692
       4615.8711       1.0277935
       4616.4716       1.2677713
       4617.0721       1.1775738
       4617.6725       1.1274584
       4618.2730       1.2370922
       4618.8734       1.0993794
       4619.4739       1.1419068
       4620.0743       1.1582037
       4620.6748       1.0740226
       4621.2753       1.1845473
       4621.8757       1.1881046
       4622.4762       1.2585259
       4623.0766       1.2874605
       4623.6771       1.1671611
       4624.2776       1.2168381
       4624.8780       1.1555773
       4625.4785       1.0822497
       4626.0789       1.1135336
       4626.6794       1.2324211
       4627.2799       1.2499460
       4627.8803      0.99736819
       4628.4808       1.0796517
       4629.0812       1.1976197
       4629.6817       1.2372880
       4630.2822       1.2070066
       4630.8826       1.1639877
       4631.4831       1.2523342
       4632.0835       1.0796232
       4632.6840       1.0970273
       4633.2845       1.1433614
       4633.8849       1.0781247
       4634.4854       1.1417128
       4635.0858       1.1015074
       4635.6863       1.2819061
       4636.2867       1.3209688
       4636.8872       1.0449673
       4637.4877       1.3790870
       4638.0881       1.4079726
       4638.6886       1.1765936
       4639.2890       1.3374773
       4639.8895       1.3376489
       4640.4900       1.1313423
       4641.0904       1.2145659
       4641.6909       1.2116976
       4642.2913       1.1877254
       4642.8918       1.4343412
       4643.4923       1.1516943
       4644.0927       1.1419366
       4644.6932       1.0824988
       4645.2936       1.2809553
       4645.8941       1.1677143
       4646.4946       1.2895645
       4647.0950       1.2189090
       4647.6955       1.2409415
       4648.2959       1.1191675
       4648.8964       1.1485236
       4649.4969       1.0766080
       4650.0973       1.1520746
       4650.6978      0.95144435
       4651.2982       1.1108825
       4651.8987       1.3545453
       4652.4991       1.2585504
       4653.0996       1.2343213
       4653.7001       1.4231697
       4654.3005       1.0736944
       4654.9010       1.2054280
       4655.5014       1.1084256
       4656.1019       1.2359995
       4656.7024       1.0884291
       4657.3028       1.4002397
       4657.9033       1.1873404
       4658.5037       1.2859274
       4659.1042       1.3488354
       4659.7047       1.3806601
       4660.3051       1.2691630
       4660.9056       1.2318847
       4661.5060       1.1588692
       4662.1065       1.1754264
       4662.7070       1.2598121
       4663.3074       1.2489051
       4663.9079       1.2053849
       4664.5083       1.2030096
       4665.1088       1.0718768
       4665.7093       1.0565346
       4666.3097      0.90637982
       4666.9102       1.0933036
       4667.5106       1.0694746
       4668.1111       1.2678522
       4668.7115       1.0901557
       4669.3120       1.1162642
       4669.9125       1.0754227
       4670.5129       1.0935528
       4671.1134      0.77379697
       4671.7138       1.1384138
       4672.3143       1.1344200
       4672.9148       1.1807180
       4673.5152       1.2233068
       4674.1157       1.0639198
       4674.7161       1.1785209
       4675.3166       1.1389940
       4675.9171       1.0235549
       4676.5175       1.2257703
       4677.1180       1.3314649
       4677.7184      0.99768302
       4678.3189       1.6043073
       4678.9194       1.7308715
       4679.5198       2.3870030
       4680.1203       1.7831817
       4680.7207       1.3285788
       4681.3212      0.99667687
       4681.9217       1.4839820
       4682.5221       1.0557374
       4683.1226      0.14957231
       4683.7230      0.30983176
       4684.3235       1.1695095
       4684.9239      0.46704982
       4685.5244      0.44555524
       4686.1249      0.66739266
       4686.7253      0.65607830
       4687.3258      0.35268593
       4687.9262      0.95643326
       4688.5267      0.94431350
       4689.1272      0.43612653
       4689.7276       1.0448045
       4690.3281       1.3404327
       4690.9285       1.3032199
       4691.5290       1.2797229
       4692.1295      0.91937374
       4692.7299      0.65626006
       4693.3304      0.92575309
       4693.9308      0.93339217
       4694.5313       1.0490349
       4695.1318      0.55574995
       4695.7322      0.62482329
       4696.3327      0.59405175
       4696.9331      0.88160332
       4697.5336      0.60428575
       4698.1341      0.75546151
       4698.7345      0.74897230
       4699.3350      0.77929730
       4699.9354      0.98064922
       4700.5359      0.94339686
       4701.1363       1.0532015
       4701.7368      0.83268070
       4702.3373      0.70408907
       4702.9377      0.58723168
       4703.5382      0.65277798
       4704.1386      0.68094298
       4704.7391      0.82991996
       4705.3396       1.0448698
       4705.9400      0.81403179
       4706.5405      0.98127411
       4707.1409       1.1879599
       4707.7414      0.93377892
       4708.3419      0.70552851
       4708.9423      0.96794961
       4709.5428       1.0371256
       4710.1432      0.84532457
       4710.7437      0.97334596
       4711.3442      0.80096201
       4711.9446      0.36135845
       4712.5451    -0.036258457
       4713.1455       1.4251759
       4713.7460       1.4322059
       4714.3465     -0.25091597
       4714.9469      0.19678096
       4715.5474      0.48341373
       4716.1478      0.95017843
       4716.7483       1.1173165
       4717.3487      0.99686503
       4717.9492      0.93435028
       4718.5497       1.1322741
       4719.1501      0.87049097
       4719.7506       1.2135053
       4720.3510       1.2102492
       4720.9515       1.1016186
       4721.5520       1.1395159
       4722.1524       1.1436909
       4722.7529       1.2924768
       4723.3533       1.2153010
       4723.9538      0.97399991
       4724.5543      0.88291104
       4725.1547      0.71630464
       4725.7552      0.77021555
       4726.3556      0.71840091
       4726.9561       1.1491242
       4727.5566      0.95001982
       4728.1570      0.94819105
       4728.7575       1.0022250
       4729.3579      0.98827059
       4729.9584      0.96903161
       4730.5589      0.86236225
       4731.1593      0.88665066
       4731.7598       1.0119163
       4732.3602       1.0363449
       4732.9607       1.2805207
       4733.5611       1.1885170
       4734.1616       1.2912176
       4734.7621      0.95925902
       4735.3625       1.3114601
       4735.9630       1.0654271
       4736.5634      0.79001335
       4737.1639       1.0213699
       4737.7644      0.86127718
       4738.3648      0.82479494
       4738.9653      0.90496549
       4739.5657      0.73973992
       4740.1662      0.54650618
       4740.7667      0.94895394
       4741.3671      0.86829897
       4741.9676       1.1288930
       4742.5680       1.1454394
       4743.1685       1.1485401
       4743.7690      0.80919559
       4744.3694      0.26642976
       4744.9699      0.62816739
       4745.5703      0.51261124
       4746.1708    -0.014690465
       4746.7713   -0.0021676370
       4747.3717       1.0336210
       4747.9722       1.2609348
       4748.5726       1.0998082
       4749.1731       1.1977607
       4749.7735      0.86899759
       4750.3740      0.93339700
       4750.9745      0.86238845
       4751.5749       1.0150597
       4752.1754       1.0494833
       4752.7758       1.3140661
       4753.3763      0.61308756
       4753.9768       1.3670266
       4754.5772       1.3169770
       4755.1777      0.97214420
       4755.7781      0.44951037
       4756.3786      0.51973930
       4756.9791       1.3522535
       4757.5795       1.0507370
       4758.1800      0.95718456
       4758.7804       1.1397344
       4759.3809       1.2080004
       4759.9814       1.2124072
       4760.5818       1.1679226
       4761.1823       1.1012318
       4761.7827       1.3025777
       4762.3832      0.44031749
       4762.9837      0.89429597
       4763.5841       1.5361255
       4764.1846       3.1758386
       4764.7850       2.2351864
       4765.3855       2.4822647
       4765.9859      0.55977392
       4766.5864       1.0890712
       4767.1869      0.92141996
       4767.7873       1.1329877
       4768.3878       1.0059093
       4768.9882      0.94225766
       4769.5887       1.1957192
       4770.1892       1.1908954
       4770.7896       1.2011888
       4771.3901       1.2517655
       4771.9905      0.89479734
       4772.5910      0.86571334
       4773.1915      0.81565582
       4773.7919      0.82828353
       4774.3924      0.84422720
       4774.9928      0.50240077
       4775.5933      0.45867241
       4776.1938      0.24899513
       4776.7942      0.63266833
       4777.3947      0.75384842
       4777.9951      0.98891072
       4778.5956       1.1201222
       4779.1961       1.5013288
       4779.7965       1.4253033
       4780.3970       1.3310480
       4780.9974       1.2605128
       4781.5979       1.1679528
       4782.1983       1.0774208
       4782.7988      0.96271754
       4783.3993       1.2198540
       4783.9997      0.60081764
       4784.6002      0.90945906
       4785.2006      0.98572772
       4785.8011       1.0611961
       4786.4016      0.82511425
       4787.0020      0.62119808
       4787.6025       1.0764261
       4788.2029      0.96260286
       4788.8034      0.98770705
       4789.4039       1.1478957
       4790.0043       1.0479397
       4790.6048       1.3050135
       4791.2052      0.90924471
       4791.8057       1.2169140
       4792.4062       1.0116585
       4793.0066       1.2329439
       4793.6071       1.1737520
       4794.2075       1.2033980
       4794.8080       1.3309418
       4795.4085       1.3480344
       4796.0089       1.2398514
       4796.6094      0.97733583
       4797.2098       1.1517928
       4797.8103       1.1735222
       4798.4107       1.0697097
       4799.0112       1.0992245
       4799.6117       1.2279742
       4800.2121       1.1296763
       4800.8126      0.99757791
       4801.4130       1.4952074
       4802.0135       1.5176418
       4802.6140      0.88170418
       4803.2144       1.2375802
       4803.8149      0.96768613
       4804.4153       1.2603336
       4805.0158       1.3126078
       4805.6163       1.1407183
       4806.2167       1.2296280
       4806.8172       1.1725219
       4807.4176      0.87512155
       4808.0181      0.56609534
       4808.6186       1.0692496
       4809.2190       1.6910175
       4809.8195       1.4702351
       4810.4199      0.93055908
       4811.0204     0.051099768
       4811.6209      0.91609672
       4812.2213       1.3172625
       4812.8218       1.1398876
       4813.4222       1.3123900
       4814.0227       1.1251274
       4814.6231       1.0649776
       4815.2236       1.0844722
       4815.8241       1.1047288
       4816.4245      0.82948911
       4817.0250       1.0317175
       4817.6254       1.2251895
       4818.2259       1.1420493
       4818.8264       1.0892400
       4819.4268       1.0212851
       4820.0273       1.0384762
       4820.6277       1.0552498
       4821.2282       1.0200470
       4821.8287       1.0688609
       4822.4291       1.0868853
       4823.0296       1.1261895
       4823.6300      0.99531078
       4824.2305       1.1966908
       4824.8310       1.2822721
       4825.4314       1.3469055
       4826.0319       1.1985424
       4826.6323      0.97923511
       4827.2328      0.86089094
       4827.8333      0.76793482
       4828.4337       1.3515991
       4829.0342       1.4805925
       4829.6346      0.97760870
       4830.2351       1.0186029
       4830.8355       1.0063207
       4831.4360       1.0659628
       4832.0365       1.0612666
       4832.6369      0.78872298
       4833.2374      0.89621013
       4833.8378      0.91456482
       4834.4383       1.1289775
       4835.0388      0.96547331
       4835.6392      0.91042071
       4836.2397      0.97180379
       4836.8401      0.79445770
       4837.4406      0.79228165
       4838.0411      0.79984295
       4838.6415       1.0329542
       4839.2420       1.3063273
       4839.8424       1.0548436
       4840.4429       1.2231691
       4841.0434       1.2907703
       4841.6438       1.3157434
       4842.2443       1.2088740
       4842.8447       1.2493823
       4843.4452       1.0791193
       4844.0457      0.96098577
       4844.6461       1.1513436
       4845.2466       1.1310358
       4845.8470      0.99303660
       4846.4475       1.0819018
       4847.0479       1.0557132
       4847.6484       1.0731640
       4848.2489       1.2114234
       4848.8493       1.0656841
       4849.4498       1.0406868
       4850.0502       1.2881869
       4850.6507       1.3383601
       4851.2512       1.0711977
       4851.8516       1.6023709
       4852.4521       1.6378453
       4853.0525       1.9531060
       4853.6530       1.9786127
       4854.2535       2.1408087
       4854.8539       2.3769531
       4855.4544       2.2682124
       4856.0548       2.3227935
       4856.6553       2.1718071
       4857.2558       2.0377508
       4857.8562       1.8071226
       4858.4567       2.0879871
       4859.0571       2.2598986
       4859.6576       1.8720970
       4860.2581       2.1989462
       4860.8585       2.4379112
       4861.4590       2.5478524
       4862.0594       2.7818125
       4862.6599       2.6506540
       4863.2603       2.6105544
       4863.8608       2.3414553
       4864.4613       1.8741732
       4865.0617       1.2385390
       4865.6622       1.4145014
       4866.2626       1.1660391
       4866.8631      0.70274765
       4867.4636      0.54255976
       4868.0640      0.54577418
       4868.6645      0.81868309
       4869.2649       1.0805993
       4869.8654       1.2713603
       4870.4659      0.95265311
       4871.0663       1.2793448
       4871.6668       1.1076843
       4872.2672       1.1455948
       4872.8677       1.1530571
       4873.4682       1.2257350
       4874.0686      0.99572843
       4874.6691       1.1527610
       4875.2695       1.2328872
       4875.8700       1.6056625
       4876.4705      0.82067091
       4877.0709      0.99121306
       4877.6714       1.1715826
       4878.2718       1.1375151
       4878.8723       1.4008166
       4879.4727       1.2521347
       4880.0732       1.4159525
       4880.6737      0.90586187
       4881.2741       1.5009480
       4881.8746       1.0601988
       4882.4750       1.1845568
       4883.0755       1.1200384
       4883.6760      0.84043956
       4884.2764      0.88046345
       4884.8769      0.70664686
       4885.4773      0.57793556
       4886.0778       1.2725452
       4886.6783      0.48920730
       4887.2787      0.90952127
       4887.8792       1.3385935
       4888.4796       1.2813669
       4889.0801       1.2370331
       4889.6806       1.2657583
       4890.2810      0.91436705
       4890.8815       1.1115620
       4891.4819       1.2380318
       4892.0824       1.1234905
       4892.6829       1.0571486
       4893.2833       1.2109576
       4893.8838       1.0981564
       4894.4842       1.0294891
       4895.0847      0.46362167
       4895.6851      0.62125609
       4896.2856       1.1350368
       4896.8861       1.1680473
       4897.4865       1.0443870
       4898.0870      0.76213661
       4898.6874       1.0013136
       4899.2879       1.2922387
       4899.8884       1.0258668
       4900.4888       1.0576483
       4901.0893       1.1261005
       4901.6897       1.0489349
       4902.2902       1.1006025
       4902.8907       1.2618795
       4903.4911      0.87564176
       4904.0916       1.0561371
       4904.6920       1.0894413
       4905.2925       1.0469123
       4905.8930       1.3628969
       4906.4934       1.0360033
       4907.0939       1.2399706
       4907.6943       1.1246652
       4908.2948       1.2108427
       4908.8953       1.2763614
       4909.4957       1.4689519
       4910.0962       1.1896192
       4910.6966       1.3550157
       4911.2971       1.2427020
       4911.8975       1.1306225
       4912.4980       1.1418379
       4913.0985       1.2569853
       4913.6989       1.0818177
       4914.2994       1.1773155
       4914.8998       1.0834902
       4915.5003       1.1246166
       4916.1008      0.96431747
       4916.7012       1.1067084
       4917.3017      0.96136656
       4917.9021       1.0998178
       4918.5026       1.3232059
       4919.1031      0.97739351
       4919.7035      0.66478822
       4920.3040       1.1754618
       4920.9044       1.6539196
       4921.5049      0.96675317
       4922.1054      0.61012223
       4922.7058     0.087716066
       4923.3063       1.3047226
       4923.9067       1.2132369
       4924.5072       1.1218802
       4925.1077       1.1958439
       4925.7081       1.0060406
       4926.3086       1.3545792
       4926.9090      0.71645416
       4927.5095       1.1332423
       4928.1100       1.3134788
       4928.7104       1.1924833
       4929.3109       1.1650894
       4929.9113       1.4100276
       4930.5118       1.1938740
       4931.1122       1.2832607
       4931.7127       1.0520179
       4932.3132       1.1460687
       4932.9136       1.1014028
       4933.5141      0.85879496
       4934.1145       1.3952865
       4934.7150       1.3904572
       4935.3155       1.1878140
       4935.9159       1.2039741
       4936.5164       1.0450191
       4937.1168       1.2183965
       4937.7173       1.0970763
       4938.3178       1.1470592
       4938.9182       1.4696863
       4939.5187       1.2201625
       4940.1191       1.4118139
       4940.7196       1.4960092
       4941.3201       1.4486386
       4941.9205       1.3877813
       4942.5210       1.3323847
       4943.1214       1.4735592
       4943.7219       1.1647007
       4944.3224       1.4934064
       4944.9228       1.3897963
       4945.5233       1.3128784
       4946.1237       1.4163096
       4946.7242       1.2623827
       4947.3246       1.4243125
       4947.9251       1.0436954
       4948.5256       1.5147812
       4949.1260      0.96342408
       4949.7265       1.1798050
       4950.3269       1.2220314
       4950.9274       1.4641532
       4951.5279       1.5332110
       4952.1283       1.9352725
       4952.7288       1.3990776
       4953.3292       1.6952721
       4953.9297       1.4676936
       4954.5302       1.6510479
       4955.1306       1.4454494
       4955.7311       1.5558323
       4956.3315       1.5085271
       4956.9320       1.5474550
       4957.5325       1.4921914
       4958.1329       1.2019073
       4958.7334       1.2879119
       4959.3338       1.5478903
       4959.9343      0.86625084
       4960.5348      0.93542370
       4961.1352       2.4991559
       4961.7357       1.2075826
       4962.3361      0.90767208
       4962.9366      0.97520296
       4963.5370      0.86186122
       4964.1375       1.4243605
       4964.7380       1.1903624
       4965.3384      0.99965316
       4965.9389      0.69072411
       4966.5393       1.0924272
       4967.1398       1.0426910
       4967.7403       1.1454530
       4968.3407      0.72372731
       4968.9412      0.96744258
       4969.5416       1.1287602
       4970.1421       1.2578947
       4970.7426       1.2352261
       4971.3430      0.52925874
       4971.9435      0.71247967
       4972.5439       1.0339654
       4973.1444       1.0128962
       4973.7449       1.1538906
       4974.3453      0.64774072
       4974.9458      0.15161996
       4975.5462      0.56219124
       4976.1467       1.2859458
       4976.7472       1.3096710
       4977.3476       1.1262726
       4977.9481       1.2466707
       4978.5485       1.1084356
       4979.1490      0.97386332
       4979.7494       1.0827823
       4980.3499       1.3134812
       4980.9504      0.12153177
       4981.5508      0.74740888
       4982.1513       1.3420611
       4982.7517      0.29008158
       4983.3522      0.30323821
       4983.9527      0.52496490
       4984.5531       1.0048073
       4985.1536       1.5890502
       4985.7540       1.5732043
       4986.3545       1.6641946
       4986.9550       1.2517290
       4987.5554       1.2133930
       4988.1559       1.0724902
       4988.7563       1.0973783
       4989.3568       1.2761958
       4989.9573       1.2229284
       4990.5577       1.3259695
       4991.1582       1.5649819
       4991.7586       1.2886576
       4992.3591       1.2407402
       4992.9596       1.3850677
       4993.5600       1.2436574
       4994.1605       1.4891740
       4994.7609       1.5921423
       4995.3614       1.2077578
       4995.9618       1.0736781
       4996.5623       1.3122477
       4997.1628       1.2727298
       4997.7632      0.97113330
       4998.3637       1.3794046
       4998.9641       2.4572382
       4999.5646       2.5787460
       5000.1651       2.3078768
       5000.7655       2.4304131
       5001.3660       2.1225068
       5001.9664       2.6115205
       5002.5669       1.6132351
       5003.1674       2.1792466
       5003.7678       2.2991887
       5004.3683       2.4721085
       5004.9687      0.50211947
       5005.5692     -0.98816464
       5006.1697    -0.020099156
       5006.7701      0.61707346
       5007.3706       1.6124146
       5007.9710       3.3477783
       5008.5715       2.1486142
       5009.1720       1.7674514
       5009.7724       1.7140671
       5010.3729       1.2610053
       5010.9733       1.4519900
       5011.5738       1.5163875
       5012.1742       1.8914908
       5012.7747       1.1810876
       5013.3752      0.66478856
       5013.9756       1.1328420
       5014.5761       1.3590199
       5015.1765       1.3374774
       5015.7770      0.94951165
       5016.3775       1.0795261
       5016.9779      0.97019905
       5017.5784      0.95237598
       5018.1788      0.85142342
       5018.7793      0.92367826
       5019.3798       1.0282120
       5019.9802       1.1786543
       5020.5807       1.2426960
       5021.1811      0.91313680
       5021.7816       1.3222148
       5022.3821       1.2352912
       5022.9825       1.0416145
       5023.5830       1.1974053
       5024.1834       1.2020479
       5024.7839       1.0702961
       5025.3844       1.0252936
       5025.9848       1.7018290
       5026.5853       1.2493100
       5027.1857       1.4195090
       5027.7862       1.2017984
       5028.3866       1.3188949
       5028.9871       1.4693677
       5029.5876       1.8552461
       5030.1880       2.6980012
       5030.7885       2.2560925
       5031.3889       1.3325552
       5031.9894       1.3502863
       5032.5899       2.2859986
       5033.1903      0.43144800
       5033.7908      -2.9338842
       5034.3912     -0.87754428
       5034.9917      0.41084589
       5035.5922      0.91775769
       5036.1926      0.66781736
       5036.7931       1.1838551
       5037.3935       1.2443707
       5037.9940      0.96108037
       5038.5945       1.7984479
       5039.1949      0.74656723
       5039.7954      0.70993775
       5040.3958      0.75013267
       5040.9963       1.1167032
       5041.5968       1.2293552
       5042.1972       1.3146714
       5042.7977       1.0959100
       5043.3981       1.3931444
       5043.9986      0.69597620
       5044.5990       1.3370250
       5045.1995      0.81278700
       5045.8000       1.0476363
       5046.4004      0.78872995
       5047.0009      0.65799548
       5047.6013      0.82487866
       5048.2018      0.70017006
       5048.8023       1.3137594
       5049.4027      0.80746081
       5050.0032       1.3358514
       5050.6036       1.4732901
       5051.2041       1.2203819
       5051.8046       1.2673547
       5052.4050       1.3551886
       5053.0055       1.1495340
       5053.6059      0.97169407
       5054.2064       1.0486690
       5054.8069       1.6640299
       5055.4073       1.8049938
       5056.0078       2.0277699
       5056.6082      0.80399803
       5057.2087      0.96865136
       5057.8092       1.0363026
       5058.4096       1.3249791
       5059.0101       1.2535459
       5059.6105      0.77893830
       5060.2110       1.9335662
       5060.8114      0.83636856
       5061.4119       1.4904401
       5062.0124      0.99681001
       5062.6128      0.69122249
       5063.2133      0.77873244
       5063.8137      0.88838248
       5064.4142       1.3101137
       5065.0147      0.62531218
       5065.6151      0.82346260
       5066.2156       1.3454794
       5066.8160      0.64622133
       5067.4165      0.82936320
       5068.0170       1.0658997
       5068.6174       1.4453571
       5069.2179       1.6319135
       5069.8183       1.3275912
       5070.4188      0.95227895
       5071.0193       1.2265883
       5071.6197       1.1725941
       5072.2202       1.0335931
       5072.8206      0.63725891
       5073.4211      0.69329731
       5074.0216      0.52606188
       5074.6220      0.95925982
       5075.2225      0.91202647
       5075.8229      0.66048726
       5076.4234      0.60742557
       5077.0238       1.1993180
       5077.6243       1.4906065
       5078.2248      0.64862229
