# wavelength flux
       1941.8629     0.046853197
       1942.5043     0.059397754
       1943.1456     0.032893488
       1943.7870     0.058623008
       1944.4284    -0.025103067
       1945.0698    0.0030839289
       1945.7112    -0.053339766
       1946.3525     0.046959883
       1946.9939     0.026995460
       1947.6353     0.055939977
       1948.2767     0.025634290
       1948.9180     0.025225960
       1949.5594    0.0056785278
       1950.2008    -0.018796278
       1950.8422    -0.025050052
       1951.4836  -0.00089401257
       1952.1249     0.016253430
       1952.7663    -0.040881923
       1953.4077    -0.049079659
       1954.0491    -0.016574533
       1954.6904    -0.015069242
       1955.3318  -0.00056755961
       1955.9732    -0.046595355
       1956.6146     0.032927732
       1957.2560    0.0054388964
       1957.8973     0.023701458
       1958.5387     0.060366222
       1959.1801     0.020447776
       1959.8215    -0.020590616
       1960.4628    0.0035179534
       1961.1042     0.024513473
       1961.7456     0.043568200
       1962.3870    -0.046327758
       1963.0284    -0.040886237
       1963.6697     0.077621231
       1964.3111     0.030884590
       1964.9525     0.014222486
       1965.5939    -0.034220579
       1966.2352    -0.030619953
       1966.8766     0.024834275
       1967.5180    -0.029474981
       1968.1594     0.028969188
       1968.8008    -0.070873854
       1969.4421    0.0053196547
       1970.0835    -0.020822528
       1970.7249    -0.025798377
       1971.3663     0.087327319
       1972.0076     0.041599751
       1972.6490     0.032184102
       1973.2904     0.053687824
       1973.9318     0.074094954
       1974.5732    -0.013355639
       1975.2145     0.091322559
       1975.8559     0.016363076
       1976.4973     0.018459846
       1977.1387     0.028015137
       1977.7800   -0.0033980548
       1978.4214     0.030972580
       1979.0628    0.0041924535
       1979.7042     0.016225216
       1980.3456     0.023753880
       1980.9869    -0.041330704
       1981.6283    -0.016311620
       1982.2697    -0.062144990
       1982.9111    0.0029925196
       1983.5524    -0.012578325
       1984.1938   -0.0026237394
       1984.8352    -0.019638842
       1985.4766   -0.0058700310
       1986.1180   -0.0087524655
       1986.7593     0.037262625
       1987.4007     0.012215894
       1988.0421    -0.018887722
       1988.6835     0.043957025
       1989.3248     0.038090948
       1989.9662     0.013652448
       1990.6076   0.00010462932
       1991.2490    -0.012956386
       1991.8904     0.023341082
       1992.5317     0.034862140
       1993.1731    0.0037252499
       1993.8145     0.047737116
       1994.4559     0.063725679
       1995.0972     0.035456634
       1995.7386    -0.018148335
       1996.3800     0.014353106
       1997.0214     0.014589216
       1997.6627    -0.010509664
       1998.3041     0.045337070
       1998.9455     0.034404126
       1999.5869     0.018431200
       2000.2283     0.070139553
       2000.8696     0.027578671
       2001.5110    -0.010250129
       2002.1524     0.041832462
       2002.7938     0.013579069
       2003.4351     0.018699766
       2004.0765     0.025020422
       2004.7179     0.016737007
       2005.3593    -0.010307195
       2006.0007     0.019166918
       2006.6420    -0.016961490
       2007.2834    -0.049650562
       2007.9248   -0.0096967128
       2008.5662     0.014212825
       2009.2075    -0.010354403
       2009.8489     0.034611108
       2010.4903     0.015510109
       2011.1317    -0.047382382
       2011.7731   -0.0082081431
       2012.4144     0.043941270
       2013.0558    0.0078118430
       2013.6972    0.0096530281
       2014.3386    0.0065924986
       2014.9799   0.00047746866
       2015.6213     0.058227658
       2016.2627    -0.015598801
       2016.9041    -0.034653188
       2017.5455    -0.025452278
       2018.1868    -0.034854168
       2018.8282    -0.063500606
       2019.4696    0.0034476724
       2020.1110    -0.012812057
       2020.7523    -0.026717498
       2021.3937   -0.0055739965
       2022.0351     0.013731707
       2022.6765     0.060863207
       2023.3179     0.027771596
       2023.9592  -0.00086024101
       2024.6006    -0.032360552
       2025.2420     0.022558698
       2025.8834     0.026543301
       2026.5247   -0.0030651967
       2027.1661     0.026532010
       2027.8075    0.0093582556
       2028.4489    0.0030667489
       2029.0903    0.0080054864
       2029.7316    0.0019991784
       2030.3730    0.0043760855
       2031.0144     0.047568581
       2031.6558    -0.012582988
       2032.2971   -0.0096420129
       2032.9385     0.036634674
       2033.5799     0.033547641
       2034.2213  -0.00071053792
       2034.8627     0.012327974
       2035.5040     0.013907074
       2036.1454     0.019610861
       2036.7868     0.038047524
       2037.4282   -0.0038379630
       2038.0695    -0.013792424
       2038.7109     0.027252065
       2039.3523     0.013612732
       2039.9937     0.027994525
       2040.6351    -0.015040428
       2041.2764   -0.0035438354
       2041.9178    -0.011811070
       2042.5592    -0.012434975
       2043.2006     0.031878259
       2043.8419     0.024433983
       2044.4833     0.026568744
       2045.1247     0.028542266
       2045.7661     0.030085157
       2046.4075     0.061217489
       2047.0488    0.0071443549
       2047.6902     0.013164261
       2048.3316    -0.014239281
       2048.9730    -0.015326193
       2049.6143     0.023481637
       2050.2557    0.0066845299
       2050.8971     0.036701505
       2051.5385     0.013980994
       2052.1799     0.026482257
       2052.8212   -0.0065620958
       2053.4626     0.052596321
       2054.1040   -0.0057745777
       2054.7454     0.018098079
       2055.3867     0.024896447
       2056.0281     0.019831406
       2056.6695    0.0043353441
       2057.3109     0.018415988
       2057.9523     0.029353374
       2058.5936     0.052806016
       2059.2350     0.021941300
       2059.8764     0.054130003
       2060.5178     0.029583531
       2061.1591     0.026575559
       2061.8005     0.049884377
       2062.4419     0.038049189
       2063.0833     0.012495916
       2063.7247    -0.010186996
       2064.3660    -0.011969142
       2065.0074    -0.010049694
       2065.6488     0.023896895
       2066.2902     0.037098372
       2066.9315    0.0092498018
       2067.5729    -0.040513855
       2068.2143    -0.039469525
       2068.8557     0.017018209
       2069.4970    0.0028609686
       2070.1384     0.042902763
       2070.7798     0.079144459
       2071.4212     0.026038681
       2072.0626     0.081572644
       2072.7039  -4.9460830e-05
       2073.3453     0.049251872
       2073.9867     0.016514094
       2074.6281   -0.0074542785
       2075.2694    -0.012215134
       2075.9108    -0.020264521
       2076.5522   -0.0035934836
       2077.1936     0.028894970
       2077.8350     0.047835681
       2078.4763     0.044625218
       2079.1177   -0.0076924216
       2079.7591    0.0049147622
       2080.4005    -0.028685830
       2081.0418     0.021289385
       2081.6832    0.0036643984
       2082.3246   -0.0062251829
       2082.9660     0.029938434
       2083.6074    0.0055754842
       2084.2487    0.0013008964
       2084.8901     0.019486000
       2085.5315   -0.0015924954
       2086.1729     0.032125826
       2086.8142     0.012489260
       2087.4556    0.0040913553
       2088.0970     0.026978540
       2088.7384     0.030018842
       2089.3798     0.057130220
       2090.0211    -0.022564293
       2090.6625     0.012754099
       2091.3039     0.024214859
       2091.9453   -0.0040422029
       2092.5866    0.0020748573
       2093.2280     0.016538954
       2093.8694     0.033362008
       2094.5108     0.047011538
       2095.1522     0.014820363
       2095.7935    -0.013601681
       2096.4349     0.047171301
       2097.0763     0.044385300
       2097.7177     0.049717398
       2098.3590    -0.019221813
       2099.0004     0.032157576
       2099.6418     0.010294613
       2100.2832    0.0075160219
       2100.9246    0.0024208397
       2101.5659    -0.018245165
       2102.2073   -0.0076020808
       2102.8487     0.039734113
       2103.4901     0.016006330
       2104.1314     0.024085395
       2104.7728     0.013407219
       2105.4142     0.021929024
       2106.0556     0.018168000
       2106.6970     0.024201013
       2107.3383     0.015766600
       2107.9797     0.056509904
       2108.6211     0.092624700
       2109.2625     0.042814208
       2109.9038     0.010869677
       2110.5452     0.023117589
       2111.1866     0.028073327
       2111.8280    0.0021695519
       2112.4694     0.041526644
       2113.1107     0.037275957
       2113.7521   -0.0091616172
       2114.3935    0.0024543482
       2115.0349     0.020229383
       2115.6762     0.014978283
       2116.3176     0.013397366
       2116.9590     0.010114083
       2117.6004    0.0027654609
       2118.2418    0.0013849000
       2118.8831    0.0047250693
       2119.5245    -0.017106776
       2120.1659     0.040856084
       2120.8073     0.022497380
       2121.4486     0.014581938
       2122.0900    -0.030348022
       2122.7314     0.013533703
       2123.3728   -0.0043009965
       2124.0142    -0.033669044
       2124.6555   0.00046273035
       2125.2969   -0.0053075018
       2125.9383     0.026143513
       2126.5797    -0.018311101
       2127.2210     0.034243982
       2127.8624    -0.016405742
       2128.5038     0.031007021
       2129.1452    0.0010569854
       2129.7866     0.030464765
       2130.4279     0.042019826
       2131.0693     0.047709071
       2131.7107     0.027334375
       2132.3521     0.045523424
       2132.9934     0.021284145
       2133.6348    -0.026816648
       2134.2762     0.020437553
       2134.9176    -0.019473252
       2135.5589     0.011860210
       2136.2003   -0.0071045864
       2136.8417     0.019980726
       2137.4831     0.036697545
       2138.1245     0.016427250
       2138.7658     0.062415929
       2139.4072     0.027928476
       2140.0486    -0.017631575
       2140.6900     0.028348811
       2141.3313     0.060765304
       2141.9727     0.044078476
       2142.6141     0.018136787
       2143.2555    -0.019866418
       2143.8969     0.013754476
       2144.5382     0.046820357
       2145.1796     0.015035901
       2145.8210     0.027052464
       2146.4624     0.046456429
       2147.1037     0.025800955
       2147.7451     0.026640617
       2148.3865    0.0019344216
       2149.0279     0.017543491
       2149.6693     0.010080225
       2150.3106    -0.017143175
       2150.9520     0.016960691
       2151.5934     0.011457420
       2152.2348    0.0092682377
       2152.8761     0.029165946
       2153.5175    0.0019693521
       2154.1589     0.018776091
       2154.8003     0.037095570
       2155.4417    0.0088808438
       2156.0830     0.041916216
       2156.7244     0.018301803
       2157.3658     0.024688249
       2158.0072     0.044699283
       2158.6485     0.032382495
       2159.2899     0.028663527
       2159.9313     0.034927201
       2160.5727     0.018521199
       2161.2141     0.048105710
       2161.8554     0.026408492
       2162.4968     0.014253493
       2163.1382     0.014078973
       2163.7796     0.011084350
       2164.4209     0.036422049
       2165.0623     0.016550375
       2165.7037    0.0042897501
       2166.3451     0.026536303
       2166.9865    0.0016528762
       2167.6278    -0.023562084
       2168.2692    0.0051095958
       2168.9106     0.012538928
       2169.5520    0.0018676987
       2170.1933    0.0078595523
       2170.8347    -0.013818987
       2171.4761   0.00075413784
       2172.1175     0.027041386
       2172.7589   -0.0051702621
       2173.4002     0.016161260
       2174.0416     0.068005338
       2174.6830     0.010115930
       2175.3244    0.0055418544
       2175.9657     0.016627849
       2176.6071  -0.00081369490
       2177.2485  -0.00041199646
       2177.8899   -0.0021339160
       2178.5313   0.00018763743
       2179.1726   -0.0046825725
       2179.8140    0.0047407034
       2180.4554     0.026519606
       2181.0968  -0.00069718782
       2181.7381   0.00084673294
       2182.3795     0.026890090
       2183.0209     0.031408349
       2183.6623     0.042889172
       2184.3037     0.019277445
       2184.9450    -0.024814991
       2185.5864    -0.022102078
       2186.2278   -0.0084428267
       2186.8692    -0.025564825
       2187.5105     0.031915502
       2188.1519     0.012506093
       2188.7933     0.022092915
       2189.4347     0.046484449
       2190.0761     0.026080904
       2190.7174     0.025727740
       2191.3588     0.021182739
       2192.0002    0.0055093881
       2192.6416     0.043453472
       2193.2829     0.020510286
       2193.9243     0.040410557
       2194.5657     0.048771490
       2195.2071   -0.0073761993
       2195.8485     0.011659122
       2196.4898     0.037459198
       2197.1312     0.019911669
       2197.7726     0.031053370
       2198.4140     0.058145791
       2199.0553    0.0085395234
       2199.6967     0.010109369
       2200.3381     0.054312790
       2200.9795     0.018515656
       2201.6209     0.011379997
       2202.2622     0.028497732
       2202.9036    0.0064347646
       2203.5450     0.010312907
       2204.1864    0.0067426891
       2204.8277     0.015533686
       2205.4691     0.016477046
       2206.1105     0.010141186
       2206.7519     0.015258258
       2207.3932    0.0060916320
       2208.0346   -0.0024236793
       2208.6760     0.013989919
       2209.3174    0.0090107377
       2209.9588     0.023391812
       2210.6001    0.0075143051
       2211.2415     0.017150019
       2211.8829     0.034927916
       2212.5243    0.0011436412
       2213.1656    0.0047603321
       2213.8070     0.014398182
       2214.4484   -0.0014745163
       2215.0898    0.0071681394
       2215.7312    0.0052006805
       2216.3725    0.0023602104
       2217.0139     0.026586359
       2217.6553     0.030084327
       2218.2967   -0.0018107869
       2218.9380     0.030570093
       2219.5794     0.025976860
       2220.2208     0.040501396
       2220.8622     0.023890011
       2221.5036    0.0024663516
       2222.1449  -0.00019878359
       2222.7863     0.035724716
       2223.4277     0.047624333
       2224.0691   -0.0046618350
       2224.7104    0.0026474042
       2225.3518   -0.0016187305
       2225.9932     0.014825324
       2226.6346     0.062913647
       2227.2760     0.050497048
       2227.9173     0.021839808
       2228.5587     0.017094694
       2229.2001     0.040713140
       2229.8415   -0.0096069096
       2230.4828   -0.0032379212
       2231.1242    0.0037617320
       2231.7656    0.0018042206
       2232.4070   0.00076692253
       2233.0484     0.017868801
       2233.6897     0.029742104
       2234.3311     0.037432786
       2234.9725     0.028501668
       2235.6139     0.054838984
       2236.2552     0.028605439
       2236.8966     0.014771306
       2237.5380     0.017954740
       2238.1794    0.0057400206
       2238.8208     0.031312333
       2239.4621     0.011840254
       2240.1035     0.046427088
       2240.7449    0.0092240977
       2241.3863    0.0067464848
       2242.0276    -0.014122992
       2242.6690     0.046668569
       2243.3104     0.037375490
       2243.9518    -0.027328907
       2244.5932     0.021834633
       2245.2345     0.040576139
       2245.8759     0.030026172
       2246.5173  -0.00025557422
       2247.1587     0.032507024
       2247.8000     0.026253783
       2248.4414     0.034606542
       2249.0828     0.025516140
       2249.7242     0.040775113
       2250.3656     0.018527968
       2251.0069     0.022851010
       2251.6483     0.013981689
       2252.2897     0.041634152
       2252.9311     0.029860513
       2253.5724     0.012585916
       2254.2138     0.020413924
       2254.8552     0.071744541
       2255.4966     0.032335626
       2256.1380   -0.0025283247
       2256.7793   -0.0065723658
       2257.4207     0.014081204
       2258.0621     0.021426469
       2258.7035     0.023320980
       2259.3448     0.020838043
       2259.9862    0.0030705471
       2260.6276   -0.0092842608
       2261.2690     0.020629982
       2261.9104   -0.0012044158
       2262.5517     0.040026358
       2263.1931     0.015100409
       2263.8345     0.013705204
       2264.4759     0.017830696
       2265.1172     0.021611285
       2265.7586     0.044294650
       2266.4000     0.022470256
       2267.0414     0.042798589
       2267.6828     0.044438004
       2268.3241     0.019909452
       2268.9655    0.0087206197
       2269.6069   -0.0046952487
       2270.2483     0.040979923
       2270.8896     0.034899008
       2271.5310     0.022610569
       2272.1724    0.0068254572
       2272.8138    0.0094758745
       2273.4552    0.0096838144
       2274.0965     0.021475625
       2274.7379     0.016092855
       2275.3793     0.018683768
       2276.0207     0.015001736
       2276.6620    0.0090061018
       2277.3034    0.0079337233
       2277.9448    0.0036263445
       2278.5862     0.040019810
       2279.2275     0.024591513
       2279.8689    0.0075034865
       2280.5103     0.010668674
       2281.1517     0.024680984
       2281.7931     0.018010706
       2282.4344     0.050341067
       2283.0758     0.029867374
       2283.7172     0.034564107
       2284.3586     0.022131322
       2284.9999    0.0048369529
       2285.6413    0.0056756866
       2286.2827     0.027447504
       2286.9241     0.026859692
       2287.5655     0.020938720
       2288.2068     0.014559686
       2288.8482     0.032439582
       2289.4896    0.0012264238
       2290.1310    0.0027736202
       2290.7723     0.023152959
       2291.4137   -0.0013250246
       2292.0551     0.021220460
       2292.6965     0.019709701
       2293.3379    0.0020608811
       2293.9792     0.032054956
       2294.6206     0.036496837
       2295.2620     0.030969059
       2295.9034   -0.0032398565
       2296.5447     0.022542009
       2297.1861     0.018716201
       2297.8275    0.0061086454
       2298.4689     0.033771245
       2299.1103   -0.0057498713
       2299.7516   -0.0021715367
       2300.3930    0.0071059483
       2301.0344    0.0037485552
       2301.6758     0.024711280
       2302.3171     0.023991755
       2302.9585     0.028300411
       2303.5999     0.042658942
       2304.2413     0.013050813
       2304.8827     0.010838076
       2305.5240     0.033099382
       2306.1654     0.028343128
       2306.8068    0.0090447868
       2307.4482     0.017297437
       2308.0895     0.065715502
       2308.7309     0.033856935
       2309.3723     0.030678260
       2310.0137     0.018974933
       2310.6551     0.040363093
       2311.2964    0.0074153953
       2311.9378     0.021069984
       2312.5792  -0.00013716451
       2313.2206     0.038950009
       2313.8619     0.052655652
       2314.5033     0.042232092
       2315.1447     0.019429757
       2315.7861     0.032448478
       2316.4275     0.047715811
       2317.0688     0.020882506
       2317.7102    0.0047483840
       2318.3516     0.034708221
       2318.9930     0.022518128
       2319.6343     0.034766956
       2320.2757     0.011074423
       2320.9171     0.047026178
       2321.5585     0.014996221
       2322.1999     0.016975110
       2322.8412     0.027694160
       2323.4826     0.015554143
       2324.1240     0.012988043
       2324.7654    0.0045493385
       2325.4067     0.014810546
       2326.0481    0.0073026295
       2326.6895     0.012385273
       2327.3309     0.021078214
       2327.9723   -0.0067090510
       2328.6136    -0.010732494
       2329.2550    -0.015057557
       2329.8964     0.012599724
       2330.5378     0.017169865
       2331.1791    0.0049005566
       2331.8205     0.030644295
       2332.4619     0.033421063
       2333.1033   -0.0010013285
       2333.7447     0.019282156
       2334.3860     0.011796406
       2335.0274     0.013380231
       2335.6688   -0.0086473165
       2336.3102     0.030697946
       2336.9515     0.035135114
       2337.5929     0.018481578
       2338.2343   -0.0024895846
       2338.8757     0.022552827
       2339.5171     0.023093349
       2340.1584     0.029289653
       2340.7998   0.00089536371
       2341.4412    0.0091273402
       2342.0826     0.022612463
       2342.7239     0.029714391
       2343.3653     0.020771594
       2344.0067     0.015757882
       2344.6481    0.0046701664
       2345.2894    0.0064278262
       2345.9308   -0.0056225495
       2346.5722     0.031383794
       2347.2136     0.037689941
       2347.8550     0.034068099
       2348.4963     0.013968263
       2349.1377   -0.0045431859
       2349.7791   -0.0045291416
       2350.4205     0.015027308
       2351.0618    0.0057831170
       2351.7032     0.028346865
       2352.3446     0.022762940
       2352.9860     0.027279909
       2353.6274     0.065865750
       2354.2687     0.032744626
       2354.9101     0.024086828
       2355.5515     0.021892785
       2356.1929     0.026834880
       2356.8342     0.020281322
       2357.4756     0.016903955
       2358.1170  -0.00025172016
       2358.7584     0.027163419
       2359.3998    0.0076878690
       2360.0411     0.052541452
       2360.6825     0.038175188
       2361.3239     0.035138149
       2361.9653     0.023170234
       2362.6066     0.022929693
       2363.2480     0.015430341
       2363.8894     0.033080980
       2364.5308    0.0079130361
       2365.1722     0.048536585
       2365.8135     0.030373584
       2366.4549     0.031478590
       2367.0963     0.023295853
       2367.7377     0.014368325
       2368.3790     0.035609838
       2369.0204     0.035534779
       2369.6618     0.021782192
       2370.3032     0.030197738
       2370.9446     0.018080061
       2371.5859     0.015302278
       2372.2273     0.044375939
       2372.8687     0.035667643
       2373.5101     0.016295741
       2374.1514     0.041297646
       2374.7928     0.060954811
       2375.4342     0.024942090
       2376.0756     0.038506220
       2376.7170     0.021188087
       2377.3583     0.038547718
       2377.9997     0.025535498
       2378.6411   -0.0069730956
       2379.2825     0.013405921
       2379.9238     0.038899011
       2380.5652     0.034808162
       2381.2066     0.031838210
       2381.8480     0.041575452
       2382.4894    0.0060079606
       2383.1307     0.012414398
       2383.7721     0.029474509
       2384.4135     0.026048637
       2385.0549     0.025320943
       2385.6962     0.013067386
       2386.3376     0.020423359
       2386.9790     0.024897624
       2387.6204     0.034240718
       2388.2618     0.017306424
       2388.9031     0.011121207
       2389.5445     0.022069118
       2390.1859     0.024456854
       2390.8273     0.036534894
       2391.4686     0.030205824
       2392.1100     0.033174846
       2392.7514    0.0068409766
       2393.3928     0.017540019
       2394.0342     0.028607469
       2394.6755     0.025966706
       2395.3169     0.038571049
       2395.9583     0.027518508
       2396.5997     0.046327076
       2397.2410     0.011937519
       2397.8824    0.0018386514
       2398.5238     0.010787503
       2399.1652     0.015921431
       2399.8066     0.021139416
       2400.4479     0.034733185
       2401.0893     0.034679029
       2401.7307     0.036061481
       2402.3721     0.014787397
       2403.0134     0.027220693
       2403.6548     0.047693323
       2404.2962    0.0074592939
       2404.9376     0.036778577
       2405.5790    0.0073346948
       2406.2203     0.018114375
       2406.8617    -0.011280525
       2407.5031     0.022654278
       2408.1445     0.035667018
       2408.7858     0.019460821
       2409.4272     0.010485279
       2410.0686     0.031791697
       2410.7100     0.024607333
       2411.3514     0.038205962
       2411.9927     0.027955789
       2412.6341     0.011379410
       2413.2755    0.0010419391
       2413.9169     0.028769863
       2414.5582     0.022440858
       2415.1996    0.0069863174
       2415.8410    0.0011683425
       2416.4824   -0.0016813108
       2417.1237    0.0017353183
       2417.7651    0.0073724272
       2418.4065     0.023054447
       2419.0479     0.036223283
       2419.6893     0.039396651
       2420.3306   -0.0094108665
       2420.9720   -0.0099214646
       2421.6134     0.013110135
       2422.2548     0.034964444
       2422.8961    0.0085421388
       2423.5375    0.0087030475
       2424.1789     0.012978649
       2424.8203     0.017433332
       2425.4617     0.039691732
       2426.1030     0.029276095
       2426.7444     0.019760717
       2427.3858     0.032137303
       2428.0272     0.065163291
       2428.6685     0.022267837
       2429.3099     0.036714173
       2429.9513     0.019353345
       2430.5927     0.028966351
       2431.2341     0.028209657
       2431.8754     0.025905706
       2432.5168     0.033143643
       2433.1582     0.021300060
       2433.7996     0.037063328
       2434.4409     0.067101150
       2435.0823     0.031333737
       2435.7237   -0.0022314696
       2436.3651    -0.010252327
       2437.0065     0.014223756
       2437.6478    -0.010792210
       2438.2892     0.036190625
       2438.9306     0.040451758
       2439.5720     0.032490896
       2440.2133     0.020227222
       2440.8547    0.0075435960
       2441.4961    0.0015797020
       2442.1375     0.020370969
       2442.7789     0.039160554
       2443.4202     0.034432457
       2444.0616     0.028468475
       2444.7030     0.043761321
       2445.3444     0.023670050
       2445.9857     0.053151543
       2446.6271     0.031975574
       2447.2685     0.043434427
       2447.9099     0.023078208
       2448.5513     0.026472513
       2449.1926     0.019877046
       2449.8340     0.014097723
       2450.4754     0.024443657
       2451.1168     0.039329686
       2451.7581     0.012079759
       2452.3995     0.024802175
       2453.0409    0.0064255398
       2453.6823     0.010690798
       2454.3237     0.033863289
       2454.9650     0.044428593
       2455.6064     0.033903084
       2456.2478     0.029753500
       2456.8892     0.032187688
       2457.5305     0.031049971
       2458.1719     0.028365057
       2458.8133     0.059929189
       2459.4547     0.013975986
       2460.0961     0.026885126
       2460.7374     0.028724454
       2461.3788     0.011510241
       2462.0202     0.031329383
       2462.6616     0.020160607
       2463.3029     0.027040515
       2463.9443     0.024790172
       2464.5857     0.041543200
       2465.2271     0.019173390
       2465.8685     0.013678317
       2466.5098     0.033770271
       2467.1512     0.029164462
       2467.7926     0.049531475
       2468.4340     0.046931137
       2469.0753     0.042179266
       2469.7167     0.038456507
       2470.3581     0.044725196
       2470.9995     0.050314067
       2471.6409     0.029686299
       2472.2822     0.020286012
       2472.9236     0.041389818
       2473.5650     0.029567884
       2474.2064     0.030006273
       2474.8477     0.028598769
       2475.4891     0.030072890
       2476.1305     0.045229484
       2476.7719     0.043028517
       2477.4133     0.049995099
       2478.0546     0.030139054
       2478.6960     0.024465546
       2479.3374     0.019047323
       2479.9788    0.0099239411
       2480.6201     0.034444941
       2481.2615     0.051967376
       2481.9029     0.067199808
       2482.5443     0.051880675
       2483.1856     0.042258365
       2483.8270    0.0083447431
       2484.4684    0.0024397604
       2485.1098     0.010227316
       2485.7512     0.019981218
       2486.3925     0.031099565
       2487.0339     0.032687320
       2487.6753     0.048584826
       2488.3167     0.038147072
       2488.9580     0.030741665
       2489.5994     0.055737104
       2490.2408     0.039361077
       2490.8822     0.020571835
       2491.5236     0.038052199
       2492.1649     0.044618033
       2492.8063     0.028605894
       2493.4477     0.038944549
       2494.0891     0.053147843
       2494.7304     0.072023413
       2495.3718     0.019465743
       2496.0132     0.026166855
       2496.6546    0.0074841219
       2497.2960     0.034514525
       2497.9373     0.045768700
       2498.5787     0.039252854
       2499.2201     0.030181608
       2499.8615     0.031838082
       2500.5028     0.029430800
       2501.1442     0.015898149
       2501.7856     0.025484176
       2502.4270     0.018480635
       2503.0684    -0.012504787
       2503.7097     0.044084769
       2504.3511     0.021021724
       2504.9925     0.026195249
       2505.6339     0.024130425
       2506.2752     0.015238877
       2506.9166     0.026919585
       2507.5580     0.033721388
       2508.1994     0.052846952
       2508.8408     0.027500418
       2509.4821     0.049109324
       2510.1235     0.055193278
       2510.7649     0.041878278
       2511.4063     0.034588838
       2512.0476     0.062762467
       2512.6890     0.051304487
       2513.3304     0.018860446
       2513.9718     0.034943862
       2514.6132     0.023567074
       2515.2545     0.024123904
       2515.8959     0.033909649
       2516.5373     0.021495621
       2517.1787     0.038544809
       2517.8200     0.037402439
       2518.4614     0.032419636
       2519.1028     0.048634407
       2519.7442     0.039684430
       2520.3856     0.044261861
       2521.0269     0.030027462
       2521.6683     0.062028662
       2522.3097     0.041835672
       2522.9511     0.014252983
       2523.5924     0.025406183
       2524.2338     0.037798831
       2524.8752     0.033996276
       2525.5166     0.025786107
       2526.1580     0.034433278
       2526.7993     0.043437268
       2527.4407     0.045259265
       2528.0821     0.053966813
       2528.7235     0.031373848
       2529.3648     0.025006722
       2530.0062     0.031467074
       2530.6476     0.026509438
       2531.2890     0.030274957
       2531.9304     0.047495972
       2532.5717     0.029831585
       2533.2131     0.021508491
       2533.8545   0.00074267256
       2534.4959     0.013046323
       2535.1372     0.026128545
       2535.7786     0.014233205
       2536.4200     0.038612946
       2537.0614     0.046332959
       2537.7028     0.014833210
       2538.3441     0.020834078
       2538.9855     0.023716013
       2539.6269     0.028759824
       2540.2683     0.021755908
       2540.9096     0.026896783
       2541.5510     0.018634785
       2542.1924     0.025022774
       2542.8338     0.030040259
       2543.4752     0.025784009
       2544.1165     0.047642703
       2544.7579     0.050805583
       2545.3993     0.062457944
       2546.0407     0.061629422
       2546.6820     0.052318648
       2547.3234    0.0093919517
       2547.9648     0.025756136
       2548.6062     0.038535911
       2549.2476     0.036977312
       2549.8889     0.036812935
       2550.5303     0.027716017
       2551.1717     0.028731817
       2551.8131     0.034886903
       2552.4544     0.017845021
       2553.0958     0.021483995
       2553.7372   0.00053319321
       2554.3786     0.039975888
       2555.0199     0.043991554
       2555.6613     0.038938613
       2556.3027     0.046709478
       2556.9441     0.041114749
       2557.5855     0.028699320
       2558.2268     0.041072294
       2558.8682     0.035719426
       2559.5096     0.032798298
       2560.1510     0.047705048
       2560.7923     0.050886690
       2561.4337     0.072436662
       2562.0751     0.028144116
       2562.7165     0.035223458
       2563.3579     0.035168462
       2563.9992     0.046841095
       2564.6406     0.037535904
       2565.2820     0.042085242
       2565.9234     0.047264623
       2566.5647     0.016592352
       2567.2061     0.014011103
       2567.8475     0.016511141
       2568.4889     0.039232672
       2569.1303     0.061920253
       2569.7716     0.051619519
       2570.4130     0.041625707
       2571.0544     0.020194975
       2571.6958     0.010550872
       2572.3371     0.020483144
       2572.9785     0.030222086
       2573.6199     0.029248133
       2574.2613     0.021967294
       2574.9027     0.017507191
       2575.5440     0.016725368
       2576.1854     0.015900269
       2576.8268     0.036359602
       2577.4682     0.046373483
       2578.1095     0.043520587
       2578.7509     0.064745740
       2579.3923     0.051372399
       2580.0337     0.025310630
       2580.6751     0.032772149
       2581.3164     0.028449080
       2581.9578     0.023211639
       2582.5992     0.039933341
       2583.2406     0.059536560
       2583.8819     0.054528880
       2584.5233     0.057938292
       2585.1647     0.037113755
       2585.8061     0.027256359
       2586.4475     0.028239978
       2587.0888     0.053252540
       2587.7302     0.049378432
       2588.3716     0.027085933
       2589.0130     0.012730526
       2589.6543     0.033563643
       2590.2957     0.029600015
       2590.9371     0.022483956
       2591.5785     0.032057214
       2592.2199    0.0090316172
       2592.8612     0.016847506
       2593.5026     0.043024770
       2594.1440     0.012046680
       2594.7854     0.046799458
       2595.4267     0.028726742
       2596.0681     0.021110768
       2596.7095     0.040810571
       2597.3509     0.046368414
       2597.9923     0.049862588
       2598.6336     0.050895138
       2599.2750     0.028573950
       2599.9164     0.027068739
       2600.5578     0.039060601
       2601.1991     0.025236265
       2601.8405     0.032061496
       2602.4819     0.038888007
       2603.1233     0.024296164
       2603.7647     0.028099476
       2604.4060     0.028488568
       2605.0474     0.013956649
       2605.6888     0.018674582
       2606.3302     0.015129913
       2606.9715    0.0083769356
       2607.6129     0.014620905
       2608.2543     0.032204012
       2608.8957     0.020813162
       2609.5371     0.038522661
       2610.1784     0.050116446
       2610.8198     0.030474141
       2611.4612     0.010823137
       2612.1026     0.040944926
       2612.7439     0.014073103
       2613.3853     0.027786895
       2614.0267     0.041563873
       2614.6681     0.053217731
       2615.3095     0.030564042
       2615.9508     0.028609194
       2616.5922     0.059829765
       2617.2336     0.044314234
       2617.8750     0.035414310
       2618.5163     0.035524253
       2619.1577     0.022920618
       2619.7991     0.032845156
       2620.4405     0.036827007
       2621.0818     0.075790555
       2621.7232     0.033063030
       2622.3646     0.069553599
       2623.0060     0.067488013
       2623.6474     0.034763962
       2624.2887     0.057564540
       2624.9301     0.066423803
       2625.5715     0.064457500
       2626.2129     0.046235699
       2626.8542     0.032199001
       2627.4956     0.024313775
       2628.1370     0.043472337
       2628.7784     0.059301624
       2629.4198     0.032886359
       2630.0611     0.030468505
       2630.7025     0.053468467
       2631.3439     0.072157192
       2631.9853     0.038255974
       2632.6266     0.053640007
       2633.2680     0.031337544
       2633.9094     0.035191141
       2634.5508     0.056251672
       2635.1922     0.016147864
       2635.8335     0.018526956
       2636.4749     0.046822384
       2637.1163     0.055290313
       2637.7577     0.034554600
       2638.3990     0.036938244
       2639.0404     0.043927483
       2639.6818     0.045451014
       2640.3232     0.066624126
       2640.9646     0.060392244
       2641.6059     0.072390612
       2642.2473     0.076412555
       2642.8887     0.054465885
       2643.5301     0.063928595
       2644.1714     0.042389591
       2644.8128    0.0042773497
       2645.4542    -0.037592730
       2646.0956   -0.0065867548
       2646.7370     0.025808559
       2647.3783     0.056964882
       2648.0197     0.056308553
       2648.6611     0.034156500
       2649.3025     0.034236983
       2649.9438     0.039485196
       2650.5852     0.089506876
       2651.2266     0.042266210
       2651.8680     0.020573476
       2652.5094     0.039463406
       2653.1507     0.029550278
       2653.7921     0.059047001
       2654.4335     0.026209254
       2655.0749    0.0012576865
       2655.7162     0.036823084
       2656.3576     0.068825062
       2656.9990     0.045300773
       2657.6404     0.044571595
       2658.2818     0.070081970
       2658.9231     0.081969550
       2659.5645     0.046907851
       2660.2059     0.028995291
       2660.8473     0.067201903
       2661.4886     0.048032196
       2662.1300    0.0055809208
       2662.7714     0.038968949
       2663.4128     0.039115947
       2664.0542     0.020485099
       2664.6955     0.042298958
       2665.3369     0.033875846
       2665.9783     0.050297612
       2666.6197      0.10988136
       2667.2610     0.068484173
       2667.9024     0.058723416
       2668.5438     0.039476156
       2669.1852     0.039201287
       2669.8266     0.058272507
       2670.4679     0.057807952
       2671.1093     0.031493869
       2671.7507     0.025407209
       2672.3921     0.045044637
       2673.0334     0.053617345
       2673.6748     0.028801241
       2674.3162     0.025506833
       2674.9576     0.049344588
       2675.5990     0.066180376
       2676.2403     0.081427648
       2676.8817     0.072060803
       2677.5231     0.043988307
       2678.1645     0.069025217
       2678.8058     0.044557053
       2679.4472     0.026189679
       2680.0886     0.043210648
       2680.7300     0.050804314
       2681.3714     0.043122589
       2682.0127     0.050563549
       2682.6541     0.052428507
       2683.2955     0.027872347
       2683.9369     0.040676536
       2684.5782     0.022518130
       2685.2196     0.013556067
       2685.8610     0.051675185
       2686.5024     0.039266355
       2687.1438     0.020765234
       2687.7851     0.034671358
       2688.4265     0.029019096
       2689.0679     0.041885390
       2689.7093     0.049730512
       2690.3506     0.066083343
       2690.9920     0.064045973
       2691.6334     0.046410949
       2692.2748     0.046114516
       2692.9161     0.050094711
       2693.5575     0.039815940
       2694.1989     0.039930637
       2694.8403     0.033414880
       2695.4817     0.020299350
       2696.1230     0.039319528
       2696.7644     0.039759511
       2697.4058     0.013625077
       2698.0472     0.021021990
       2698.6885     0.044265259
       2699.3299     0.035799068
       2699.9713     0.047753136
       2700.6127     0.049870867
       2701.2541     0.038813454
       2701.8954     0.067021833
       2702.5368     0.066897691
       2703.1782     0.052060919
       2703.8196     0.064460913
       2704.4609     0.067390240
       2705.1023     0.062848482
       2705.7437     0.060297343
       2706.3851     0.075745551
       2707.0265     0.033524167
       2707.6678     0.013958184
       2708.3092     0.037165462
       2708.9506     0.047983294
       2709.5920     0.030935520
       2710.2333     0.078490534
       2710.8747     0.041848811
       2711.5161    0.0096132414
       2712.1575    0.0084157091
       2712.7989     0.016629374
       2713.4402     0.042851990
       2714.0816     0.054186984
       2714.7230     0.051800323
       2715.3644     0.074396623
       2716.0057     0.046760601
       2716.6471    0.0096024979
       2717.2885     0.049231271
       2717.9299     0.040958302
       2718.5713     0.044790729
       2719.2126     0.044110007
       2719.8540     0.037287649
       2720.4954     0.047642656
       2721.1368     0.035998132
       2721.7781     0.048007528
       2722.4195     0.025974393
       2723.0609     0.057963418
       2723.7023     0.042805005
       2724.3437     0.047029101
       2724.9850     0.028507842
       2725.6264     0.033701680
       2726.2678     0.027871039
       2726.9092     0.053364139
       2727.5505     0.052572850
       2728.1919     0.069656820
       2728.8333     0.083753636
       2729.4747     0.066025013
       2730.1161     0.078346904
       2730.7574     0.068515666
       2731.3988     0.038482876
       2732.0402     0.034501528
       2732.6816     0.041852590
       2733.3229     0.047565100
       2733.9643     0.014900434
       2734.6057     0.035578244
       2735.2471     0.060787126
       2735.8885     0.074308455
       2736.5298     0.061864671
       2737.1712     0.056012052
       2737.8126     0.012740325
       2738.4540     0.010773980
       2739.0953     0.041119980
       2739.7367     0.035969675
       2740.3781     0.034817243
       2741.0195     0.057416200
       2741.6609     0.046366452
       2742.3022     0.055023747
       2742.9436     0.032590622
       2743.5850     0.027047764
       2744.2264     0.044868995
       2744.8677     0.059389203
       2745.5091     0.073706221
       2746.1505     0.048211689
       2746.7919     0.050190540
       2747.4333     0.041079408
       2748.0746     0.039831043
       2748.7160     0.055799006
       2749.3574     0.050399522
       2749.9988     0.044162793
       2750.6401     0.068137999
       2751.2815     0.050154584
       2751.9229     0.040108570
       2752.5643     0.029152316
       2753.2057     0.064082145
       2753.8470     0.058563469
       2754.4884     0.059085889
       2755.1298     0.039499567
       2755.7712     0.050816181
       2756.4125     0.054589645
       2757.0539     0.027946305
       2757.6953     0.017231956
       2758.3367     0.050515945
       2758.9780     0.062384270
       2759.6194     0.075770772
       2760.2608     0.095958573
       2760.9022      0.16793197
       2761.5436      0.37304601
       2762.1849      0.33911617
       2762.8263      0.35830139
       2763.4677      0.47052107
       2764.1091      0.30953633
       2764.7504      0.14997058
       2765.3918     0.082893640
       2766.0332     0.061372292
       2766.6746     0.061727627
       2767.3160     0.073749722
       2767.9573     0.072617236
       2768.5987     0.045966167
       2769.2401     0.024276007
       2769.8815     0.017290338
       2770.5228     0.038271160
       2771.1642     0.055511294
       2771.8056     0.054542166
       2772.4470     0.059685744
       2773.0884     0.082772031
       2773.7297     0.050805221
       2774.3711     0.059630809
       2775.0125     0.055526693
       2775.6539     0.015914334
       2776.2952     0.026892383
       2776.9366     0.051904769
       2777.5780     0.053410355
       2778.2194     0.039646786
       2778.8608     0.032138656
       2779.5021     0.042088108
       2780.1435     0.018742927
       2780.7849     0.030917780
       2781.4263     0.044807036
       2782.0676     0.046857771
       2782.7090     0.066950784
       2783.3504     0.039211590
       2783.9918     0.049233745
       2784.6332     0.068018355
       2785.2745     0.058853602
       2785.9159     0.063942805
       2786.5573     0.050382842
       2787.1987     0.043116385
       2787.8400     0.035861018
       2788.4814     0.041520638
       2789.1228     0.028401565
       2789.7642    0.0089024129
       2790.4056     0.031685332
       2791.0469     0.040098647
       2791.6883     0.072020113
       2792.3297     0.054791789
       2792.9711     0.052872308
       2793.6124     0.027933603
       2794.2538     0.031921829
       2794.8952     0.070584645
       2795.5366     0.053625754
       2796.1780     0.048688587
       2796.8193     0.013398227
       2797.4607    0.0068046327
       2798.1021     0.024771953
       2798.7435    0.0053665593
       2799.3848   -0.0062454651
       2800.0262    0.0061946090
       2800.6676     0.054148292
       2801.3090     0.070300265
       2801.9504     0.037384253
       2802.5917     0.029350617
       2803.2331    0.0075374133
       2803.8745    0.0018599269
       2804.5159     0.038336262
       2805.1572     0.032012798
       2805.7986   0.00064443520
       2806.4400    -0.016913687
       2807.0814     0.027997341
       2807.7228     0.038606908
       2808.3641     0.012443222
       2809.0055   -0.0097372285
       2809.6469     0.031142099
       2810.2883     0.053134078
       2810.9296     0.041540728
       2811.5710     0.064222585
       2812.2124     0.043009045
       2812.8538     0.022946915
       2813.4952     0.070225464
       2814.1365     0.060722319
       2814.7779     0.046389782
       2815.4193     0.047805504
       2816.0607     0.057485079
       2816.7020     0.037266234
       2817.3434     0.062678396
       2817.9848     0.091421737
       2818.6262     0.061967664
       2819.2676     0.047173395
       2819.9089     0.025760235
       2820.5503     0.037607394
       2821.1917     0.058043926
       2821.8331     0.018219145
       2822.4744     0.037882894
       2823.1158     0.063041521
       2823.7572     0.051922684
       2824.3986     0.047993233
       2825.0400     0.046860586
       2825.6813     0.037932230
       2826.3227     0.022594112
       2826.9641     0.020586655
       2827.6055     0.055625509
       2828.2468     0.053496984
       2828.8882     0.063444647
       2829.5296     0.066185137
       2830.1710     0.049712027
       2830.8123     0.038383055
       2831.4537     0.054689134
       2832.0951     0.069219004
       2832.7365     0.064424331
       2833.3779     0.046641740
       2834.0192     0.060347920
       2834.6606     0.059260064
       2835.3020     0.038671076
       2835.9434     0.069611896
       2836.5847     0.060903515
       2837.2261     0.060333059
       2837.8675     0.082164270
       2838.5089     0.077416866
       2839.1503     0.049609256
       2839.7916     0.029556948
       2840.4330     0.035616825
       2841.0744     0.046284445
       2841.7158     0.038688067
       2842.3571     0.063914364
       2842.9985     0.057480338
       2843.6399     0.038115968
       2844.2813     0.031127268
       2844.9227     0.051971615
       2845.5640     0.074013726
       2846.2054     0.081627550
       2846.8468     0.075345769
       2847.4882     0.055120999
       2848.1295     0.060351013
       2848.7709     0.063399817
       2849.4123     0.044991307
       2850.0537     0.060498405
       2850.6951     0.088295417
       2851.3364     0.079368457
       2851.9778     0.052822860
       2852.6192     0.037325827
       2853.2606     0.063531545
       2853.9019     0.029064822
       2854.5433     0.022807656
       2855.1847     0.026649104
       2855.8261     0.036848030
       2856.4675     0.036231548
       2857.1088     0.029093614
       2857.7502     0.028513106
       2858.3916     0.062904999
       2859.0330     0.048092291
       2859.6743     0.024570823
       2860.3157     0.037570743
       2860.9571     0.040164439
       2861.5985     0.043976529
       2862.2399     0.050081546
       2862.8812     0.063766441
       2863.5226     0.056197955
       2864.1640     0.049833556
       2864.8054     0.041029346
       2865.4467     0.055471518
       2866.0881     0.057802604
       2866.7295     0.050244386
       2867.3709     0.041269664
       2868.0123     0.060911836
       2868.6536     0.058151248
       2869.2950     0.063491458
       2869.9364     0.059271686
       2870.5778     0.068215887
       2871.2191     0.079950007
       2871.8605     0.095013618
       2872.5019     0.056826398
       2873.1433     0.022290308
       2873.7847     0.038594923
       2874.4260     0.037641260
       2875.0674     0.038374159
       2875.7088     0.088483372
       2876.3502     0.055921863
       2876.9915     0.059609077
       2877.6329     0.051157600
       2878.2743     0.033493352
       2878.9157     0.032137633
       2879.5571     0.065142800
       2880.1984     0.037170276
       2880.8398     0.031616340
       2881.4812     0.037416145
       2882.1226     0.033539802
       2882.7639     0.045088663
       2883.4053     0.035911096
       2884.0467     0.038834597
       2884.6881     0.055063529
       2885.3295     0.065679350
       2885.9708     0.066547440
       2886.6122     0.066923319
       2887.2536     0.067945925
       2887.8950     0.061407603
       2888.5363     0.072727883
       2889.1777     0.085219475
       2889.8191     0.086735751
       2890.4605     0.064567386
       2891.1019     0.044199650
       2891.7432     0.077890059
       2892.3846     0.090365622
       2893.0260     0.059552873
       2893.6674     0.032366749
       2894.3087     0.022433323
       2894.9501     0.043461956
       2895.5915     0.083003763
       2896.2329     0.078331167
       2896.8742     0.054435955
       2897.5156     0.084462383
       2898.1570     0.057218371
       2898.7984     0.043700602
       2899.4398     0.045579123
       2900.0811     0.069437711
       2900.7225     0.059270254
       2901.3639     0.053413401
       2902.0053     0.030355355
       2902.6466     0.025552705
       2903.2880     0.076024872
       2903.9294     0.069224800
       2904.5708     0.079181362
       2905.2122     0.036900158
       2905.8535     0.041474877
       2906.4949     0.064092327
       2907.1363     0.068803616
       2907.7777     0.068925588
       2908.4190     0.090603254
       2909.0604     0.060966925
       2909.7018     0.054974165
       2910.3432     0.051261452
       2910.9846     0.053815177
       2911.6259     0.043322121
       2912.2673     0.036199024
       2912.9087     0.079257414
       2913.5501     0.096776273
       2914.1914     0.072488668
       2914.8328     0.049265037
       2915.4742     0.076839667
       2916.1156     0.033057108
       2916.7570     0.065817903
       2917.3983     0.079184245
       2918.0397     0.072578202
       2918.6811     0.077377630
       2919.3225     0.071611216
       2919.9638     0.064824319
       2920.6052     0.075179715
       2921.2466     0.071920237
       2921.8880     0.059624560
       2922.5294     0.040446410
       2923.1707     0.037035065
       2923.8121     0.069550454
       2924.4535     0.065931176
       2925.0949     0.057812243
       2925.7362     0.068546021
       2926.3776     0.067503515
       2927.0190     0.040166506
       2927.6604     0.027357120
       2928.3018     0.036355274
       2928.9431     0.045911766
       2929.5845     0.046868587
       2930.2259     0.049116020
       2930.8673      0.10369214
       2931.5086     0.093418117
       2932.1500     0.080070541
       2932.7914     0.071822361
       2933.4328     0.056072342
       2934.0742     0.061769912
       2934.7155     0.049147032
       2935.3569     0.088009196
       2935.9983     0.056911665
       2936.6397     0.072293918
       2937.2810     0.086792134
       2937.9224     0.061958468
       2938.5638     0.074884756
       2939.2052     0.057617251
       2939.8466     0.043061559
       2940.4879     0.031749103
       2941.1293     0.029451991
       2941.7707     0.053451749
       2942.4121     0.071026198
       2943.0534     0.074347202
       2943.6948     0.065335179
       2944.3362     0.055023649
       2944.9776     0.068060257
       2945.6190     0.071515348
       2946.2603     0.064098766
       2946.9017     0.065005849
       2947.5431     0.064403003
       2948.1845     0.074622062
       2948.8258     0.075023533
       2949.4672     0.060936544
       2950.1086     0.057909976
       2950.7500     0.051914805
       2951.3914     0.050824321
       2952.0327     0.061436212
       2952.6741     0.072266474
       2953.3155     0.025503466
       2953.9569     0.044490994
       2954.5982     0.040156908
       2955.2396     0.058928381
       2955.8810     0.089027069
       2956.5224     0.062521412
       2957.1638     0.045391079
       2957.8051     0.072148905
       2958.4465     0.074427088
       2959.0879     0.065297006
       2959.7293     0.058187079
       2960.3706     0.076994701
       2961.0120     0.088123390
       2961.6534     0.065207218
       2962.2948     0.096332346
       2962.9362     0.059271426
       2963.5775     0.043557537
       2964.2189     0.070631477
       2964.8603     0.071483127
       2965.5017     0.097472182
       2966.1430     0.083442607
       2966.7844     0.081519148
       2967.4258     0.071523830
       2968.0672     0.045422829
       2968.7085     0.037347708
       2969.3499     0.061603155
       2969.9913     0.089419440
       2970.6327     0.062715061
       2971.2741     0.085371989
       2971.9154      0.10143528
       2972.5568     0.070949092
       2973.1982     0.080562667
       2973.8396     0.093211137
       2974.4809     0.078220934
       2975.1223     0.075418955
       2975.7637     0.070483895
       2976.4051     0.052777879
       2977.0465     0.076886753
       2977.6878     0.072552580
       2978.3292     0.046296091
       2978.9706     0.048632929
       2979.6120     0.058509997
       2980.2533      0.10212087
       2980.8947      0.10867463
       2981.5361      0.10450157
       2982.1775     0.074057997
       2982.8189     0.063461507
       2983.4602     0.081560538
       2984.1016     0.077820167
       2984.7430     0.064754519
       2985.3844     0.064050154
       2986.0257     0.061373522
       2986.6671     0.071023688
       2987.3085     0.055532588
       2987.9499     0.064611449
       2988.5913     0.092169592
       2989.2326     0.086201230
       2989.8740     0.049312783
       2990.5154     0.060195956
       2991.1568      0.10687471
       2991.7981     0.079934102
       2992.4395     0.080464735
       2993.0809     0.055652178
       2993.7223     0.033125169
       2994.3637     0.044319645
       2995.0050     0.061092077
       2995.6464     0.076751738
       2996.2878     0.073627127
       2996.9292     0.071470263
       2997.5705     0.077946863
       2998.2119     0.047198764
       2998.8533     0.076078773
       2999.4947     0.091004733
       3000.1361     0.061574651
       3000.7774     0.087110779
       3001.4188     0.095946837
       3002.0602     0.089719884
       3002.7016     0.076848599
       3003.3429     0.045102888
       3003.9843     0.059932187
       3004.6257     0.090126692
       3005.2671     0.082630309
       3005.9085     0.056372895
       3006.5498     0.055189442
       3007.1912     0.060744158
       3007.8326     0.067529013
       3008.4740     0.061835177
       3009.1153     0.054880430
       3009.7567     0.057288043
       3010.3981     0.074763603
       3011.0395     0.087891693
       3011.6809     0.086186237
       3012.3222     0.078740213
       3012.9636     0.058369188
       3013.6050     0.049518016
       3014.2464     0.067384347
       3014.8877     0.055358309
       3015.5291     0.060278546
       3016.1705     0.069484883
       3016.8119     0.073952306
       3017.4533     0.071196711
       3018.0946     0.058708790
       3018.7360     0.066787159
       3019.3774     0.082376981
       3020.0188     0.085402309
       3020.6601     0.064038120
       3021.3015     0.075557817
       3021.9429     0.066179582
       3022.5843     0.060640190
       3023.2257     0.046469853
       3023.8670     0.080919691
       3024.5084     0.081502449
       3025.1498     0.078196707
       3025.7912     0.071158866
       3026.4325     0.061334355
       3027.0739     0.076833481
       3027.7153     0.063841362
       3028.3567     0.073389807
       3028.9981     0.062807780
       3029.6394     0.085023337
       3030.2808     0.089496337
       3030.9222     0.045044845
       3031.5636     0.049659803
       3032.2049     0.062550922
       3032.8463     0.080786580
       3033.4877     0.085323549
       3034.1291     0.079019296
       3034.7705     0.085770497
       3035.4118     0.081756728
       3036.0532     0.061212901
       3036.6946     0.074741251
       3037.3360     0.076960758
       3037.9773     0.082911003
       3038.6187     0.074891211
       3039.2601     0.060997922
       3039.9015     0.050599135
       3040.5428     0.051508828
       3041.1842     0.064082382
       3041.8256     0.073660177
       3042.4670     0.090035322
       3043.1084     0.088122923
       3043.7497     0.068735572
       3044.3911     0.058502603
       3045.0325     0.082963011
       3045.6739     0.098801291
       3046.3152     0.085612908
       3046.9566     0.046720145
       3047.5980     0.066650679
       3048.2394     0.070667772
       3048.8808     0.055565157
       3049.5221     0.088214416
       3050.1635     0.090033715
       3050.8049     0.090314230
       3051.4463      0.10254521
       3052.0876     0.098614495
       3052.7290     0.091970944
       3053.3704     0.068079318
       3054.0118     0.057992307
       3054.6532     0.060474052
       3055.2945     0.083293212
       3055.9359     0.072610193
       3056.5773     0.091874659
       3057.2187     0.087808706
       3057.8600     0.065774528
       3058.5014      0.10087045
       3059.1428     0.082496746
       3059.7842     0.072987732
       3060.4256     0.089298636
       3061.0669     0.063171451
       3061.7083     0.050605673
       3062.3497     0.084148623
       3062.9911     0.084531169
       3063.6324     0.077333225
       3064.2738     0.061080354
       3064.9152     0.053862273
       3065.5566     0.065806506
       3066.1980     0.054646868
       3066.8393     0.057052214
       3067.4807     0.057031216
       3068.1221     0.085015787
       3068.7635     0.065892951
       3069.4048     0.059268241
       3070.0462     0.088650389
       3070.6876     0.052869860
       3071.3290     0.063229104
       3071.9704     0.075848849
       3072.6117     0.087589672
       3073.2531     0.069477982
       3073.8945     0.061154188
       3074.5359     0.058382961
       3075.1772     0.077051695
       3075.8186     0.076965646
       3076.4600     0.057963515
       3077.1014     0.068347506
       3077.7428     0.060242251
       3078.3841     0.057196272
       3079.0255     0.088423521
       3079.6669     0.087099264
       3080.3083      0.11054028
       3080.9496      0.12342135
       3081.5910     0.078254880
       3082.2324     0.058326952
       3082.8738     0.075367486
       3083.5152     0.079957442
       3084.1565     0.066293275
       3084.7979     0.055024756
       3085.4393     0.072044308
       3086.0807     0.098583653
       3086.7220     0.081474718
       3087.3634     0.068967003
       3088.0048     0.039190438
       3088.6462     0.067746380
       3089.2876     0.071701868
       3089.9289     0.090643895
       3090.5703     0.055617493
       3091.2117     0.055595726
       3091.8531     0.055445607
       3092.4944     0.056801021
       3093.1358     0.081046457
       3093.7772     0.059557750
       3094.4186     0.072474709
       3095.0600     0.087476795
       3095.7013      0.10280560
       3096.3427     0.088196345
       3096.9841     0.086242372
       3097.6255     0.076933994
       3098.2668     0.048133643
       3098.9082     0.062637709
       3099.5496     0.033068026
       3100.1910     0.015245541
       3100.8324     0.050901197
       3101.4737     0.051469886
       3102.1151     0.071725152
       3102.7565     0.049970988
       3103.3979     0.091710778
       3104.0392      0.10719886
       3104.6806      0.10825255
       3105.3220     0.092244479
       3105.9634     0.083223246
       3106.6047     0.066440574
       3107.2461     0.084550533
       3107.8875     0.080445302
       3108.5289     0.084256925
       3109.1703     0.072226810
       3109.8116     0.099158967
       3110.4530     0.074629565
       3111.0944     0.054458580
       3111.7358     0.048539503
       3112.3771     0.059488448
       3113.0185     0.056808702
       3113.6599     0.074444135
       3114.3013     0.095435890
       3114.9427      0.10861491
       3115.5840      0.10490917
       3116.2254     0.085785000
       3116.8668     0.064844604
       3117.5082     0.073477182
       3118.1495     0.066789692
       3118.7909     0.082081484
       3119.4323     0.083720909
       3120.0737     0.075037657
       3120.7151     0.078575063
       3121.3564     0.073861418
       3121.9978     0.096461004
       3122.6392     0.085561581
       3123.2806     0.037929351
       3123.9219     0.070011089
       3124.5633     0.083871818
       3125.2047     0.092725315
       3125.8461     0.060173379
       3126.4875     0.069223175
       3127.1288     0.063529684
       3127.7702     0.049625647
       3128.4116     0.078648673
       3129.0530     0.070737158
       3129.6943     0.058090561
       3130.3357     0.095269373
       3130.9771      0.11352079
       3131.6185     0.062002463
       3132.2599     0.083088534
       3132.9012     0.079107816
       3133.5426     0.087089016
       3134.1840     0.082639546
       3134.8254     0.081366170
       3135.4667     0.084977169
       3136.1081     0.075251376
       3136.7495     0.088044698
       3137.3909     0.093150313
       3138.0323      0.11089019
       3138.6736     0.071052150
       3139.3150     0.048227317
       3139.9564     0.076265681
       3140.5978      0.11440644
       3141.2391     0.092155240
       3141.8805     0.035324523
       3142.5219     0.036960717
       3143.1633     0.037422584
       3143.8047     0.076009348
       3144.4460     0.059918280
       3145.0874     0.033264872
       3145.7288     0.047562636
       3146.3702     0.073769626
       3147.0115     0.075415986
       3147.6529     0.047355322
       3148.2943     0.087409587
       3148.9357     0.093992524
       3149.5771     0.045030746
       3150.2184     0.016410936
       3150.8598     0.070216966
       3151.5012     0.061088928
       3152.1426     0.097332822
       3152.7839      0.11353598
       3153.4253     0.080614137
       3154.0667     0.057596836
       3154.7081     0.077738088
       3155.3495     0.099090656
       3155.9908     0.072918786
       3156.6322     0.069029045
       3157.2736     0.075154419
       3157.9150      0.10020035
       3158.5563     0.096335858
       3159.1977     0.073665934
       3159.8391     0.051869797
       3160.4805     0.051360714
       3161.1219     0.074708277
       3161.7632     0.057137376
       3162.4046     0.067040656
       3163.0460     0.080842504
       3163.6874     0.077443031
       3164.3287     0.064988291
       3164.9701     0.071163474
       3165.6115     0.052521245
       3166.2529     0.067294719
       3166.8943     0.079815122
       3167.5356      0.10135227
       3168.1770      0.11121547
       3168.8184     0.093577130
       3169.4598     0.076330691
       3170.1011     0.099876783
       3170.7425      0.11289054
       3171.3839     0.061279223
       3172.0253     0.064048838
       3172.6667     0.077019875
       3173.3080     0.031874358
       3173.9494     0.047275280
       3174.5908     0.074320630
       3175.2322     0.085011370
       3175.8735      0.11775432
       3176.5149     0.099529048
       3177.1563     0.040845294
       3177.7977     0.058245601
       3178.4390     0.027460693
       3179.0804     0.032041318
       3179.7218     0.047020072
       3180.3632     0.039923745
       3181.0046     0.041209206
       3181.6459     0.060586966
       3182.2873     0.039417924
       3182.9287     0.056979517
       3183.5701     0.092377698
       3184.2114     0.073448996
       3184.8528     0.074432179
       3185.4942     0.040250172
       3186.1356     0.059201338
       3186.7770     0.057801824
       3187.4183     0.059904132
       3188.0597     0.050718668
       3188.7011     0.059822221
       3189.3425     0.067366502
       3189.9838      0.10001618
       3190.6252     0.046832264
       3191.2666     0.070466283
       3191.9080     0.049019838
       3192.5494     0.085262699
       3193.1907     0.095799305
       3193.8321     0.099754007
       3194.4735     0.085115516
       3195.1149     0.070590788
       3195.7562     0.064703930
       3196.3976     0.098918175
       3197.0390      0.10283822
       3197.6804     0.076555148
       3198.3218     0.067415247
       3198.9631     0.086342204
       3199.6045     0.095233104
       3200.2459     0.086399306
       3200.8873     0.094293373
       3201.5286      0.11071566
       3202.1700     0.095788782
       3202.8114     0.037901131
       3203.4528     0.062902717
       3204.0942     0.064420251
       3204.7355     0.038499933
       3205.3769     0.054887927
       3206.0183     0.056957645
       3206.6597      0.12041348
       3207.3010     0.070521443
       3207.9424     0.054467669
       3491.3856      0.37721284
       3492.1003      0.52865186
       3492.8151      0.39404075
       3493.5298      0.27818769
       3494.2446      0.40620271
       3494.9593      0.41493746
       3495.6741      0.24258955
       3496.3888      0.33491363
       3497.1036      0.34946300
       3497.8184      0.12308758
       3498.5331      0.40989259
       3499.2479      0.52735644
       3499.9626      0.43364557
       3500.6774      0.45471717
       3501.3921      0.54064943
       3502.1069      0.35945707
       3502.8216      0.36867119
       3503.5364      0.41984301
       3504.2511      0.28907957
       3504.9659      0.32086614
       3505.6807      0.54979631
       3506.3954      0.41939000
       3507.1102      0.32535370
       3507.8249      0.44530339
       3508.5397      0.39768989
       3509.2544      0.21003326
       3509.9692      0.42340662
       3510.6839      0.55397602
       3511.3987      0.33432855
       3512.1134      0.36627026
       3512.8282      0.31614052
       3513.5430      0.47603044
       3514.2577      0.39984572
       3514.9725      0.57759629
       3515.6872      0.38628151
       3516.4020      0.34246329
       3517.1167      0.58826256
       3517.8315      0.28216875
       3518.5462      0.18487277
       3519.2610      0.26386223
       3519.9757      0.29139208
       3520.6905      0.20220956
       3521.4053      0.23862397
       3522.1200      0.44619648
       3522.8348      0.53924640
       3523.5495      0.57364679
       3524.2643      0.80589665
       3524.9790      0.75071344
       3525.6938      0.72029107
       3526.4085      0.41399265
       3527.1233      0.32954114
       3527.8381      0.44524122
       3528.5528      0.48344996
       3529.2676      0.16022201
       3529.9823      0.30334529
       3530.6971      0.51818626
       3531.4118      0.45830930
       3532.1266      0.41692673
       3532.8413     0.018496487
       3533.5561      0.31803342
       3534.2708      0.20598353
       3534.9856    -0.052200361
       3535.7004      0.47707430
       3536.4151      0.38422560
       3537.1299     0.048547996
       3537.8446      0.22623466
       3538.5594      0.17027602
       3539.2741      0.37434416
       3539.9889      0.44622854
       3540.7036      0.42354114
       3541.4184      0.16255822
       3542.1331      0.27467515
       3542.8479      0.33156251
       3543.5627      0.40149687
       3544.2774      0.16985566
       3544.9922      0.31070036
       3545.7069      0.43103939
       3546.4217      0.59948634
       3547.1364      0.35230786
       3547.8512      0.28496700
       3548.5659      0.38147054
       3549.2807      0.26604945
       3549.9955      0.38172239
       3550.7102      0.21497304
       3551.4250      0.38564128
       3552.1397      0.37056416
       3552.8545      0.36473020
       3553.5692      0.25972635
       3554.2840      0.30205158
       3554.9987      0.53547147
       3555.7135      0.51972404
       3556.4282      0.25902083
       3557.1430      0.37766431
       3557.8578      0.18845354
       3558.5725      0.48788969
       3559.2873      0.52502432
       3560.0020      0.40616662
       3560.7168      0.33683914
       3561.4315      0.47447594
       3562.1463      0.30205005
       3562.8610      0.35436473
       3563.5758      0.46669161
       3564.2905      0.33889738
       3565.0053      0.41469961
       3565.7201      0.39732577
       3566.4348      0.35233907
       3567.1496      0.21324891
       3567.8643      0.11431441
       3568.5791      0.24118976
       3569.2938      0.44933269
       3570.0086      0.30466555
       3570.7233      0.23437520
       3571.4381      0.30275447
       3572.1528      0.35919487
       3572.8676      0.37715569
       3573.5824      0.47904898
       3574.2971      0.52487197
       3575.0119      0.54021796
       3575.7266      0.54944295
       3576.4414      0.50828499
       3577.1561      0.40630788
       3577.8709      0.28611934
       3578.5856      0.31286771
       3579.3004      0.49822093
       3580.0152      0.45811166
       3580.7299      0.24498297
       3581.4447      0.17146249
       3582.1594      0.18206935
       3582.8742      0.23705559
       3583.5889      0.36777728
       3584.3037      0.25892685
       3585.0184      0.17173543
       3585.7332      0.28402941
       3586.4479      0.22386806
       3587.1627     0.092133732
       3587.8775      0.29477255
       3588.5922      0.46487142
       3589.3070      0.45624693
       3590.0217      0.24711615
       3590.7365      0.30911034
       3591.4512      0.44801358
       3592.1660      0.42417661
       3592.8807      0.36143060
       3593.5955      0.44509072
       3594.3102      0.29373744
       3595.0250      0.30092411
       3595.7398      0.51077911
       3596.4545      0.42214691
       3597.1693      0.55159754
       3597.8840      0.32720477
       3598.5988      0.42359902
       3599.3135      0.39258566
       3600.0283      0.28924233
       3600.7430      0.26893102
       3601.4578      0.42887751
       3602.1725      0.30670909
       3602.8873      0.31081135
       3603.6021      0.32977123
       3604.3168      0.30551197
       3605.0316      0.40497213
       3605.7463      0.34162566
       3606.4611      0.29898118
       3607.1758      0.22510670
       3607.8906      0.30160601
       3608.6053      0.43204634
       3609.3201      0.34763263
       3610.0349      0.35652505
       3610.7496      0.32606603
       3611.4644      0.50019703
       3612.1791      0.32049877
       3612.8939      0.37521350
       3613.6086      0.23918840
       3614.3234      0.44929183
       3615.0381      0.37710517
       3615.7529      0.41038115
       3616.4676      0.32483327
       3617.1824      0.32998556
       3617.8972      0.36225174
       3618.6119      0.36152582
       3619.3267      0.45197647
       3620.0414      0.56070227
       3620.7562      0.27088237
       3621.4709      0.31376208
       3622.1857      0.50037629
       3622.9004      0.45117962
       3623.6152      0.39065242
       3624.3299      0.33408133
       3625.0447      0.38107060
       3625.7595      0.38522555
       3626.4742      0.37728091
       3627.1890      0.34139248
       3627.9037      0.36409539
       3628.6185      0.56891999
       3629.3332      0.33532623
       3630.0480      0.45518670
       3630.7627      0.42340182
       3631.4775      0.31695548
       3632.1923      0.30964456
       3632.9070      0.40466375
       3633.6218      0.48247459
       3634.3365      0.38120079
       3635.0513      0.42379605
       3635.7660      0.47251443
       3636.4808      0.30654645
       3637.1955      0.34139671
       3637.9103      0.48992576
       3638.6250      0.47093559
       3639.3398      0.58180567
       3640.0546      0.34776040
       3640.7693      0.36410156
       3641.4841      0.60894634
       3642.1988      0.30348921
       3642.9136      0.34277064
       3643.6283      0.45660034
       3644.3431      0.47122430
       3645.0578      0.47301550
       3645.7726      0.39087425
       3646.4873      0.27489077
       3647.2021      0.44390867
       3647.9169      0.56331732
       3648.6316      0.46347206
       3649.3464      0.46831646
       3650.0611      0.40808651
       3650.7759      0.49431640
       3651.4906      0.28302943
       3652.2054      0.37220016
       3652.9201      0.38506267
       3653.6349      0.31433070
       3654.3496      0.30034141
       3655.0644      0.25204667
       3655.7792      0.37167842
       3656.4939      0.47985031
       3657.2087      0.45172516
       3657.9234      0.50923836
       3658.6382      0.35243022
       3659.3529      0.29878141
       3660.0677      0.35396649
       3660.7824      0.49162110
       3661.4972      0.49945600
       3662.2120      0.33478792
       3662.9267      0.26337990
       3663.6415      0.33279009
       3664.3562      0.54076529
       3665.0710      0.23589421
       3665.7857      0.53351869
       3666.5005      0.50505806
       3667.2152      0.33274431
       3667.9300      0.32123636
       3668.6447      0.41806938
       3669.3595      0.45139427
       3670.0743      0.31056485
       3670.7890      0.35872064
       3671.5038      0.44203337
       3672.2185      0.40955065
       3672.9333      0.39792784
       3673.6480      0.55498170
       3674.3628      0.44373035
       3675.0775      0.35099870
       3675.7923      0.34314802
       3676.5070      0.43223226
       3677.2218      0.44589644
       3677.9366      0.36567561
       3678.6513      0.37435421
       3679.3661      0.46703409
       3680.0808      0.42389199
       3680.7956      0.21577113
       3681.5103      0.29659483
       3682.2251      0.37006274
       3682.9398      0.46473977
       3683.6546      0.42976443
       3684.3694      0.47284541
       3685.0841      0.52840296
       3685.7989      0.63944872
       3686.5136      0.45885070
       3687.2284      0.38218127
       3687.9431      0.40809976
       3688.6579      0.27946434
       3689.3726      0.51409219
       3690.0874      0.37859044
       3690.8021      0.38331500
       3691.5169      0.45913953
       3692.2317      0.60645988
       3692.9464      0.37591979
       3693.6612      0.43913072
       3694.3759      0.30511138
       3695.0907      0.50740007
       3695.8054      0.43307441
       3696.5202      0.33873792
       3697.2349      0.44814139
       3697.9497      0.57001658
       3698.6644      0.50479571
       3699.3792      0.39995797
       3700.0940      0.37017691
       3700.8087      0.51682059
       3701.5235      0.30290093
       3702.2382      0.58917825
       3702.9530      0.23133802
       3703.6677      0.34658825
       3704.3825      0.42865706
       3705.0972      0.45243788
       3705.8120      0.49888163
       3706.5267      0.42862089
       3707.2415      0.52418906
       3707.9563      0.48568111
       3708.6710      0.51129995
       3709.3858      0.39084781
       3710.1005      0.38512989
       3710.8153      0.29695477
       3711.5300      0.29201062
       3712.2448      0.44066348
       3712.9595      0.43650504
       3713.6743      0.52837107
       3714.3891      0.50635609
       3715.1038      0.40826821
       3715.8186      0.42939149
       3716.5333      0.44968203
       3717.2481      0.66985053
       3717.9628      0.46169753
       3718.6776      0.29367067
       3719.3923      0.43661895
       3720.1071      0.43395675
       3720.8218      0.48280355
       3721.5366      0.29442677
       3722.2514      0.57062732
       3722.9661      0.59830790
       3723.6809      0.66631573
       3724.3956      0.81311531
       3725.1104      0.68498760
       3725.8251      0.83416175
       3726.5399       1.0513636
       3727.2546       1.0929668
       3727.9694      0.95162607
       3728.6841      0.79419542
       3729.3989      0.86662031
       3730.1137      0.76648206
       3730.8284      0.60872123
       3731.5432      0.56606972
       3732.2579      0.56089078
       3732.9727      0.28463316
       3733.6874      0.49435738
       3734.4022      0.44781956
       3735.1169      0.36667951
       3735.8317      0.52863766
       3736.5465      0.41659912
       3737.2612      0.47358704
       3737.9760      0.27931826
       3738.6907      0.44822194
       3739.4055      0.45566864
       3740.1202      0.53422499
       3740.8350      0.55528210
       3741.5497      0.50800732
       3742.2645      0.31865707
       3742.9792      0.50688082
       3743.6940      0.59291113
       3744.4088      0.42860022
       3745.1235      0.21603926
       3745.8383      0.46258800
       3746.5530      0.31624396
       3747.2678      0.29159361
       3747.9825      0.23506908
       3748.6973      0.37463634
       3749.4120      0.50059095
       3750.1268      0.33927452
       3750.8415      0.36954234
       3751.5563      0.52787358
       3752.2711      0.44781798
       3752.9858      0.40188004
       3753.7006      0.43721077
       3754.4153      0.77207278
       3755.1301      0.44889406
       3755.8448      0.22817594
       3756.5596     0.060951701
       3757.2743     0.079856230
       3757.9891      0.36537304
       3758.7038      0.35252245
       3759.4186      0.31915589
       3760.1334      0.51889025
       3760.8481      0.55134344
       3761.5629      0.91007285
       3762.2776      0.76434204
       3762.9924      0.86102758
       3763.7071      0.89419800
       3764.4219      0.83589066
       3765.1366      0.57712930
       3765.8514      0.52761088
       3766.5662      0.33192994
       3767.2809      0.35877787
       3767.9957      0.41651722
       3768.7104      0.53164564
       3769.4252      0.50948396
       3770.1399      0.37769150
       3770.8547      0.46934291
       3771.5694      0.35194040
       3772.2842      0.45897289
       3772.9989      0.32787951
       3773.7137      0.63093928
       3774.4285      0.33822692
       3775.1432      0.46227413
       3775.8580      0.38999884
       3776.5727      0.51500716
       3777.2875      0.48018072
       3778.0022      0.55736354
       3778.7170      0.63378314
       3779.4317      0.59689717
       3780.1465      0.70125583
       3780.8612       1.0475955
       3781.5760      0.92151074
       3782.2908      0.57622120
       3783.0055       1.0983730
       3783.7203       1.3451637
       3784.4350      0.11293709
       3785.1498      0.36471473
       3785.8645      0.49083684
       3786.5793      0.37662004
       3787.2940      0.56728587
       3788.0088      0.71815840
       3788.7235      0.56922605
       3789.4383      0.59991666
       3790.1531      0.81226496
       3790.8678      0.57784224
       3791.5826      0.54428015
       3792.2973      0.67509963
       3793.0121      0.68284483
       3793.7268      0.46944780
       3794.4416     0.078053549
       3795.1563      0.25023393
       3795.8711      0.40717507
       3796.5859      0.26391586
       3797.3006      0.25988243
       3798.0154     -0.63113520
       3798.7301     -0.91052192
       3799.4449     0.016401232
       3800.1596      0.44727640
       3800.8744      0.34651954
       3801.5891      0.22142468
       3802.3039      0.49866562
       3803.0186      0.62000467
       3803.7334      0.59735134
       3804.4482      0.64356830
       3805.1629      0.56724494
       3805.8777      0.50158627
       3806.5924      0.73099098
       3807.3072      0.60760802
       3808.0219      0.65855043
       3808.7367      0.64127516
       3809.4514      0.51555472
       3810.1662      0.71858467
       3810.8809      0.48760381
       3811.5957      0.50299674
       3812.3105      0.68909472
       3813.0252      0.77371578
       3813.7400      0.56933806
       3814.4547      0.59789889
       3815.1695      0.68744332
       3815.8842      0.70303568
       3816.5990      0.63008207
       3817.3137      0.39943460
       3818.0285      0.46429373
       3818.7433      0.87519629
       3819.4580       1.3111965
       3820.1728      0.96752776
       3820.8875      0.71758696
       3821.6023      0.57731766
       3822.3170      0.85273988
       3823.0318      0.41999483
       3823.7465      0.54992414
       3824.4613      0.62262346
       3825.1760      0.49637317
       3825.8908      0.50079614
       3826.6056      0.53046736
       3827.3203      0.62668593
       3828.0351      0.38946681
       3828.7498      0.51557834
       3829.4646      0.28056977
       3830.1793      0.54407047
       3830.8941      0.40186243
       3831.6088      0.20181857
       3832.3236      0.42304002
       3833.0383      0.53717074
       3833.7531      0.44979367
       3834.4679      0.22290613
       3835.1826      0.39461688
       3835.8974      0.44481254
       3836.6121      0.44262279
       3837.3269      0.22460861
       3838.0416      0.37061964
       3838.7564      0.52230747
       3839.4711      0.63420877
       3840.1859      0.60703167
       3840.9006      0.43197156
       3841.6154      0.44808160
       3842.3302      0.35612335
       3843.0449      0.64433250
       3843.7597      0.63834016
       3844.4744      0.38928520
       3845.1892      0.52542652
       3845.9039      0.54682838
       3846.6187      0.77876213
       3847.3334      0.51101546
       3848.0482      0.73903157
       3848.7630      0.50050959
       3849.4777      0.60066932
       3850.1925      0.67169203
       3850.9072      0.66703962
       3851.6220      0.56707667
       3852.3367      0.49359765
       3853.0515      0.37400944
       3853.7662      0.68535788
       3854.4810      0.68155671
       3855.1957      0.65593118
       3855.9105      0.47181239
       3856.6253      0.79085064
       3857.3400      0.69925621
       3858.0548      0.56093281
       3858.7695      0.52595154
       3859.4843      0.64333968
       3860.1990      0.65395651
       3860.9138      0.55471546
       3861.6285      0.72039027
       3862.3433      0.52655312
       3863.0580      0.58111114
       3863.7728      0.74594169
       3864.4876      0.61054336
       3865.2023      0.67603221
       3865.9171      0.60614870
       3866.6318      0.65110558
       3867.3466      0.85422365
       3868.0613      0.85691996
       3868.7761      0.78349294
       3869.4908      0.92188262
       3870.2056      0.89051988
       3870.9204       1.0990915
       3871.6351      0.92114592
       3872.3499       1.0675561
       3873.0646      0.79891526
       3873.7794      0.72525799
       3874.4941      0.57667005
       3875.2089      0.66669972
       3875.9236      0.71801790
       3876.6384      0.50648472
       3877.3531      0.42554397
       3878.0679      0.27130251
       3878.7827      0.34632486
       3879.4974      0.51185543
       3880.2122      0.49724924
       3880.9269      0.39817904
       3881.6417      0.62301442
       3882.3564      0.31892597
       3883.0712      0.44471896
       3883.7859      0.34833953
       3884.5007      0.47640727
       3885.2154      0.28267740
       3885.9302      0.27812072
       3886.6450      0.47317296
       3887.3597      0.40801182
       3888.0745      0.51254649
       3888.7892      0.26255115
       3889.5040      0.40658542
       3890.2187      0.37265990
       3890.9335      0.45177513
       3891.6482      0.65959648
       3892.3630      0.46796292
       3893.0777      0.37858413
       3893.7925      0.56697311
       3894.5073      0.51399864
       3895.2220      0.32353759
       3895.9368      0.65956148
       3896.6515      0.56067872
       3897.3663      0.49941077
       3898.0810      0.62931844
       3898.7958      0.59402564
       3899.5105      0.59256960
       3900.2253      0.56971933
       3900.9401      0.63441267
       3901.6548      0.49645134
       3902.3696      0.44718726
       3903.0843      0.56023686
       3903.7991      0.75650301
       3904.5138      0.63924641
       3905.2286      0.90713941
       3905.9433      0.48947807
       3906.6581      0.58360532
       3907.3728      0.65790711
       3908.0876      0.71060739
       3908.8024      0.56620402
       3909.5171      0.61572416
       3910.2319      0.64720216
       3910.9466      0.65732219
       3911.6614      0.64464220
       3912.3761      0.66571550
       3913.0909      0.61380590
       3913.8056      0.42533114
       3914.5204      0.67375264
       3915.2351      0.66209852
       3915.9499      0.77695902
       3916.6647      0.64712875
       3917.3794      0.78968148
       3918.0942      0.71711205
       3918.8089      0.73130206
       3919.5237      0.71944610
       3920.2384      0.59560501
       3920.9532      0.68778598
       3921.6679      0.69317521
       3922.3827      0.59189690
       3923.0974      0.78847848
       3923.8122      0.72313691
       3924.5270      0.62816980
       3925.2417      0.69497050
       3925.9565      0.48335719
       3926.6712      0.74543454
       3927.3860      0.66613652
       3928.1007      0.64433552
       3928.8155      0.54758648
       3929.5302      0.54185671
       3930.2450      0.49297192
       3930.9598      0.57052720
       3931.6745      0.58967309
       3932.3893      0.36400091
       3933.1040      0.39051185
       3933.8188      0.42375916
       3934.5335      0.52678450
       3935.2483      0.29971164
       3935.9630      0.39921681
       3936.6778      0.43481766
       3937.3925      0.46006083
       3938.1073      0.45171291
       3938.8221      0.43454286
       3939.5368      0.56091086
       3940.2516      0.46494049
       3940.9663      0.40302550
       3941.6811      0.62215627
       3942.3958      0.44442860
       3943.1106      0.51190961
       3943.8253      0.74670282
       3944.5401      0.85095618
       3945.2548      0.52713988
       3945.9696      0.62672329
       3946.6844      0.75968052
       3947.3991      0.70443041
       3948.1139      0.60162087
       3948.8286      0.71725241
       3949.5434      0.66029429
       3950.2581      0.73297420
       3950.9729      0.67672983
       3951.6876      0.84570434
       3952.4024      0.75810058
       3953.1172      0.57228387
       3953.8319      0.74300939
       3954.5467      0.62594879
       3955.2614      0.66119567
       3955.9762      0.74545119
       3956.6909      0.66800712
       3957.4057      0.73610461
       3958.1204      0.78036446
       3958.8352      0.70106792
       3959.5499      0.63954475
       3960.2647      0.66502185
       3960.9795      0.81503989
       3961.6942      0.64703822
       3962.4090      0.56885303
       3963.1237      0.54032901
       3963.8385      0.48037413
       3964.5532      0.75601887
       3965.2680      0.46481698
       3965.9827      0.33049412
       3966.6975      0.40779091
       3967.4122      0.53265204
       3968.1270      0.34820339
       3968.8418      0.49220743
       3969.5565      0.39255985
       3970.2713      0.37986039
       3970.9860      0.43186962
       3971.7008      0.38051977
       3972.4155      0.31312985
       3973.1303      0.38414938
       3973.8450      0.39357532
       3974.5598      0.23950286
       3975.2745      0.37449284
       3975.9893      0.43479115
       3976.7041      0.41616638
       3977.4188      0.57114051
       3978.1336      0.54527716
       3978.8483      0.50433072
       3979.5631      0.59992883
       3980.2778      0.63217006
       3980.9926      0.69885411
       3981.7073      0.73036372
       3982.4221      0.59245774
       3983.1369      0.29942530
       3983.8516      0.61132603
       3984.5664      0.55645899
       3985.2811      0.77629574
       3985.9959      0.60412069
       3986.7106      0.84483800
       3987.4254      0.61053130
       3988.1401      0.63281755
       3988.8549      0.67287766
       3989.5696      0.90968842
       3990.2844      0.82555049
       3990.9992      0.78319203
       3991.7139      0.74940045
       3992.4287      0.83916855
       3993.1434      0.65059967
       3993.8582      0.80767268
       3994.5729      0.79523790
       3995.2877      0.78609065
       3996.0024      0.54787290
       3996.7172      0.62582991
       3997.4319      0.70660669
       3998.1467      0.71494445
       3998.8615      0.72626425
       3999.5762      0.73741073
       4000.2910      0.71010040
       4001.0057      0.72335196
       4001.7205      0.79637811
       4002.4352      0.70660354
       4003.1500      0.60561260
       4003.8647      0.64053734
       4004.5795      0.71735694
       4005.2943      0.71701058
       4006.0090      0.72263445
       4006.7238      0.71079616
       4007.4385      0.67464192
       4008.1533      0.73281018
       4008.8680      0.72737211
       4009.5828      0.81656641
       4010.2975      0.63605983
       4011.0123      0.83137935
       4011.7270      0.74383540
       4012.4418      0.90228176
       4013.1566      0.68383217
       4013.8713      0.88225860
       4014.5861      0.82512584
       4015.3008      0.70490653
       4016.0156      0.69829423
       4016.7303      0.69443465
       4017.4451      0.94082254
       4018.1598      0.74672956
       4018.8746      0.80235099
       4019.5893      0.70079603
       4020.3041      0.87259941
       4021.0189      0.77006356
       4021.7336      0.61430995
       4022.4484      0.75537046
       4023.1631      0.90060480
       4023.8779      0.69642667
       4024.5926      0.75336396
       4025.3074      0.68281579
       4026.0221      0.70448612
       4026.7369      0.64357734
       4027.4516      0.74627411
       4028.1664      0.77105647
       4028.8812      0.89854521
       4029.5959      0.90837384
       4030.3107      0.91061749
       4031.0254       1.1554860
       4031.7402      0.94199014
       4032.4549      0.72341387
       4033.1697      0.86420293
       4033.8844      0.83287110
       4034.5992      0.70399192
       4035.3140      0.87652843
       4036.0287      0.74836084
       4036.7435      0.74634365
       4037.4582      0.77321862
       4038.1730      0.58881059
       4038.8877      0.94291006
       4039.6025      0.75529471
       4040.3172      0.65961947
       4041.0320      0.72215690
       4041.7467      0.84617822
       4042.4615      0.81708814
       4043.1763      0.83779358
       4043.8910      0.81552664
       4044.6058      0.74670606
       4045.3205      0.88349377
       4046.0353      0.76999245
       4046.7500      0.83001915
       4047.4648      0.75612869
       4048.1795      0.76468360
       4048.8943      0.83043371
       4049.6090      0.75044679
       4050.3238      0.89116900
       4051.0386      0.80523142
       4051.7533      0.77179532
       4052.4681      0.86501298
       4053.1828      0.77688057
       4053.8976      0.73897346
       4054.6123      0.69847462
       4055.3271      0.69452157
       4056.0418      0.88513907
       4056.7566      0.85166210
       4057.4714      0.73332449
       4058.1861      0.62814917
       4058.9009      0.79445116
       4059.6156      0.65647261
       4060.3304      0.79609216
       4061.0451      0.62047676
       4061.7599      0.84691543
       4062.4746      0.75909278
       4063.1894      0.83896931
       4063.9041      0.82464583
       4064.6189      0.76994090
       4065.3337      0.80703030
       4066.0484      0.78606645
       4066.7632      0.73599334
       4067.4779      0.84134699
       4068.1927      0.75950585
       4068.9074      0.75235042
       4069.6222      0.79640022
       4070.3369      0.75848479
       4071.0517      0.85162501
       4071.7664      0.88071172
       4072.4812      0.87126949
       4073.1960      0.75574472
       4073.9107      0.76528730
       4074.6255      0.76115176
       4075.3402      0.73398423
       4076.0550      0.57211356
       4076.7697      0.64557179
       4077.4845      0.63003291
       4078.1992      0.51316102
       4078.9140      0.59954662
       4079.6287      0.57530991
       4080.3435      0.67225573
       4081.0583      0.57328161
       4081.7730      0.75759555
       4082.4878      0.88172414
       4083.2025      0.71734353
       4083.9173       1.0464415
       4084.6320      0.87352499
       4085.3468      0.94743777
       4086.0615      0.93325452
       4086.7763      0.91580276
       4087.4911       1.0210064
       4088.2058      0.82246987
       4088.9206      0.82814858
       4089.6353      0.78632955
       4090.3501      0.68063742
       4091.0648      0.70912656
       4091.7796      0.72594660
       4092.4943      0.72791118
       4093.2091      0.79719163
       4093.9238      0.62374304
       4094.6386      0.61973739
       4095.3534      0.68643342
       4096.0681      0.84058269
       4096.7829      0.63586798
       4097.4976      0.64520708
       4098.2124      0.65812218
       4098.9271      0.78740686
       4099.6419      0.70493606
       4100.3566      0.73434194
       4101.0714      0.71335133
       4101.7861      0.57983008
       4102.5009      0.49233463
       4103.2157      0.52926367
       4103.9304      0.64286266
       4104.6452      0.38630825
       4105.3599      0.71990163
       4106.0747      0.61151466
       4106.7894      0.58130001
       4107.5042      0.71760050
       4108.2189      0.62188651
       4108.9337      0.64640745
       4109.6484      0.66394347
       4110.3632      0.64950534
       4111.0780      0.68531432
       4111.7927      0.76424365
       4112.5075      0.68024388
       4113.2222      0.63101131
       4113.9370      0.81094291
       4114.6517      0.89230982
       4115.3665      0.66410554
       4116.0812      0.70681838
       4116.7960      0.66410972
       4117.5108      0.65566007
       4118.2255      0.77699702
       4118.9403      0.67042302
       4119.6550      0.65639927
       4120.3698      0.65408419
       4121.0845      0.95347379
       4121.7993      0.55458864
       4122.5140      0.71809608
       4123.2288      0.67371447
       4123.9435      0.63412617
       4124.6583      0.86408414
       4125.3731      0.66545500
       4126.0878      0.65284466
       4126.8026      0.50576618
       4127.5173      0.60772131
       4128.2321      0.61542920
       4128.9468      0.53030801
       4129.6616      0.65367492
       4130.3763      0.63328032
       4131.0911      0.80565676
       4131.8058      0.67636754
       4132.5206      0.79445150
       4133.2354      0.80620717
       4133.9501      0.78617736
       4134.6649      0.72367677
       4135.3796      0.84682969
       4136.0944      0.69112245
       4136.8091      0.66663273
       4137.5239      0.74619782
       4138.2386      0.83408511
       4138.9534      0.73347499
       4139.6682      0.63323493
       4140.3829      0.57889107
       4141.0977      0.56224109
       4141.8124      0.73757137
       4142.5272      0.76069764
       4143.2419      0.70520328
       4143.9567      0.64833712
       4144.6714      0.64261477
       4145.3862      0.87136705
       4146.1009      0.71280539
       4146.8157      0.82636553
       4147.5305      0.77235562
       4148.2452      0.75787790
       4148.9600      0.69623263
       4149.6747      0.50336972
       4150.3895      0.77457821
       4151.1042      0.59008353
       4151.8190      0.87210855
       4152.5337      0.59745305
       4153.2485      0.95546630
       4153.9632      0.89759352
       4154.6780      0.76034198
       4155.3928      0.82166385
       4156.1075      0.77327305
       4156.8223      0.83027937
       4157.5370      0.67430500
       4158.2518      0.90355434
       4158.9665      0.75623617
       4159.6813      0.82303080
       4160.3960       1.0055640
       4161.1108      0.85991310
       4161.8255      0.71797951
       4162.5403      0.70069426
       4163.2551      0.74992255
       4163.9698      0.75670611
       4164.6846      0.83177137
       4165.3993      0.88352631
       4166.1141      0.72966364
       4166.8288      0.84216328
       4167.5436      0.76485822
       4168.2583      0.93073482
       4168.9731      0.87682439
       4169.6879      0.71166373
       4170.4026      0.77089225
       4171.1174      0.88379801
       4171.8321      0.82952026
       4172.5469      0.79258187
       4173.2616      0.77853594
       4173.9764      0.51816898
       4174.6911      0.56226804
       4175.4059      0.49362556
       4176.1206      0.76851448
       4176.8354      0.74702616
       4177.5502      0.85716814
       4178.2649      0.74463227
       4178.9797      0.88679814
       4179.6944      0.79493200
       4180.4092      0.66698676
       4181.1239      0.88587011
       4181.8387      0.95582351
       4182.5534      0.74590676
       4183.2682      0.76521035
       4183.9829      0.91408223
       4184.6977      0.93339724
       4185.4125      0.75621244
       4186.1272      0.75745105
       4186.8420      0.79786796
       4187.5567      0.97837013
       4188.2715      0.75035775
       4188.9862      0.84563412
       4189.7010      0.91189892
       4190.4157      0.99360287
       4191.1305      0.79890889
       4191.8453      0.61299042
       4192.5600      0.85093202
       4193.2748      0.61344393
       4193.9895      0.65450418
       4194.7043      0.81414046
       4195.4190       1.0088706
       4196.1338      0.91019016
       4196.8485      0.74288194
       4197.5633      0.80161192
       4198.2780      0.85196436
       4198.9928      0.75575221
       4199.7076      0.84014738
       4200.4223      0.93485202
       4201.1371      0.74581170
       4201.8518      0.92167625
       4202.5666      0.89954848
       4203.2813      0.70480525
       4203.9961      0.87067698
       4204.7108      0.77673628
       4205.4256      0.73921618
       4206.1403      0.85997282
       4206.8551      0.72528022
       4207.5699      0.88491363
       4208.2846      0.82175079
       4208.9994      0.88973354
       4209.7141      0.85395792
       4210.4289      0.73253053
       4211.1436      0.76302307
       4211.8584      0.88837053
       4212.5731      0.94574967
       4213.2879      0.84428647
       4214.0026      0.80093446
       4214.7174      0.79540658
       4215.4322      0.70306443
       4216.1469      0.89001072
       4216.8617      0.73602274
       4217.5764      0.81541279
       4218.2912      0.85213069
       4219.0059      0.93315101
       4219.7207      0.90571048
       4220.4354      0.78249470
       4221.1502      0.90748303
       4221.8650      0.77792924
       4222.5797      0.87682361
       4223.2945      0.84352282
       4224.0092      0.79336124
       4224.7240      0.66667037
       4225.4387      0.68695061
       4226.1535      0.67646038
       4226.8682      0.70834550
       4227.5830      0.44779604
       4228.2977      0.55348847
       4229.0125      0.75646431
       4229.7273      0.70526702
       4230.4420      0.93798063
       4231.1568      0.82955747
       4231.8715      0.54197669
       4232.5863      0.71173814
       4233.3010      0.68017770
       4234.0158      0.76304007
       4234.7305      0.93625839
       4235.4453      0.96950038
       4236.1600      0.89782710
       4236.8748       1.0181010
       4237.5896       1.0257528
       4238.3043      0.81495440
       4239.0191      0.81704715
       4239.7338      0.85455483
       4240.4486      0.82883140
       4241.1633      0.97286852
       4241.8781      0.81545691
       4242.5928      0.82047678
       4243.3076      0.79855590
       4244.0223      0.83892923
       4244.7371      0.90560637
       4245.4519      0.91364325
       4246.1666      0.89364166
       4246.8814      0.88549584
       4247.5961      0.91197953
       4248.3109      0.87344474
       4249.0256      0.91144513
       4249.7404      0.93285121
       4250.4551      0.93466350
       4251.1699      0.79384362
       4251.8847      0.92211764
       4252.5994      0.82441234
       4253.3142      0.92010707
       4254.0289       1.0004156
       4254.7437      0.79406079
       4255.4584      0.69013061
       4256.1732      0.86192809
       4256.8879      0.96253202
       4257.6027      0.95010562
       4258.3174      0.93633651
       4259.0322      0.86948382
       4259.7470      0.71803708
       4260.4617      0.74887531
       4261.1765      0.90100249
       4261.8912      0.88515332
       4262.6060      0.96770608
       4263.3207      0.99536878
       4264.0355      0.85764784
       4264.7502      0.89482935
       4265.4650      0.90347701
       4266.1797      0.88876196
       4266.8945      0.87148054
       4267.6093      0.89875299
       4268.3240      0.96966868
       4269.0388      0.95393832
       4269.7535      0.83592449
       4270.4683      0.90427120
       4271.1830      0.88599072
       4271.8978      0.90091734
       4272.6125      0.83601407
       4273.3273      0.82234180
       4274.0421      0.89351655
       4274.7568      0.84683077
       4275.4716      0.90674492
       4276.1863      0.86867269
       4276.9011      0.82232563
       4277.6158      0.88049837
       4278.3306      0.91632428
       4279.0453      0.81697061
       4279.7601      0.88050894
       4280.4748      0.83001926
       4281.1896      0.96162135
       4281.9044      0.87945822
       4282.6191      0.78857776
       4283.3339      0.83574450
       4284.0486      0.94781679
       4284.7634      0.75009685
       4285.4781      0.78828730
       4286.1929      0.75649654
       4286.9076      0.82260931
       4287.6224      0.93891986
       4288.3371      0.78951495
       4289.0519      0.84474434
       4289.7667      0.77468200
       4290.4814      0.83841701
       4291.1962      0.97606469
       4291.9109      0.89085896
       4292.6257      0.88843087
       4293.3404      0.87513650
       4294.0552      0.99165508
       4294.7699      0.86624930
       4295.4847      0.76130478
       4296.1994      0.77692401
       4296.9142      0.78341475
       4297.6290      0.68993126
       4298.3437      0.79853343
       4299.0585      0.66371548
       4299.7732      0.82748274
       4300.4880      0.82242089
       4301.2027      0.88245788
       4301.9175      0.82703771
       4302.6322      0.65131671
       4303.3470      0.80968360
       4304.0618      0.79354936
       4304.7765      0.73023715
       4305.4913      0.71474719
       4306.2060      0.69714017
       4306.9208      0.66204769
       4307.6355      0.66516434
       4308.3503      0.79203116
       4309.0650      0.72218007
       4309.7798      0.68491348
       4310.4945      0.74089901
       4311.2093      0.76649511
       4311.9241      0.80660494
       4312.6388      0.58573224
       4313.3536      0.78773140
       4314.0683      0.63073917
       4314.7831      0.83117883
       4315.4978      0.67485699
       4316.2126      0.59824309
       4316.9273      0.79595113
       4317.6421      0.89399256
       4318.3568      0.78892194
       4319.0716      0.73421614
       4319.7864      0.91055446
       4320.5011      0.83858170
       4321.2159      0.74931206
       4321.9306      0.69922746
       4322.6454      0.81245906
       4323.3601      0.88217857
       4324.0749      0.92418773
       4324.7896      0.80152099
       4325.5044      0.83432611
       4326.2192      0.88383938
       4326.9339      0.69344427
       4327.6487      0.70397851
       4328.3634      0.77509924
       4329.0782      0.73833653
       4329.7929      0.83460338
       4330.5077      0.73431226
       4331.2224      0.89419453
       4331.9372      0.82408612
       4332.6519      0.80037735
       4333.3667      0.88264267
       4334.0815      0.85013433
       4334.7962      0.86299249
       4335.5110      0.81234712
       4336.2257      0.83029045
       4336.9405      0.84234299
       4337.6552      0.76315755
       4338.3700      0.92548214
       4339.0847      0.98285241
       4339.7995      0.94082813
       4340.5142      0.85700768
       4341.2290      0.88596506
       4341.9438      0.94451037
       4342.6585      0.94692497
       4343.3733      0.90737916
       4344.0880      0.91708952
       4344.8028      0.89899361
       4345.5175      0.77853894
       4346.2323      0.76648229
       4346.9470      0.74199558
       4347.6618      0.76564281
       4348.3765       1.0106384
       4349.0913      0.89772626
       4349.8061      0.66231039
       4350.5208      0.96251613
       4351.2356      0.87060780
       4351.9503      0.40618890
       4352.6651      0.59851972
       4353.3798      0.72070367
       4354.0946      0.70866785
       4354.8093      0.98810783
       4355.5241      0.86423856
       4356.2389      0.71059604
       4356.9536      0.82311024
       4357.6684      0.87554813
       4358.3831      0.97906701
       4359.0979      0.84359542
       4359.8126      0.94259699
       4360.5274      0.92092167
       4361.2421      0.90038811
       4361.9569      0.78231277
       4362.6716      0.74532699
       4363.3864      0.75054277
       4364.1012      0.92994537
       4364.8159      0.95111707
       4365.5307      0.96235573
       4366.2454      0.98811256
       4366.9602      0.93034749
       4367.6749      0.90043554
       4368.3897       1.1100298
       4369.1044       1.0048944
       4369.8192      0.78235328
       4370.5339      0.84721794
       4371.2487      0.64711576
       4371.9635      0.82239206
       4372.6782      0.74417569
       4373.3930      0.84235809
       4374.1077       1.0439408
       4374.8225      0.88957263
       4375.5372      0.83887234
       4376.2520      0.81388694
       4376.9667      0.94524344
       4377.6815      0.95105132
       4378.3962      0.91180129
       4379.1110      0.72970704
       4379.8258      0.72237382
       4380.5405      0.94167928
       4381.2553      0.80034424
       4381.9700       1.0437974
       4382.6848       1.0219451
       4383.3995      0.80962604
       4384.1143      0.95584214
       4384.8290      0.90297133
       4385.5438      0.70280761
       4386.2586      0.80818332
       4386.9733      0.86733971
       4387.6881      0.94536909
       4388.4028      0.87930501
       4389.1176      0.86958848
       4389.8323      0.74765500
       4390.5471      0.77381898
       4391.2618      0.92349957
       4391.9766       1.0969213
       4392.6913      0.82571093
       4393.4061       1.0363136
       4394.1209       1.1042682
       4394.8356       1.0994397
       4395.5504      0.97995904
       4396.2651       1.0128341
       4396.9799       1.0607827
       4397.6946      0.84458020
       4398.4094       1.0597084
       4399.1241       1.0798380
       4399.8389      0.82676847
       4400.5536      0.90975807
       4401.2684      0.85104925
       4401.9832      0.85721325
       4402.6979      0.93560956
       4403.4127      0.86910850
       4404.1274      0.88972567
       4404.8422      0.99845381
       4405.5569      0.90768101
       4406.2717       1.0019939
       4406.9864      0.90409712
       4407.7012       1.0260560
       4408.4160       1.0509367
       4409.1307      0.93662967
       4409.8455       1.1347922
       4410.5602      0.66357897
       4411.2750      0.99016009
       4411.9897      0.89932383
       4412.7045      0.93968734
       4413.4192      0.86602580
       4414.1340      0.99213867
       4414.8487       1.0610217
       4415.5635       1.1851005
       4416.2783       1.0939048
       4416.9930      0.97621657
       4417.7078      0.96798550
       4418.4225      0.83987381
       4419.1373      0.92140277
       4419.8520      0.99283612
       4420.5668      0.76384898
       4421.2815      0.98731260
       4421.9963      0.77114261
       4422.7110      0.75468695
       4423.4258       1.1437836
       4424.1406      0.98502566
       4424.8553      0.85717061
       4425.5701       1.1074396
       4426.2848       1.2271138
       4426.9996       1.1890535
       4427.7143       1.1286702
       4428.4291      0.93726360
       4429.1438      0.96408779
       4429.8586      0.79548692
       4430.5733      0.99008672
       4431.2881       1.0477030
       4432.0029      0.98980857
       4432.7176      0.78999844
       4433.4324      0.84719185
       4434.1471      0.73415911
       4434.8619      0.81103643
       4435.5766      0.93036216
       4436.2914      0.85326710
       4437.0061      0.80094369
       4437.7209       1.0592577
       4438.4357      0.92466002
       4439.1504       1.0542362
       4439.8652      0.98537034
       4440.5799      0.68930895
       4441.2947      0.77668611
       4442.0094      0.56932816
       4442.7242      0.63605405
       4443.4389     -0.60621327
       4444.1537      0.84576695
       4444.8684       1.1355333
       4445.5832       1.1643691
       4446.2980       1.4591316
       4447.0127       1.1842425
       4447.7275       1.1447140
       4448.4422       1.1842718
       4449.1570      0.95629654
       4449.8717       1.0558100
       4450.5865       1.0834139
       4451.3012      0.74759723
       4452.0160      0.85459640
       4452.7307      0.82739120
       4453.4455       1.0371967
       4454.1603      0.80552696
       4454.8750       1.0208524
       4455.5898       1.0180557
       4456.3045      0.93302146
       4457.0193      0.92482983
       4457.7340      0.99040187
       4458.4488       1.0427681
       4459.1635       1.0476040
       4459.8783       1.0784172
       4460.5931      0.74013793
       4461.3078       1.0209264
       4462.0226       1.0331748
       4462.7373       1.0390509
       4463.4521       1.0682414
       4464.1668      0.92144383
       4464.8816      0.98679469
       4465.5963       1.1015135
       4466.3111       1.0488716
       4467.0258       1.1376473
       4467.7406       1.1597583
       4468.4554      0.97003676
       4469.1701       1.0751987
       4469.8849       1.1267724
       4470.5996      0.95021325
       4471.3144       1.1100592
       4472.0291      0.98418549
       4472.7439       1.1963273
       4473.4586       1.1309627
       4474.1734       1.1010434
       4474.8881       1.0347141
       4475.6029       1.1816291
       4476.3177       1.1345753
       4477.0324       1.0217433
       4477.7472       1.0486489
       4478.4619       1.1405059
       4479.1767       1.0575939
       4479.8914       1.1236435
       4480.6062       1.0126717
       4481.3209       1.0469896
       4482.0357       1.0344522
       4482.7504      0.99482024
       4483.4652      0.85673250
       4484.1800      0.98180786
       4484.8947       1.0448515
       4485.6095      0.90124217
       4486.3242       1.0540352
       4487.0390       1.0994317
       4487.7537       1.3066294
       4488.4685       1.0003191
       4489.1832       1.2605695
       4489.8980       1.0570337
       4490.6128      0.95258868
       4491.3275      0.97020392
       4492.0423      0.99971143
       4492.7570      0.94574438
       4493.4718       1.0302420
       4494.1865       1.2517620
       4494.9013       1.2639685
       4495.6160       1.2791470
       4496.3308       1.2754419
       4497.0455      0.92539376
       4497.7603      0.91630175
       4498.4751      0.98649263
       4499.1898       1.1670382
       4499.9046       1.0701589
       4500.6193       1.1794810
       4501.3341       1.2846294
       4502.0488       1.1427804
       4502.7636       1.0753813
       4503.4783       1.0731453
       4504.1931       1.2407429
       4504.9078       1.3425578
       4505.6226       1.1977670
       4506.3374       1.0833157
       4507.0521       1.0581798
       4507.7669       1.1155377
       4508.4816       1.1696977
       4509.1964       1.0379464
       4509.9111       1.0788836
       4510.6259       1.0012160
       4511.3406       1.1681457
       4512.0554       1.2170362
       4512.7702       1.1143275
       4513.4849      0.96795396
       4514.1997       1.0231223
       4514.9144      0.94197319
       4515.6292       1.1211916
       4516.3439       1.0320145
       4517.0587      0.96198679
       4517.7734      0.87676783
       4518.4882      0.84815939
       4519.2029       1.1350475
       4519.9177       1.1871626
       4520.6325       1.2158729
       4521.3472       1.2590953
       4522.0620       1.1003365
       4522.7767       1.0926433
       4523.4915      0.98806863
       4524.2062       1.0472256
       4524.9210       1.0527378
       4525.6357       1.1139578
       4526.3505      0.93645235
       4527.0652       1.0930549
       4527.7800       1.2195870
       4528.4948      0.94757041
       4529.2095      0.98922249
       4529.9243      0.97165861
       4530.6390       1.0824490
       4531.3538       1.0440926
       4532.0685      0.98249793
       4532.7833      0.98157768
       4533.4980      0.99078914
       4534.2128      0.94148880
       4534.9275      0.89437467
       4535.6423      0.89097549
       4536.3571      0.95181998
       4537.0718      0.85428463
       4537.7866      0.55344216
       4538.5013      0.69172343
       4539.2161       1.1065113
       4539.9308       1.0804296
       4540.6456       1.1114433
       4541.3603       1.0030192
       4542.0751      0.89553840
       4542.7899       1.0353491
       4543.5046      0.94405012
       4544.2194      0.89852300
       4544.9341       1.0249063
       4545.6489       1.1827680
       4546.3636       1.0835555
       4547.0784      0.96314712
       4547.7931       1.1690272
       4548.5079       1.1455171
       4549.2226       1.0832088
       4549.9374      0.82576524
       4550.6522       1.1097420
       4551.3669       1.2032812
       4552.0817       1.2977583
       4552.7964       1.2726915
       4553.5112       1.2413129
       4554.2259       1.1535203
       4554.9407       1.1280374
       4555.6554      0.95079796
       4556.3702       1.1933216
       4557.0849       1.2189258
       4557.7997       1.1552353
       4558.5145       1.2088874
       4559.2292       1.3193957
       4559.9440       1.0752842
       4560.6587      0.97716096
       4561.3735      0.68128013
       4562.0882      0.79614736
       4562.8030      0.54255807
       4563.5177      0.56579839
       4564.2325      0.49062847
       4564.9472      0.37672910
       4565.6620      0.47300720
       4566.3768      0.47153535
       4567.0915             NaN
       4567.8063             NaN
       4568.5210             NaN
       4569.2358             NaN
       4569.9505             NaN
       4570.6653             NaN
       4571.3800             NaN
       4572.0948             NaN
       4572.8096             NaN
       4573.5243             NaN
       4574.2391             NaN
       4574.9538             NaN
       4575.6686             NaN
       4576.3833             NaN
       4577.0981             NaN
       4577.8128             NaN
       4578.5276             NaN
       4579.2423             NaN
       4579.9571             NaN
       4580.6719             NaN
       4581.3866             NaN
       4582.1014             NaN
       4582.8161             NaN
       4583.5309             NaN
       4584.2456             NaN
       4584.9604             NaN
       4585.6751             NaN
       4586.3899             NaN
       4587.1046             NaN
       4587.8194             NaN
       4588.5342             NaN
       4589.2489             NaN
       4589.9637             NaN
       4590.6784             NaN
       4591.3932             NaN
       4592.1079             NaN
       4592.8227             NaN
       4593.5374             NaN
       4594.2522             NaN
       4594.9670             NaN
       4595.6817             NaN
       4596.3965             NaN
       4597.1112             NaN
       4597.8260             NaN
       4598.5407             NaN
       4599.2555             NaN
       4599.9702             NaN
       4600.6850             NaN
       4601.3997             NaN
       4602.1145             NaN
       4602.8293             NaN
       4603.5440             NaN
       4604.2588             NaN
       4604.9735             NaN
       4605.6883             NaN
       4606.4030             NaN
       4607.1178             NaN
       4607.8325             NaN
       4608.5473             NaN
       4609.2620             NaN
       4609.9768             NaN
       4610.6916             NaN
       4611.4063             NaN
       4612.1211             NaN
       4612.8358             NaN
       4613.5506             NaN
       4614.2653             NaN
       4614.9801             NaN
       4615.6948             NaN
       4616.4096             NaN
       4617.1243             NaN
       4617.8391             NaN
       4618.5539             NaN
       4619.2686             NaN
       4619.9834             NaN
       4620.6981             NaN
       4621.4129             NaN
       4622.1276             NaN
       4622.8424             NaN
       4623.5571             NaN
       4624.2719             NaN
       4624.9867             NaN
       4625.7014             NaN
       4626.4162             NaN
       4627.1309             NaN
       4627.8457             NaN
       4628.5604             NaN
       4629.2752             NaN
       4629.9899             NaN
       4630.7047             NaN
       4631.4194      0.88517881
       4632.1342       1.2717170
       4632.8490       1.4028388
       4633.5637       1.3601225
       4634.2785       1.3968323
       4634.9932       1.0081320
       4635.7080      0.70581371
       4636.4227       1.0728396
       4637.1375      0.78213386
       4637.8522       1.2173701
       4638.5670       1.0723829
       4639.2817       1.1765392
       4639.9965       1.3603639
       4640.7113       1.3574755
       4641.4260       1.2026239
       4642.1408       1.0809387
       4642.8555       1.1879342
       4643.5703       1.2129696
       4644.2850       1.1074182
       4644.9998       1.0511593
       4645.7145       1.2178173
       4646.4293       1.3525910
       4647.1441       1.2692619
       4647.8588       1.0041009
       4648.5736       1.0290652
       4649.2883       1.1200461
       4650.0031       1.2312567
       4650.7178       1.0636755
       4651.4326       1.2480929
       4652.1473       1.2058785
       4652.8621       1.3428985
       4653.5768      0.93581597
       4654.2916       1.2389391
       4655.0064       1.3618510
       4655.7211       1.0773977
       4656.4359       1.1028511
       4657.1506       1.2902934
       4657.8654       1.2422092
       4658.5801       1.1503487
       4659.2949       1.2751393
       4660.0096       1.1827147
       4660.7244      0.94094881
       4661.4391       1.0912132
       4662.1539       1.0431589
       4662.8687       1.1408462
       4663.5834       1.0714618
       4664.2982       1.2370136
       4665.0129       1.1606987
       4665.7277       1.0057074
       4666.4424       1.0323714
       4667.1572       1.0655717
       4667.8719       1.0948010
       4668.5867       1.1251066
       4669.3014       1.1137881
       4670.0162       1.0499920
       4670.7310      0.95552322
       4671.4457       1.1546797
       4672.1605       1.2255111
       4672.8752       1.4274871
       4673.5900       1.1469947
       4674.3047       1.2004135
       4675.0195       1.2823111
       4675.7342       1.2533678
       4676.4490       1.2926491
       4677.1638       1.2334070
       4677.8785       1.1693075
       4678.5933      0.93683082
       4679.3080       1.4594340
       4680.0228       1.6258593
       4680.7375      0.95048386
       4681.4523       1.0648157
       4682.1670      0.86779331
       4682.8818       1.0789856
       4683.5965       1.2669299
       4684.3113       1.2082106
       4685.0261       1.0551130
       4685.7408      0.98411026
       4686.4556       1.0586940
       4687.1703       1.0663188
       4687.8851       1.1237245
       4688.5998       1.3319771
       4689.3146       1.0174813
       4690.0293      0.71357719
       4690.7441       1.0992807
       4691.4588       1.0789505
       4692.1736       1.1212839
       4692.8884       1.3035883
       4693.6031       1.3037652
       4694.3179       2.0326755
       4695.0326       1.9192733
       4695.7474       1.6854809
       4696.4621       1.2670050
       4697.1769       1.3550236
       4697.8916      0.85367297
       4698.6064       1.0308090
       4699.3211       1.2292637
       4700.0359       1.1450956
       4700.7507       1.1437249
       4701.4654       1.1127175
       4702.1802       1.0614647
       4702.8949       1.0846548
       4703.6097       1.1104984
       4704.3244       1.0978005
       4705.0392       1.2354226
       4705.7539      0.94163314
       4706.4687       1.1012586
       4707.1835      0.90982618
       4707.8982      0.94047196
       4708.6130       1.2345399
       4709.3277       1.0980735
       4710.0425       1.2701610
       4710.7572       1.2652272
       4711.4720       1.1094730
       4712.1867       1.0534020
       4712.9015       1.4232296
       4713.6162       1.3112390
       4714.3310      0.85274371
       4715.0458       1.3100724
       4715.7605       1.2996378
       4716.4753       1.2773812
       4717.1900       1.0092171
       4717.9048       1.0564783
       4718.6195       1.2078997
       4719.3343       1.3983616
       4720.0490       1.1252171
       4720.7638       1.2259722
       4721.4785       1.2720950
       4722.1933       1.4616824
       4722.9081       1.2910005
       4723.6228       1.0522970
       4724.3376       1.2380800
       4725.0523       1.3597771
       4725.7671       1.2699021
       4726.4818       1.3116113
       4727.1966      0.91589741
       4727.9113      0.94055791
       4728.6261       1.4387847
       4729.3409       1.1109708
       4730.0556       1.0730912
       4730.7704       1.1298885
       4731.4851       1.1493709
       4732.1999      0.99115878
       4732.9146       1.1857329
       4733.6294       1.1922839
       4734.3441       1.1483541
       4735.0589       1.3187288
       4735.7736      0.82359646
       4736.4884      0.80983626
       4737.2032       1.0588812
       4737.9179       1.4301687
       4738.6327      0.94621377
       4739.3474       1.3611580
       4740.0622       1.1541612
       4740.7769       1.0440382
       4741.4917       1.1572879
       4742.2064       1.3186495
       4742.9212       1.4257338
       4743.6359       1.1316083
       4744.3507       1.1835736
       4745.0655       1.2195435
       4745.7802       1.2035872
       4746.4950       1.1264609
       4747.2097       1.3149388
       4747.9245       1.3043122
       4748.6392       1.1634073
       4749.3540       1.1518257
       4750.0687       1.3479809
       4750.7835       1.5656765
       4751.4982       1.3485648
       4752.2130       1.3267223
       4752.9278       1.2493696
       4753.6425       1.8030996
       4754.3573       1.4975905
       4755.0720       1.4192949
       4755.7868       1.5854749
       4756.5015       1.4393623
       4757.2163       1.3536345
       4757.9310      0.88079055
       4758.6458       1.0657760
       4759.3606       1.1686442
       4760.0753       1.1010956
       4760.7901       1.0853882
       4761.5048       1.2647464
       4762.2196       1.1294921
       4762.9343       1.1248637
       4763.6491       1.0413579
       4764.3638       1.0838387
       4765.0786       1.0658070
       4765.7933       1.1284848
       4766.5081       1.1759393
       4767.2229       1.1500353
       4767.9376       1.1422749
       4768.6524       1.1227580
       4769.3671       1.1882922
       4770.0819       1.1203469
       4770.7966       1.0846349
       4771.5114       1.1152913
       4772.2261       1.1672881
       4772.9409       1.2598952
       4773.6556       1.1512313
       4774.3704       1.5767519
       4775.0852       1.3151221
       4775.7999       1.2909794
       4776.5147       1.2535478
       4777.2294       1.3268210
       4777.9442       1.2038995
       4778.6589       1.1438063
       4779.3737       1.0888570
       4780.0884       1.2790642
       4780.8032       1.3216122
       4781.5180       1.0697419
       4782.2327       1.0821394
       4782.9475       1.1855464
       4783.6622       1.1368165
       4784.3770      0.90887293
       4785.0917       1.0506652
       4785.8065       1.0958726
       4786.5212       1.0722136
       4787.2360       1.3501837
       4787.9507       1.2414320
       4788.6655       1.1521115
       4789.3803      0.92769208
       4790.0950       1.5731992
       4790.8098       1.3736143
       4791.5245       1.0220595
       4792.2393       1.1935848
       4792.9540       1.1250049
       4793.6688       1.1282574
       4794.3835       1.1273693
       4795.0983       1.2138379
       4795.8130       1.3569264
       4796.5278       1.3389141
       4797.2426       1.5036945
       4797.9573       1.3375607
       4798.6721       1.2853860
       4799.3868       1.6008718
       4800.1016       1.0582914
       4800.8163       1.4276389
       4801.5311       1.4687942
       4802.2458       1.1702179
       4802.9606       1.1195673
       4803.6753       1.1614963
       4804.3901       1.1531659
       4805.1049       1.0967823
       4805.8196       1.1926936
       4806.5344       1.1965209
       4807.2491       1.3469161
       4807.9639       1.1755869
       4808.6786       1.1401125
       4809.3934       1.3122450
       4810.1081       1.0940560
       4810.8229       1.0319668
       4811.5377       1.0740044
       4812.2524      0.97777376
       4812.9672       1.0667803
       4813.6819       1.2482485
       4814.3967       1.1082706
       4815.1114       1.1877074
       4815.8262       1.2202667
       4816.5409       1.1262752
       4817.2557       1.1655100
       4817.9704       1.6668920
       4818.6852       1.2713780
       4819.4000      0.69074464
       4820.1147       1.1856029
       4820.8295       1.3393696
       4821.5442       1.2790510
       4822.2590       1.2162913
       4822.9737       1.2073627
       4823.6885       1.3600368
       4824.4032       1.2817586
       4825.1180       1.1496643
       4825.8327       1.2516939
       4826.5475       1.2167591
       4827.2623       1.0008765
       4827.9770       1.0735481
       4828.6918      0.86259001
       4829.4065       1.0861237
       4830.1213       1.1901347
       4830.8360       1.2232486
       4831.5508       1.1180398
       4832.2655       1.2417989
       4832.9803       1.0312930
       4833.6951       1.2826303
       4834.4098       1.1781036
       4835.1246       1.1585489
       4835.8393       1.0524945
       4836.5541       1.1330405
       4837.2688       1.0719635
       4837.9836       1.2060150
       4838.6983       1.1287002
       4839.4131       1.0701618
       4840.1278       1.1046814
       4840.8426       1.1992452
       4841.5574       1.0146386
       4842.2721       1.0043492
       4842.9869       1.0335934
       4843.7016       1.1608495
       4844.4164       1.2182464
       4845.1311       1.1946856
       4845.8459       1.2822245
       4846.5606       1.0275625
       4847.2754       1.2124824
       4847.9901       1.1629473
       4848.7049       1.2572045
       4849.4197       1.0466580
       4850.1344       1.0811586
       4850.8492       1.1675906
       4851.5639       1.1171608
       4852.2787       1.0956532
       4852.9934       1.0753070
       4853.7082       1.0927433
       4854.4229       1.0561073
       4855.1377       1.0175674
       4855.8524       1.0008546
       4856.5672       1.0552583
       4857.2820       1.3016452
       4857.9967       1.3629249
       4858.7115       1.4049058
       4859.4262       1.4992337
       4860.1410       1.6312984
       4860.8557       1.7268711
       4861.5705       1.6232507
       4862.2852       1.7419762
       4863.0000       1.6428399
       4863.7148       1.4306989
       4864.4295       1.5195256
       4865.1443       1.3391793
       4865.8590       1.2449977
       4866.5738       1.1078409
       4867.2885       1.1360886
       4868.0033       1.1955500
       4868.7180      0.98600003
       4869.4328      0.99452249
       4870.1475       1.1253828
       4870.8623       1.0059747
       4871.5771       1.0373264
       4872.2918      0.90799584
       4873.0066      0.98373406
       4873.7213       1.1638054
       4874.4361       1.0731314
       4875.1508      0.95490800
       4875.8656      0.90685968
       4876.5803       1.0945944
       4877.2951       1.0823615
       4878.0098       1.1115702
       4878.7246       1.2185134
       4879.4394       1.2304758
       4880.1541       1.3014945
       4880.8689       1.1325976
       4881.5836       1.0847381
       4882.2984      0.93215687
       4883.0131       1.0506200
       4883.7279      0.94320672
       4884.4426       1.1299594
       4885.1574      0.99423602
       4885.8721      0.93835206
       4886.5869      0.96708808
       4887.3017       1.2174557
       4888.0164       1.1433582
       4888.7312      0.99553084
       4889.4459      0.99336923
       4890.1607       1.0080911
       4890.8754      0.98016370
       4891.5902       1.0049008
       4892.3049       1.0433114
       4893.0197      0.94962256
       4893.7345       1.0623468
       4894.4492       1.1140124
       4895.1640       1.0913969
       4895.8787       1.0079237
       4896.5935       1.1552931
       4897.3082       1.2024003
       4898.0230       1.1439653
       4898.7377       1.0753133
       4899.4525       1.1162721
       4900.1672       1.0607880
       4900.8820      0.98222280
       4901.5968       1.1363759
       4902.3115       1.0418816
       4903.0263       1.0595570
       4903.7410       1.0230720
       4904.4558       1.0368743
       4905.1705       1.0592219
       4905.8853       1.0372589
       4906.6000       1.1664207
       4907.3148       1.0956429
       4908.0295       1.0181185
       4908.7443       1.1527060
       4909.4591       1.1991738
       4910.1738       1.1776813
       4910.8886       1.0669917
       4911.6033       1.1861147
       4912.3181       1.1263396
       4913.0328       1.1328361
       4913.7476       1.2115142
       4914.4623       1.1768498
       4915.1771       1.0133278
       4915.8919      0.97885632
       4916.6066       1.1983728
       4917.3214       1.0911252
       4918.0361       1.0949144
       4918.7509       1.1422951
       4919.4656       1.1368310
       4920.1804      0.93998510
       4920.8951       1.0211729
       4921.6099       1.1608862
       4922.3246       1.0225201
       4923.0394       1.0729824
       4923.7542       1.1517350
       4924.4689       1.1207615
       4925.1837       1.1596549
       4925.8984       1.1342694
       4926.6132       1.1543386
       4927.3279       1.1846925
       4928.0427       1.2945157
       4928.7574       1.2614579
       4929.4722       1.2601672
       4930.1869       1.1375836
       4930.9017       1.1425934
       4931.6165       1.2064686
       4932.3312       1.3068351
       4933.0460       1.1604973
       4933.7607       1.2366626
       4934.4755       1.1452089
       4935.1902       1.1593430
       4935.9050       1.0483190
       4936.6197       1.0435932
       4937.3345       1.0876276
       4938.0492       1.1451206
       4938.7640       1.0657067
       4939.4788       1.0508146
       4940.1935      0.98395782
       4940.9083       1.0119575
       4941.6230      0.96700707
       4942.3378       1.1019064
       4943.0525       1.0076177
       4943.7673      0.91155738
       4944.4820       1.0587393
       4945.1968       1.2854514
       4945.9116       1.0709564
       4946.6263       1.1359812
       4947.3411       1.0675886
       4948.0558       1.1409044
       4948.7706       1.1546015
       4949.4853       1.1577210
       4950.2001       1.1860590
       4950.9148       1.1773895
       4951.6296       1.1830631
       4952.3443       1.1819837
       4953.0591       1.1522956
       4953.7739       1.2270633
       4954.4886       1.1824368
       4955.2034       1.2186590
       4955.9181       1.2896001
       4956.6329       1.3856558
       4957.3476       1.3974238
       4958.0624       1.1786346
       4958.7771       1.1843764
       4959.4919       1.3261736
       4960.2066       1.3852385
       4960.9214       1.3888966
       4961.6362       1.3934539
       4962.3509       1.4181912
       4963.0657       1.2320305
       4963.7804       1.2915100
       4964.4952       1.2508178
       4965.2099       1.3285564
       4965.9247       1.2300109
       4966.6394       1.1512826
       4967.3542       1.0736293
       4968.0690       1.0691606
       4968.7837       1.2254761
       4969.4985      0.95330537
       4970.2132       1.1391220
       4970.9280       1.4810053
       4971.6427       1.1071855
       4972.3575      0.99786116
       4973.0722       1.2153243
       4973.7870       1.5362417
       4974.5017       1.5097222
       4975.2165       1.6487371
       4975.9313       1.1966867
       4976.6460       1.0728171
       4977.3608       1.4143232
       4978.0755       1.2172460
       4978.7903       1.2591570
       4979.5050       1.3180546
       4980.2198       1.2863312
       4980.9345       1.5177692
       4981.6493       1.3022361
       4982.3640       1.3018802
       4983.0788       1.3154404
       4983.7936       1.1973901
       4984.5083       1.1352160
       4985.2231       1.0993647
       4985.9378       1.1059922
       4986.6526       1.0857063
       4987.3673       1.0933018
       4988.0821       1.0435100
       4988.7968       1.1087298
       4989.5116       1.2464614
       4990.2263       1.2851261
       4990.9411       1.2466194
       4991.6559       1.1626260
       4992.3706       1.1020760
       4993.0854       1.0838396
       4993.8001       1.1407586
       4994.5149       1.1099589
       4995.2296       1.0972643
       4995.9444       1.1328772
       4996.6591      0.96616214
       4997.3739       1.1125756
       4998.0887       1.1891869
       4998.8034       1.0779551
       4999.5182       1.0477193
       5000.2329       1.1211225
       5000.9477       1.1482299
       5001.6624       1.2386241
       5002.3772       1.0750437
       5003.0919       1.1096994
       5003.8067       1.1957463
       5004.5214       1.2530284
       5005.2362       1.2379287
       5005.9510       1.3195687
       5006.6657       1.5993611
       5007.3805       1.6275115
       5008.0952       1.5071676
       5008.8100       1.5363861
       5009.5247       1.8135834
       5010.2395       1.5803024
       5010.9542       1.2458525
       5011.6690      0.98399120
       5012.3837       1.3768198
       5013.0985       1.1740488
       5013.8133       1.2734222
       5014.5280       1.3524412
       5015.2428       1.1768281
       5015.9575      0.99039339
       5016.6723       1.0654737
       5017.3870       1.0706967
       5018.1018       1.1283058
       5018.8165       1.1517611
       5019.5313       1.2605658
       5020.2460      0.94241927
       5020.9608       1.1070774
       5021.6756       1.2223699
       5022.3903      0.93723468
       5023.1051      0.96027945
       5023.8198       1.0425539
       5024.5346       1.1410542
       5025.2493       1.0349523
       5025.9641       1.3359525
       5026.6788       1.2765498
       5027.3936       1.1775561
       5028.1084       1.1622030
       5028.8231       1.1718800
       5029.5379       1.2348494
       5030.2526       1.2569039
       5030.9674       1.2356541
       5031.6821       1.2856081
       5032.3969       1.2276953
       5033.1116       1.2806972
       5033.8264       1.3608358
       5034.5411       1.2244388
       5035.2559       1.0715543
       5035.9707       1.1406420
       5036.6854       1.2923395
       5037.4002       1.1763907
       5038.1149       1.2390459
       5038.8297       1.0952798
       5039.5444       1.1808492
       5040.2592      0.76603877
       5040.9739      0.86348020
       5041.6887       1.5639561
       5042.4034       1.8931980
       5043.1182       1.4384782
       5043.8330       1.0682372
       5044.5477       1.2774139
       5045.2625       1.1235101
       5045.9772       1.1771819
       5046.6920       1.1815200
       5047.4067       1.1345503
       5048.1215       1.1403543
       5048.8362       1.3354284
       5049.5510       1.4567352
       5050.2658       1.1061838
       5050.9805       1.3067057
       5051.6953       1.2180010
       5052.4100       1.3223239
       5053.1248       1.3665883
       5053.8395       1.2709359
       5054.5543       1.2540911
       5055.2690       1.3921795
       5055.9838       1.2747452
       5056.6985       1.1655630
       5057.4133       1.0247819
       5058.1281       1.5412473
       5058.8428       1.6067056
       5059.5576       1.2438806
       5060.2723       1.5185054
       5060.9871       1.2539672
       5061.7018       1.4296092
       5062.4166       1.2179655
       5063.1313       1.1093259
       5063.8461       1.2090373
       5064.5608       1.2529139
       5065.2756       1.1158927
       5065.9904       1.1261358
       5066.7051       1.1921460
       5067.4199       1.2509989
       5068.1346       1.2281994
       5068.8494       1.2810206
       5069.5641       1.1697251
       5070.2789       1.1959159
       5070.9936       1.2474540
       5071.7084       1.2350645
       5072.4231      0.95680059
       5073.1379      0.93734558
       5073.8527       1.1627955
       5074.5674      0.96630051
       5075.2822       1.1707411
       5075.9969       1.1192689
       5076.7117      0.94379864
       5077.4264       1.1587728
       5078.1412      0.99899834
       5078.8559      0.87417801
       5079.5707      0.85506763
       5080.2855       1.0193995
       5081.0002      0.85194521
       5081.7150       1.1632323
       5082.4297       1.4781432
       5083.1445      0.88903797
       5083.8592      0.95327041
       5084.5740       1.1874293
       5085.2887       1.3575629
       5086.0035       1.3458625
       5086.7182       1.2542074
       5087.4330       1.2015725
       5088.1478       1.3127698
       5088.8625       1.2574695
       5089.5773       1.1628207
       5090.2920       1.1451405
       5091.0068       1.0194180
       5091.7215       1.0668542
       5092.4363       1.1487453
       5093.1510       1.1808362
       5093.8658       1.2654676
       5094.5805       1.2623353
       5095.2953       1.1334116
       5096.0101       1.0831390
       5096.7248       1.1486671
       5097.4396      0.88994863
       5098.1543       1.1131425
       5098.8691       1.2303107
       5099.5838       1.0964291
       5100.2986       1.0349454
       5101.0133       1.3225326
       5101.7281       1.2600787
       5102.4429       1.3319527
       5103.1576       1.2860255
       5103.8724      0.79993906
       5104.5871       1.6090101
       5105.3019       1.4771503
       5106.0166      0.95145814
       5106.7314       1.2585346
       5107.4461       1.1999921
       5108.1609       1.0922903
       5108.8756       1.1255918
       5109.5904       1.2766257
       5110.3052       1.3678320
       5111.0199       1.1918841
       5111.7347       1.2175750
       5112.4494       1.1502235
       5113.1642       1.2525604
       5113.8789       1.2930925
       5114.5937       1.1984615
       5115.3084       1.2035028
       5116.0232       1.2077622
       5116.7379       1.3063756
       5117.4527       1.3134101
       5118.1675       1.3443602
       5118.8822       1.2862704
       5119.5970       1.3394927
       5120.3117       1.2017462
       5121.0265       1.0945168
       5121.7412       1.1470197
       5122.4560       1.2520906
       5123.1707       1.2931316
       5123.8855       1.2114319
       5124.6002       1.2689951
       5125.3150       1.1232086
       5126.0298       1.1164931
       5126.7445       1.0218763
       5127.4593       1.0277678
       5128.1740       1.1483876
       5128.8888       1.3296372
       5129.6035       1.3056265
       5130.3183       1.4499538
       5131.0330       1.3747798
       5131.7478       1.2783415
       5132.4626       1.1668476
       5133.1773       1.3078555
       5133.8921       1.2987324
       5134.6068       1.3867120
       5135.3216       1.3282537
       5136.0363       1.3905601
       5136.7511       1.4072140
       5137.4658       1.1263808
       5138.1806       1.1723108
       5138.8953       1.1669461
       5139.6101       1.1516715
       5140.3249       1.1229010
       5141.0396       1.1797986
       5141.7544       1.0584939
       5142.4691       1.1140734
       5143.1839       1.0940784
       5143.8986       1.1226923
       5144.6134       1.2187689
       5145.3281       1.2224798
       5146.0429       1.2147689
       5146.7576       1.1625472
       5147.4724       1.1510549
       5148.1872       1.0581600
       5148.9019       1.1009909
       5149.6167       1.1603167
       5150.3314       1.1069857
       5151.0462       1.1732009
       5151.7609       1.1890675
       5152.4757       1.2119851
       5153.1904       1.1428082
       5153.9052       1.1236875
       5154.6200       1.1858040
       5155.3347       1.1932544
       5156.0495       1.1342719
       5156.7642       1.2290052
       5157.4790       1.2956969
       5158.1937       1.2599728
       5158.9085       1.1369252
       5159.6232       1.2773082
       5160.3380       1.4213299
       5161.0527       1.2823361
       5161.7675       1.1216630
       5162.4823       1.0683783
       5163.1970       1.2001101
       5163.9118       1.1321294
       5164.6265       1.1061367
       5165.3413       1.0811236
       5166.0560       1.1722922
       5166.7708       1.0362453
       5167.4855       1.1203935
       5168.2003       1.0732472
       5168.9150       1.0417352
       5169.6298      0.87423569
       5170.3446      0.89999028
       5171.0593      0.90474769
       5171.7741      0.63979034
       5172.4888       1.0306876
       5173.2036       1.1414295
       5173.9183       1.0783935
       5174.6331       1.2243001
       5175.3478       1.3773654
       5176.0626      0.78262817
       5176.7773       1.1037158
       5177.4921       1.1171273
       5178.2069      0.89308496
       5178.9216       1.1226822
       5179.6364       1.2610366
       5180.3511       1.4151449
       5181.0659       1.2160359
       5181.7806       1.3264621
       5182.4954       1.2850187
       5183.2101       1.4331487
       5183.9249       1.1348371
       5184.6397      0.88320187
       5185.3544       1.1784059
       5186.0692       1.1200726
       5186.7839      0.78562201
       5187.4987      0.79805288
       5188.2134       1.2086516
       5188.9282       1.1343020
       5189.6429      0.86504669
       5190.3577       1.1958539
       5191.0724       1.3850785
       5191.7872       1.6090575
       5192.5020       1.3491597
       5193.2167       1.2836186
       5193.9315       1.0346799
       5194.6462       1.1731215
       5195.3610       1.7589731
       5196.0757       2.1257603
       5196.7905       1.7082129
       5197.5052       1.3980527
       5198.2200       1.4846361
       5198.9347       1.0007697
       5199.6495      0.80525435
       5200.3643       1.1909426
       5201.0790       1.4610702
       5201.7938       1.5002579
       5202.5085       1.4114370
       5203.2233       1.1339082
       5203.9380       1.3904130
       5204.6528       1.1719229
       5205.3675      0.87938924
       5206.0823       1.1608199
       5206.7970       1.3503885
       5207.5118       1.1427633
       5208.2266       1.3165753
       5208.9413       1.1030230
       5209.6561       1.0221288
       5210.3708       1.3221299
       5211.0856       1.2943664
       5211.8003      0.84626923
       5212.5151      0.72625441
       5213.2298       1.2682180
       5213.9446       1.4611056
       5214.6594       1.1246574
       5215.3741      0.79603559
       5216.0889       1.1285597
       5216.8036       1.3899741
       5217.5184       1.3644543
       5218.2331       1.4737834
       5218.9479       1.3502592
       5219.6626       1.2653945
       5220.3774       1.3266470
       5221.0921       1.3928288
       5221.8069       1.2745051
       5222.5217       1.1671481
       5223.2364       1.2514585
       5223.9512       1.2268225
       5224.6659       1.0603463
       5225.3807       1.1937430
       5226.0954       1.1058835
       5226.8102       1.0729681
       5227.5249       1.1260288
       5228.2397       1.2628863
       5228.9544       1.2884465
       5229.6692       1.2965842
       5230.3840       1.3174191
       5231.0987       1.3449918
       5231.8135       1.4004409
       5232.5282       1.3772650
       5233.2430       1.2558545
       5233.9577       1.1533921
       5234.6725       1.3167329
       5235.3872       1.2397354
       5236.1020       1.2937757
       5236.8168       1.3098957
       5237.5315       1.2595051
       5238.2463       1.2547903
       5238.9610       1.2552559
       5239.6758       1.1460873
       5240.3905       1.1278360
       5241.1053       1.3636892
       5241.8200       1.3270880
       5242.5348       1.2565159
       5243.2495       1.3308943
       5243.9643       1.2704826
       5244.6791       1.3560209
       5245.3938       1.3145074
       5246.1086       1.1633461
       5246.8233       1.2273468
       5247.5381       1.1770214
       5248.2528       1.2978305
       5248.9676       1.3052628
       5249.6823       1.2350853
       5250.3971       1.1930002
       5251.1118       1.2816732
       5251.8266       1.3117344
       5252.5414       1.4248384
       5253.2561       1.3935309
       5253.9709       1.3756220
       5254.6856       1.4459742
       5255.4004       1.4720921
       5256.1151       1.6078781
       5256.8299       1.5192441
       5257.5446       1.3148899
       5258.2594       1.2770388
       5258.9741       1.4227470
       5259.6889       1.4536924
       5260.4037      0.90823156
       5261.1184      0.93628175
       5261.8332       1.3114554
       5262.5479       1.1764839
       5263.2627      0.96982120
       5263.9774      0.65065141
       5264.6922      0.87229828
       5265.4069       1.4763260
       5266.1217       1.2454601
       5266.8365      0.43395669
       5267.5512      0.80149730
       5268.2660      0.83131129
       5268.9807       1.2320070
       5269.6955       1.3316763
       5270.4102       1.1548475
       5271.1250       1.1914573
       5271.8397       1.2071199
       5272.5545       1.3779140
       5273.2692       1.2405555
       5273.9840       1.2719076
       5274.6988       1.2317722
       5275.4135       1.1144205
       5276.1283       1.0552961
       5276.8430       1.0116244
       5277.5578      0.79666811
       5278.2725       1.0655673
       5278.9873       1.2379877
       5279.7020       1.5186368
       5280.4168       1.3556368
       5281.1315       1.3744813
       5281.8463       1.3805159
       5282.5611       1.3761899
       5283.2758       1.2648316
       5283.9906       1.3773670
       5284.7053       1.3545869
       5285.4201       1.4773603
       5286.1348       1.3600739
       5286.8496       1.3170011
       5287.5643       1.3766205
       5288.2791       1.4304092
       5288.9939       1.5490054
       5289.7086       1.4255927
       5290.4234       1.2698888
       5291.1381       1.3526491
       5291.8529       1.2620395
       5292.5676       1.3235780
       5293.2824       1.3844675
       5293.9971       1.2805653
       5294.7119       1.3192035
       5295.4266       1.3500934
       5296.1414       1.8778500
       5296.8562      0.97397507
       5297.5709       1.0361715
       5298.2857       1.1796333
       5299.0004      0.50047719
       5299.7152      0.85085157
       5300.4299      0.84324051
       5301.1447       1.9554231
       5301.8594       2.2553583
       5302.5742       1.6432038
       5303.2889       1.2596388
       5304.0037       1.6257676
       5304.7185      0.83855144
       5305.4332      0.69756227
       5306.1480      0.99048433
       5306.8627       1.5983627
       5307.5775       1.5135264
       5308.2922       1.4520295
       5309.0070       1.4432467
       5309.7217       1.6282755
       5310.4365       1.3749588
       5311.1512       1.1818018
       5311.8660       1.4445440
       5312.5808       1.4332029
       5313.2955       1.3266239
       5314.0103       1.2370266
       5314.7250       1.3076933
       5315.4398       1.3504054
       5316.1545       1.3886050
       5316.8693       1.3668032
       5317.5840       1.3247207
       5318.2988       1.4808332
       5319.0136       1.4142597
       5319.7283       1.3490142
       5320.4431       1.4598689
       5321.1578       1.0586354
       5321.8726       1.1730282
       5322.5873       1.5409911
       5323.3021       1.1664161
       5324.0168       1.0537771
       5324.7316       1.1883749
       5325.4463       1.4039793
       5326.1611       1.3498440
       5326.8759       1.1984869
       5327.5906       1.2148542
       5328.3054       1.2683181
       5329.0201       1.3032528
       5329.7349       1.3812274
       5330.4496       1.3071521
       5331.1644       2.0495795
       5331.8791      0.92654600
       5332.5939      0.82115693
       5333.3086       1.0289507
       5334.0234       1.2117658
       5334.7382       2.0828956
       5335.4529       1.2540126
       5336.1677       1.5725548
       5336.8824       1.5005045
       5337.5972       1.4821882
       5338.3119       1.3280201
       5339.0267       1.3901928
       5339.7414       1.4441956
       5340.4562       1.3239252
       5341.1709       1.4409210
       5341.8857       1.4024994
       5342.6005       1.1398515
       5343.3152       1.1859974
       5344.0300       1.2907964
       5344.7447       1.7660615
       5345.4595      0.98739006
       5346.1742       1.0787848
       5346.8890       1.5605622
       5347.6037       1.6797154
       5348.3185       1.5771790
       5349.0333       1.4342580
       5349.7480       1.5301501
       5350.4628       1.4506245
       5351.1775       1.9464277
       5351.8923       2.0234559
       5352.6070      0.68598715
       5353.3218       1.0040398
       5354.0365      0.80895135
       5354.7513       1.0500856
       5355.4660      0.78987345
       5356.1808      0.99965568
       5356.8956       1.8482210
       5357.6103       1.5838022
       5358.3251       1.6063104
       5359.0398       1.3949269
       5359.7546       1.3484615
       5360.4693       1.4323099
       5361.1841       1.3675701
       5361.8988       1.3715045
       5362.6136       1.5359110
       5363.3283       1.4382976
       5364.0431       1.3231154
       5364.7579       1.3060567
       5365.4726       1.4249598
       5366.1874       1.1872855
       5366.9021       1.1434875
       5367.6169       1.0285311
       5368.3316       1.2448274
       5369.0464       1.1464409
       5369.7611       1.1670015
       5370.4759       1.1130721
       5371.1907       1.4877774
       5371.9054       1.4275339
       5372.6202       1.5116541
       5373.3349       1.4019836
       5374.0497       1.3229767
       5374.7644       1.2408155
       5375.4792       1.4423929
       5376.1939       1.0878895
       5376.9087      0.98005755
       5377.6234       1.2823333
       5378.3382       1.0479938
       5379.0530      0.76160417
       5379.7677       1.4663188
       5380.4825       1.4005585
       5381.1972       1.3212597
       5381.9120       1.3756079
       5382.6267       1.2785898
       5383.3415       1.2272521
       5384.0562       1.3511300
       5384.7710       1.4478860
       5385.4857       1.3528997
       5386.2005       1.3011174
       5386.9153       1.2067937
       5387.6300       1.2944509
       5388.3448       1.3587289
       5389.0595       1.5351396
       5389.7743       1.4040802
       5390.4890       1.1790305
       5391.2038       1.3878913
       5391.9185       1.3928428
       5392.6333       1.4127640
       5393.3480       1.1849411
       5394.0628       1.0880081
       5394.7776       1.1296416
       5395.4923       1.1218506
       5396.2071      0.68966079
       5396.9218      0.71737069
       5397.6366       1.0071474
       5398.3513       1.3185989
       5399.0661       1.4158716
       5399.7808       1.3692003
       5400.4956       1.5436545
       5401.2104      0.91348151
       5401.9251      0.74897648
       5402.6399      0.64853408
       5403.3546       1.0829737
       5404.0694      0.98510091
       5404.7841       1.0071819
       5405.4989      0.99354582
       5406.2136       1.2303063
       5406.9284       1.2556538
       5407.6431       1.2541613
       5408.3579       1.2603406
       5409.0727       1.3384029
       5409.7874       1.3813991
       5410.5022       1.3310767
       5411.2169       1.3112379
       5411.9317       1.1237016
       5412.6464       1.2005342
       5413.3612       1.2606395
       5414.0759       1.2674145
       5414.7907       1.3712714
       5415.5054       1.3221026
       5416.2202       1.1381675
       5416.9350       1.3764890
       5417.6497       1.3981691
       5418.3645       1.3837050
       5419.0792       1.2138524
       5419.7940       1.3331947
       5420.5087       1.3638328
       5421.2235       1.4427088
       5421.9382       1.5936704
       5422.6530       1.6132857
       5423.3678       1.3375397
       5424.0825       1.3752962
       5424.7973       1.5483779
       5425.5120       1.2436028
       5426.2268       1.2595650
       5426.9415       1.0033082
       5427.6563       1.3138231
       5428.3710       1.3628877
       5429.0858       1.6890350
       5429.8005       1.6119071
       5430.5153       1.4546556
       5431.2301       1.3545914
       5431.9448      0.95665760
       5432.6596       1.2796658
       5433.3743       1.1030478
       5434.0891       1.0786217
       5434.8038       1.3874231
       5435.5186       1.5555921
       5436.2333       1.5779727
       5436.9481       1.2951127
       5437.6628       1.5184190
       5438.3776       1.3995307
       5439.0924       1.4906364
       5439.8071       1.3772516
       5440.5219       1.3506825
       5441.2366       1.3837022
       5441.9514       1.3243671
       5442.6661       1.2918288
       5443.3809       1.4950356
       5444.0956       1.3074996
       5444.8104       1.1031367
       5445.5251       1.2195645
       5446.2399       1.3107479
       5446.9547       1.4272799
       5447.6694       1.3633175
       5448.3842       1.3841008
       5449.0989       1.3251899
       5449.8137       1.3642058
       5450.5284       1.4840298
       5451.2432       1.4167995
       5451.9579       1.4110747
       5452.6727       1.3482282
       5453.3875       1.3471194
       5454.1022       1.3470509
       5454.8170       1.2885567
       5455.5317       1.2045902
       5456.2465       1.2110772
       5456.9612       1.2987842
       5457.6760       1.4962878
       5458.3907       1.2834956
       5459.1055       1.3509058
       5459.8202       1.2750434
       5460.5350       1.2658723
       5461.2498       1.2739067
       5461.9645       1.2240465
       5462.6793       1.1969302
       5463.3940       1.2693090
       5464.1088       1.2670549
       5464.8235       1.3811208
       5465.5383       1.4146897
       5466.2530       1.4820630
       5466.9678       1.4594655
       5467.6825       1.3800140
       5468.3973       1.4569453
       5469.1121       1.7416362
       5469.8268       1.3590188
       5470.5416       1.3592518
       5471.2563       1.3104834
       5471.9711       1.3901483
       5472.6858       1.2988046
       5473.4006       1.3120280
       5474.1153       1.2318963
       5474.8301       1.2274508
       5475.5448       1.3505444
       5476.2596       1.3184361
       5476.9744       1.2707552
       5477.6891       1.4127683
       5478.4039       1.4387662
       5479.1186       1.2672609
       5479.8334       1.2314162
       5480.5481       1.1314023
       5481.2629       1.3002887
       5481.9776       1.3188695
       5482.6924       1.3262628
       5483.4072       1.2555702
       5484.1219       1.3856422
       5484.8367       1.3614411
       5485.5514       1.3105279
       5486.2662       1.5627101
       5486.9809       1.5166364
       5487.6957       1.4961655
       5488.4104       1.4085337
       5489.1252       1.4531551
       5489.8399       1.4540113
       5490.5547       1.5689943
       5491.2695       1.5503910
       5491.9842       1.4074048
       5492.6990       1.2729481
       5493.4137       1.2867907
       5494.1285       1.2290171
       5494.8432       1.2519829
       5495.5580       1.3181914
       5496.2727       1.3331238
       5496.9875       1.4615253
       5497.7022       1.4894091
       5498.4170       1.4375002
       5499.1318       1.4047615
       5499.8465       1.4445789
       5500.5613       1.4206287
       5501.2760       1.3890305
       5501.9908       1.5559794
       5502.7055       1.5086403
       5503.4203       1.5081877
       5504.1350       1.5161158
       5504.8498       1.4756034
       5505.5646       1.3640412
       5506.2793       1.3550055
       5506.9941       1.2335493
       5507.7088       1.4661456
       5508.4236       1.5181604
       5509.1383       1.5165941
       5509.8531       1.4053791
       5510.5678       1.4088662
       5511.2826       1.3530065
       5511.9973       1.3878717
       5512.7121       1.4527404
       5513.4269       1.4644992
       5514.1416       1.4367272
       5514.8564       1.4572250
       5515.5711       1.4223880
       5516.2859       1.4374928
       5517.0006       1.4065251
       5517.7154       1.4320538
       5518.4301       1.3218014
       5519.1449       1.4680805
       5519.8596       1.4978339
       5520.5744       1.6494748
       5521.2892       1.6166456
       5522.0039       1.5077240
       5522.7187       1.6157897
       5523.4334       1.4805882
       5524.1482       1.3252665
       5524.8629       1.5121209
       5525.5777       1.5986165
       5526.2924       1.5103344
       5527.0072       1.5557384
       5527.7219       1.6654883
       5528.4367       1.6092408
       5529.1515       1.5364771
       5529.8662       1.5759278
       5530.5810       1.4254960
       5531.2957       1.4166025
       5532.0105       1.4787974
       5532.7252       1.5286351
       5533.4400       1.5957781
       5534.1547       1.6716456
       5534.8695       1.6427597
       5535.5843       1.5616821
       5536.2990       1.5667460
       5537.0138       1.7955409
       5537.7285       1.6332849
       5538.4433       1.5971464
       5539.1580       1.5721917
       5539.8728       1.5568460
       5540.5875       1.7124628
       5541.3023       1.6092828
       5542.0170       1.6005290
       5542.7318       1.4016760
       5543.4466       1.4019687
       5544.1613       1.4750630
       5544.8761       1.4287443
       5545.5908       1.3029506
       5546.3056       1.4112474
       5547.0203       1.5333680
       5547.7351       1.4952493
       5548.4498       1.4971598
       5549.1646       1.4461878
       5549.8793       1.4424997
       5550.5941       1.4636951
       5551.3089       1.2588843
       5552.0236       1.2499883
       5552.7384       1.2707190
       5553.4531       1.5823801
       5554.1679       1.4851503
       5554.8826       1.5766609
       5555.5974       1.5778601
       5556.3121       1.4678004
       5557.0269       1.5293451
       5557.7417       1.5731074
       5558.4564       1.6375726
       5559.1712       1.5703627
       5559.8859       1.5440107
       5560.6007       1.5723304
       5561.3154       1.5262288
       5562.0302       1.4454961
       5562.7449       1.5361655
       5563.4597       1.6204094
       5564.1744       1.4934380
       5564.8892       1.4922475
       5565.6040       1.6288953
       5566.3187       1.6259493
       5567.0335       1.3523544
       5567.7482       1.4065185
       5568.4630       1.3341711
       5569.1777       1.3920137
       5569.8925       1.4689406
       5570.6072       1.4974419
       5571.3220       1.3929027
       5572.0367       1.5121181
       5572.7515       1.4358242
       5573.4663       1.4193840
       5574.1810       1.3539857
       5574.8958       1.3207841
       5575.6105       1.4142168
       5576.3253       1.5760778
       5577.0400       1.7043896
       5577.7548       1.5554401
       5578.4695       1.3833499
       5579.1843       1.4743520
       5579.8990       1.4886854
       5580.6138       1.3656331
       5581.3286       1.2700414
       5582.0433       1.1793637
       5582.7581       1.3132253
       5583.4728       1.8564731
       5584.1876       2.5058124
       5584.9023       2.1506815
       5585.6171       1.3482095
       5586.3318       1.0561999
       5587.0466      0.77759270
       5587.7614       1.3535080
       5588.4761       1.6940470
       5589.1909      0.67850390
       5589.9056      0.74902702
       5590.6204      0.86196293
       5591.3351       1.4438650
       5592.0499       1.1379190
       5592.7646      0.53047870
       5593.4794       1.4004802
       5594.1941       2.2062573
       5594.9089       1.1470778
       5595.6237     -0.47898326
       5596.3384      0.89862117
       5597.0532      0.78700765
       5597.7679      0.83071490
       5598.4827      0.25564088
       5599.1974      0.76936981
       5599.9122       1.8534598
       5600.6269       1.3037092
       5601.3417       1.2071346
       5602.0564       1.2922041
       5602.7712       1.0510769
       5603.4860       1.0371259
       5604.2007      0.84498892
       5604.9155      0.85641895
       5605.6302      0.86325353
       5606.3450       1.2886591
       5607.0597       1.1234855
       5607.7745      0.76981459
       5608.4892      0.87392722
       5609.2040      0.75463918
       5609.9188      0.94675265
       5610.6335       1.0053143
       5611.3483       1.0663036
       5612.0630       1.5211660
       5612.7778       1.3382394
       5613.4925       1.0299347
       5614.2073      0.80846211
       5614.9220      0.95960487
       5615.6368       1.0223673
       5616.3515      0.87609758
       5617.0663      0.93755961
       5617.7811       1.0629454
       5618.4958       1.0148487
       5619.2106      0.96652619
       5619.9253       1.1310209
       5620.6401      0.99310364
       5621.3548      0.92269914
       5622.0696      0.99299207
       5622.7843       1.1232156
       5623.4991      0.76399280
       5624.2138      0.72524625
       5624.9286      0.89025865
       5625.6434       1.7765791
       5626.3581       2.4509682
       5627.0729      0.35669857
       5627.7876      0.38119099
       5628.5024       1.4104403
       5629.2171       1.8835411
       5629.9319     0.029022723
       5630.6466     -0.23649976
       5631.3614       2.3811096
       5632.0761       1.6476517
       5632.7909       1.3619744
       5633.5057       1.1126656
       5634.2204       1.0526592
       5634.9352       1.0691288
       5635.6499       1.2488733
       5636.3647       1.2029471
       5637.0794       1.1233750
       5637.7942       1.4318257
       5638.5089       1.5199813
       5639.2237       1.3366801
       5639.9385       1.3067042
       5640.6532       1.2208774
       5641.3680       1.4094300
       5642.0827       1.6728732
       5642.7975       1.3272626
       5643.5122       1.4677565
       5644.2270       1.7131051
       5644.9417       1.0692856
       5645.6565       1.2084348
       5646.3712      0.91847611
       5647.0860       1.2065895
       5647.8008       1.3402875
       5648.5155       1.1868473
       5649.2303       1.0823126
       5649.9450       1.1686682
       5650.6598       1.3448547
       5651.3745       1.4386271
       5652.0893       1.3275069
       5652.8040       1.1362147
       5653.5188       1.3067971
       5654.2335       1.1468440
       5654.9483      0.55017616
       5655.6631      0.70049084
       5656.3778      0.77526754
       5657.0926      0.56676426
       5657.8073       1.2073598
       5658.5221      0.94422490
       5659.2368      0.79081893
       5659.9516      0.77652447
       5660.6663      0.94720364
       5661.3811       1.0264349
       5662.0958       1.1640798
       5662.8106       1.3018609
       5663.5254       1.4544121
       5664.2401       2.0709674
       5664.9549       1.7441137
       5665.6696      0.33510198
       5666.3844      0.23586518
       5667.0991       1.0350119
       5667.8139      0.50969089
       5668.5286     -0.11461885
       5669.2434      0.51195819
       5669.9582       2.1610882
       5670.6729       1.5392987
       5671.3877       1.3287812
       5672.1024       1.2240373
       5672.8172       1.4631120
       5673.5319       1.1609848
       5674.2467       1.0582266
       5674.9614       1.1585129
       5675.6762       1.4324220
       5676.3909      0.76840241
       5677.1057     0.090316898
       5677.8205       1.3651243
       5678.5352       2.5074813
       5679.2500       1.4687826
       5679.9647       1.0524736
       5680.6795      0.92946737
       5681.3942       1.8552432
       5682.1090       1.3798504
       5682.8237       1.1174945
       5683.5385       1.1896786
       5684.2532       1.0898160
       5684.9680       1.1540187
       5685.6828       1.1395151
       5686.3975       1.1072210
       5687.1123       2.4341023
       5687.8270      0.48912266
       5688.5418      0.56096049
       5689.2565      0.92355377
       5689.9713       1.5333864
       5690.6860     -0.21207249
       5691.4008     -0.70235005
       5692.1156       2.0568755
       5692.8303       1.6050715
       5693.5451       1.2034571
       5694.2598       1.1839149
       5694.9746       1.2704193
       5695.6893       1.4896700
       5696.4041       1.3250483
       5697.1188       1.3797250
       5697.8336       1.3200032
       5698.5483       1.2553437
       5699.2631       1.0432542
       5699.9779      0.92372279
       5700.6926       1.0232087
       5701.4074       1.0821627
       5702.1221       1.2912112
       5702.8369       1.4424711
       5703.5516      0.64976743
       5704.2664      0.55315687
       5704.9811      0.47905786
       5705.6959      0.81853511
       5706.4106       1.1001789
       5707.1254      0.85712062
       5707.8402       1.5054010
       5708.5549       1.4406847
       5709.2697       1.2288870
       5709.9844       1.2087531
       5710.6992       1.1751139
       5711.4139       1.3131618
       5712.1287       1.3839247
       5712.8434       1.1178507
       5713.5582    -0.072661202
       5714.2729      0.47042791
       5714.9877       1.0180665
       5715.7025      0.96990748
       5716.4172      0.67826591
       5717.1320    -0.096554511
       5717.8467       1.3106956
       5718.5615       1.2739104
       5719.2762       1.3355414
       5719.9910       1.2211742
       5720.7057       1.1846063
       5721.4205       1.4773832
       5722.1353       1.3598604
       5722.8500       1.4518904
       5723.5648       1.2714007
       5724.2795       1.3416765
       5724.9943       1.4788296
       5725.7090       1.3915059
       5726.4238       1.4924051
       5727.1385       1.2693350
       5727.8533       1.1134714
       5728.5680       1.1107260
       5729.2828       1.0575066
       5729.9976       1.1080713
       5730.7123       1.0871573
       5731.4271       1.0810052
       5732.1418       1.2559826
       5732.8566       1.8777899
       5733.5713       1.5263881
       5734.2861      0.98389071
       5735.0008       1.1064121
       5735.7156       1.6875229
       5736.4303       1.4159982
       5737.1451      0.48515997
       5737.8599       1.4186593
       5738.5746       1.4825643
       5739.2894       1.3668798
       5740.0041       1.3753782
       5740.7189       1.2228555
       5741.4336       1.6119047
       5742.1484      0.31036661
       5742.8631     -0.45262730
       5743.5779      0.36649852
       5744.2927       1.1027158
       5745.0074       1.7884145
       5745.7222       1.6174886
       5746.4369       1.6283273
       5747.1517       2.0784519
       5747.8664       1.6369779
       5748.5812       1.3201517
       5749.2959       1.4080526
       5750.0107       1.5189046
       5750.7254       1.4086284
       5751.4402       1.2536288
       5752.1550       1.2971088
       5752.8697       1.3447298
       5753.5845       1.2761099
       5754.2992       1.3499489
       5755.0140       1.1282478
       5755.7287       1.0489532
       5756.4435       1.1776499
       5757.1582       1.1745187
       5757.8730       1.1022711
       5758.5877       1.1806558
       5759.3025       1.1982138
       5760.0173       1.2688652
       5760.7320       1.1404611
       5761.4468       1.1257835
       5762.1615      0.99620409
       5762.8763       1.1603711
       5763.5910       1.2395333
       5764.3058       1.2446147
       5765.0205       1.1122090
       5765.7353       1.2349463
       5766.4500       1.1041738
       5767.1648      0.73593558
       5767.8796       1.3922808
       5768.5943       1.0169952
       5769.3091       1.0556963
       5770.0238      0.92242924
       5770.7386       1.3200987
       5771.4533       1.3702314
       5772.1681       1.1406403
       5772.8828       1.0681673
       5773.5976       1.2538801
       5774.3124       1.4667595
       5775.0271       1.4850571
       5775.7419       1.7466806
       5776.4566       1.2014687
       5777.1714      0.65885650
       5777.8861      0.89896601
       5778.6009       1.0035064
       5779.3156       1.3144193
       5780.0304      0.95334988
       5780.7451      0.88992260
       5781.4599      0.87871139
       5782.1747       1.1769512
       5782.8894       1.0400183
       5783.6042       1.1482292
       5784.3189       1.0129308
       5785.0337      0.89692106
       5785.7484       1.0690294
       5786.4632       1.1310790
       5787.1779      0.98493604
       5787.8927      0.97759832
       5788.6074       1.1125249
       5789.3222       1.1990489
       5790.0370       1.0485051
       5790.7517      0.97745112
       5791.4665       1.1215481
       5792.1812       1.2760718
       5792.8960       1.1449001
       5793.6107       1.2359606
       5794.3255       1.3518692
       5795.0402       1.2968614
       5795.7550       1.1678047
       5796.4697       1.2660539
       5797.1845       1.2769976
       5797.8993       1.1921757
       5798.6140       1.2250957
       5799.3288       1.2277060
       5800.0435       1.3007883
       5800.7583       1.1665999
       5801.4730       1.2265025
       5802.1878       1.3302929
       5802.9025       1.6274123
       5803.6173       1.0868429
       5804.3321       1.1327951
       5805.0468       1.1629729
       5805.7616       1.3869991
       5806.4763       1.1574196
       5807.1911      0.95440708
       5807.9058       1.1924319
       5808.6206       1.5015512
       5809.3353       1.9546074
       5810.0501       1.7282555
       5810.7648       1.0503976
       5811.4796       1.0933439
       5812.1944       1.3375384
       5812.9091       1.8957575
       5813.6239       1.5934044
       5814.3386       1.7949396
       5815.0534       1.7959160
       5815.7681       1.6906288
       5816.4829       1.9167044
       5817.1976       2.0857158
       5817.9124       2.5285582
       5818.6271       2.3664833
       5819.3419       2.1695729
