# wavelength flux
       1883.1542    -0.036870439
       1883.7968    -0.077667990
       1884.4394    0.0049863015
       1885.0819     0.025825883
       1885.7245     0.013173734
       1886.3671    -0.038750531
       1887.0097    -0.071490867
       1887.6523    -0.046902477
       1888.2949    -0.049588952
       1888.9374     0.011651107
       1889.5800    -0.028888945
       1890.2226     0.045432702
       1890.8652    0.0062533853
       1891.5078     0.016356324
       1892.1503     0.033494715
       1892.7929    -0.031917061
       1893.4355    -0.053224675
       1894.0781     0.021445154
       1894.7207   -0.0042041465
       1895.3632    -0.046044182
       1896.0058    0.0095168494
       1896.6484    -0.012250402
       1897.2910     0.020704204
       1897.9336     0.026714713
       1898.5762    -0.028046813
       1899.2187    -0.014084448
       1899.8613     0.047001105
       1900.5039     0.035019924
       1901.1465    0.0093908089
       1901.7891     0.052850838
       1902.4316     0.014966581
       1903.0742     0.036886208
       1903.7168     0.034238620
       1904.3594     -0.10681930
       1905.0020    -0.032771526
       1905.6445     0.016288668
       1906.2871     0.045952436
       1906.9297     0.063095496
       1907.5723    -0.031246457
       1908.2149   -0.0037038275
       1908.8575     0.047107127
       1909.5000     0.025152438
       1910.1426   -0.0080423051
       1910.7852     0.083004558
       1911.4278     0.022655675
       1912.0704    -0.024149851
       1912.7129     0.010652036
       1913.3555    -0.014092859
       1913.9981     0.011473822
       1914.6407     0.045279013
       1915.2833     0.075664228
       1915.9258     0.019867218
       1916.5684     0.015436671
       1917.2110     0.034787496
       1917.8536     0.063136624
       1918.4962     0.026932592
       1919.1388     0.036019018
       1919.7813    -0.042207191
       1920.4239   -0.0043738971
       1921.0665   -0.0082614956
       1921.7091    -0.067550815
       1922.3517    -0.042724988
       1922.9942     0.012292390
       1923.6368     0.053220184
       1924.2794     0.049696104
       1924.9220     0.028976792
       1925.5646     0.067391114
       1926.2071    0.0036807696
       1926.8497    -0.013941815
       1927.4923    -0.040098556
       1928.1349    -0.033394455
       1928.7775     0.049640194
       1929.4201     0.055008864
       1930.0626    0.0087834757
       1930.7052    -0.012328781
       1931.3478     0.065748061
       1931.9904     0.068755643
       1932.6330     0.013801736
       1933.2755     0.027614296
       1933.9181     0.049982929
       1934.5607     0.027455988
       1935.2033    -0.032354818
       1935.8459    -0.081381203
       1936.4884     -0.14112834
       1937.1310    -0.046915247
       1937.7736   -0.0013760545
       1938.4162     0.071413056
       1939.0588     0.088520901
       1939.7014    -0.016542145
       1940.3439      0.11575533
       1940.9865     0.075450335
       1941.6291    -0.048027303
       1942.2717    -0.013900447
       1942.9143     0.022783319
       1943.5568   -0.0038601534
       1944.1994     0.033426648
       1944.8420    -0.044041837
       1945.4846    0.0018386259
       1946.1272     0.018895062
       1946.7697     0.047890280
       1947.4123    -0.046111465
       1948.0549     -0.12845475
       1948.6975     0.032582137
       1949.3401     0.021298056
       1949.9827     0.026892830
       1950.6252   0.00063676627
       1951.2678    -0.021004028
       1951.9104     0.014356703
       1952.5530    -0.061723316
       1953.1956     0.013134063
       1953.8381     0.013173992
       1954.4807    -0.089286286
       1955.1233    -0.020760029
       1955.7659    0.0052066694
       1956.4085     0.070540457
       1957.0510     0.071214476
       1957.6936     0.086439077
       1958.3362     0.073358602
       1958.9788    0.0071856453
       1959.6214    -0.012898983
       1960.2640     0.060300350
       1960.9065     0.090653807
       1961.5491     0.045107146
       1962.1917   -0.0095211015
       1962.8343    0.0059072555
       1963.4769    -0.025816493
       1964.1194     0.019585958
       1964.7620     0.011917755
       1965.4046     0.020741052
       1966.0472     0.044071044
       1966.6898    -0.041192401
       1967.3324    -0.015804533
       1967.9749     0.010685908
       1968.6175    0.0019710860
       1969.2601    0.0015449374
       1969.9027  -0.00059840210
       1970.5453    0.0045828490
       1971.1878     0.038984041
       1971.8304     0.071976384
       1972.4730    0.0048663198
       1973.1156     0.015552228
       1973.7582     0.044887818
       1974.4007     0.025655955
       1975.0433     0.014299104
       1975.6859   -0.0033896774
       1976.3285     0.013463736
       1976.9711     0.015159475
       1977.6137    0.0080845508
       1978.2562     0.015835627
       1978.8988    0.0096945532
       1979.5414    -0.052314033
       1980.1840   -0.0026094391
       1980.8266    -0.019113164
       1981.4691   -0.0050688654
       1982.1117    -0.034667304
       1982.7543    -0.053371445
       1983.3969      0.11958801
       1984.0395     0.044228337
       1984.6820     0.074882943
       1985.3246     0.073029002
       1985.9672     0.033793730
       1986.6098     0.033210668
       1987.2524    -0.015677067
       1987.8950    -0.033988754
       1988.5375     0.017345703
       1989.1801     0.022138986
       1989.8227    0.0013903453
       1990.4653     0.015449466
       1991.1079    -0.017902771
       1991.7504   -0.0022743907
       1992.3930     0.051960671
       1993.0356     0.067101907
       1993.6782    0.0062584402
       1994.3208   -0.0095351870
       1994.9633     0.012217889
       1995.6059     0.059684064
       1996.2485     0.026307803
       1996.8911    -0.056520638
       1997.5337     0.014120917
       1998.1763   -0.0014198476
       1998.8188    -0.025506470
       1999.4614     0.037011165
       2000.1040     0.013031772
       2000.7466     0.086404879
       2001.3892      0.10413372
       2002.0317    0.0044288692
       2002.6743     0.067752791
       2003.3169     0.023038909
       2003.9595    0.0055801760
       2004.6021   -0.0053672128
       2005.2446     0.024329607
       2005.8872   0.00065184971
       2006.5298     0.047054915
       2007.1724     0.014305109
       2007.8150     0.014825830
       2008.4576     0.042507067
       2009.1001    -0.043987042
       2009.7427   -0.0045602110
       2010.3853     0.033713155
       2011.0279     0.040885616
       2011.6705   -0.0080032987
       2012.3130     0.026047935
       2012.9556    0.0064168540
       2013.5982     0.030040266
       2014.2408     0.021133039
       2014.8834     0.013462425
       2015.5259     0.072885156
       2016.1685     0.031391305
       2016.8111     0.014437949
       2017.4537     0.019157283
       2018.0963     0.013142311
       2018.7389     0.011332776
       2019.3814     0.027132633
       2020.0240    -0.029448920
       2020.6666    0.0096817099
       2021.3092   0.00045345232
       2021.9518    0.0048620227
       2022.5943  -0.00078145129
       2023.2369    -0.031907556
       2023.8795   0.00034944798
       2024.5221     0.017266368
       2025.1647   -0.0040255921
       2025.8072    -0.021824570
       2026.4498    -0.018818425
       2027.0924     0.048704894
       2027.7350    0.0015333598
       2028.3776     0.028981209
       2029.0202    0.0031725210
       2029.6627     0.014859916
       2030.3053     0.048144190
       2030.9479     0.014299614
       2031.5905     0.069027133
       2032.2331    0.0097249638
       2032.8756    -0.012376308
       2033.5182    -0.032526169
       2034.1608    -0.014367208
       2034.8034     0.025992221
       2035.4460     0.019860048
       2036.0885   -0.0032084602
       2036.7311    -0.019131829
       2037.3737     0.026999655
       2038.0163     0.028865389
       2038.6589    -0.023159130
       2039.3015     0.025334504
       2039.9440     0.025909179
       2040.5866     0.075483619
       2041.2292    0.0034194391
       2041.8718    -0.015140924
       2042.5144     0.015217033
       2043.1569     0.036405180
       2043.7995     0.015832944
       2044.4421     0.026677573
       2045.0847     0.020882867
       2045.7273     0.061509383
       2046.3698     0.016922576
       2047.0124     0.023455668
       2047.6550    -0.023819922
       2048.2976    0.0061378842
       2048.9402    0.0017727312
       2049.5828    0.0069972270
       2050.2253   -0.0055655241
       2050.8679    0.0043679749
       2051.5105     0.030811132
       2052.1531     0.012333482
       2052.7957    0.0082953234
       2053.4382   -0.0089713370
       2054.0808    -0.029684287
       2054.7234     0.028295937
       2055.3660    0.0041665409
       2056.0086    0.0025928660
       2056.6511  -0.00048104322
       2057.2937     0.020752403
       2057.9363   -0.0011108717
       2058.5789     0.023286966
       2059.2215    -0.022207940
       2059.8641    -0.048257247
       2060.5066    -0.077368149
       2061.1492     0.023791617
       2061.7918     0.015734224
       2062.4344  -0.00022435016
       2063.0770    0.0042753416
       2063.7195    0.0060700984
       2064.3621   -0.0080226196
       2065.0047    -0.018596933
       2065.6473    -0.018606432
       2066.2899     0.050752344
       2066.9324     0.026807382
       2067.5750    0.0032058178
       2068.2176     0.041085154
       2068.8602     0.017267523
       2069.5028    0.0068161318
       2070.1454     0.039944860
       2070.7879     0.045612701
       2071.4305     0.018514688
       2072.0731     0.034292366
       2072.7157   -0.0054583885
       2073.3583     0.028015172
       2074.0008     0.036863838
       2074.6434     0.032775121
       2075.2860     0.022602045
       2075.9286   -0.0084059201
       2076.5712    0.0019349623
       2077.2138     0.037903716
       2077.8563     0.078012702
       2078.4989     0.035460036
       2079.1415     0.042181261
       2079.7841  -0.00069405148
       2080.4267   -0.0042504182
       2081.0692     0.011851854
       2081.7118     0.058796217
       2082.3544     0.024507493
       2082.9970     0.012977423
       2083.6396     0.034936398
       2084.2821    -0.018224444
       2084.9247     0.033133153
       2085.5673   -0.0095052178
       2086.2099     0.019433531
       2086.8525    0.0044583804
       2087.4951     0.034658294
       2088.1376     0.029180050
       2088.7802  -0.00021043068
       2089.4228     0.040520419
       2090.0654     0.010694288
       2090.7080     0.017017114
       2091.3505     0.023657208
       2091.9931    0.0010485008
       2092.6357    -0.021125880
       2093.2783     0.014495364
       2093.9209    0.0063631116
       2094.5634     0.050086263
       2095.2060     0.043623300
       2095.8486     0.042511404
       2096.4912     0.015481417
       2097.1338     0.020011200
       2097.7764    -0.023004180
       2098.4189     0.036078432
       2099.0615     0.049107207
       2099.7041     0.045112134
       2100.3467     0.015489504
       2100.9893     0.089506626
       2101.6318   -0.0048796595
       2102.2744    -0.018210757
       2102.9170   0.00055267096
       2103.5596     0.026071612
       2104.2022     0.014210168
       2104.8447     0.020633659
       2105.4873     0.022941518
       2106.1299     0.075155056
       2106.7725     0.029273422
       2107.4151     0.013275018
       2108.0577    0.0081674224
       2108.7002     0.037750502
       2109.3428     0.014538274
       2109.9854     0.040029136
       2110.6280     0.016529757
       2111.2706     0.072901712
       2111.9131    0.0050782318
       2112.5557   -0.0027542722
       2113.1983     0.043073723
       2113.8409    0.0042479262
       2114.4835     0.037353977
       2115.1260     0.038627923
       2115.7686     0.025206814
       2116.4112   -0.0025438606
       2117.0538   -0.0076072471
       2117.6964     0.042483479
       2118.3390    0.0033863788
       2118.9815     0.027246539
       2119.6241     0.016492269
       2120.2667    -0.016985147
       2120.9093     0.038923919
       2121.5519     0.028459072
       2122.1944     0.031365765
       2122.8370     0.016126489
       2123.4796     0.035940338
       2124.1222     0.028426116
       2124.7648   -0.0039140033
       2125.4073    0.0054553173
       2126.0499     0.029265523
       2126.6925    -0.017992817
       2127.3351     0.037715042
       2127.9777    -0.018695047
       2128.6203   -0.0091929999
       2129.2628     0.013553836
       2129.9054     0.017529048
       2130.5480   -0.0071491103
       2131.1906     0.044932573
       2131.8332    0.0078778069
       2132.4757    -0.021403003
       2133.1183     0.023545684
       2133.7609    -0.012287151
       2134.4035  -0.00096787823
       2135.0461     0.035182014
       2135.6886     0.044161774
       2136.3312   -0.0060924390
       2136.9738     0.035833895
       2137.6164     0.014347160
       2138.2590     0.041515615
       2138.9016     0.018257829
       2139.5441     0.016946993
       2140.1867     0.026888253
       2140.8293     0.045795592
       2141.4719    -0.030538218
       2142.1145   -0.0039790044
       2142.7570     0.029616692
       2143.3996     0.032344597
       2144.0422     0.026434891
       2144.6848     0.034384903
       2145.3274    0.0079357936
       2145.9699    -0.041228309
       2146.6125     0.042455064
       2147.2551     0.045991391
       2147.8977     0.029876008
       2148.5403    -0.020810114
       2149.1829    0.0023562239
       2149.8254    -0.012622531
       2150.4680     0.019084724
       2151.1106     0.053251751
       2151.7532     0.035529127
       2152.3958     0.029596747
       2153.0383   -0.0044898921
       2153.6809     0.053017875
       2154.3235     0.034886715
       2154.9661    -0.023221359
       2155.6087   -0.0034963049
       2156.2512   -0.0076257680
       2156.8938     0.043456128
       2157.5364   -0.0081053076
       2158.1790     0.047189263
       2158.8216    0.0037942947
       2159.4642     0.023884096
       2160.1067     0.018255699
       2160.7493    -0.010404278
       2161.3919    -0.019476633
       2162.0345    -0.010740706
       2162.6771  -0.00083099745
       2163.3196   -0.0035589132
       2163.9622    0.0038140560
       2164.6048     0.014973370
       2165.2474    -0.049973127
       2165.8900    0.0014133037
       2166.5325     0.020182343
       2167.1751     0.018120933
       2167.8177     0.045341757
       2168.4603     0.043155605
       2169.1029     0.057471194
       2169.7455    -0.017617882
       2170.3880    0.0053605312
       2171.0306     0.017950218
       2171.6732     0.045250829
       2172.3158     0.023004675
       2172.9584     0.010589439
       2173.6009   -0.0031902414
       2174.2435    -0.017649148
       2174.8861   -0.0024092179
       2175.5287     0.029339518
       2176.1713    -0.013708304
       2176.8138     0.040311829
       2177.4564     0.042861507
       2178.0990    0.0035479919
       2178.7416    0.0046794351
       2179.3842     0.035157332
       2180.0268     0.052103602
       2180.6693     0.045962456
       2181.3119     0.031430270
       2181.9545    0.0092678809
       2182.5971    -0.026782194
       2183.2397    0.0019653335
       2183.8822    -0.028457638
       2184.5248    -0.047796599
       2185.1674    0.0031356233
       2185.8100    -0.016370689
       2186.4526    0.0015994339
       2187.0952     0.017206536
       2187.7377     0.015522205
       2188.3803    -0.026039134
       2189.0229     0.014399566
       2189.6655     0.012039510
       2190.3081     0.014510868
       2190.9506     0.022154225
       2191.5932     0.039717300
       2192.2358     0.012591247
       2192.8784    -0.030888933
       2193.5210    -0.027167284
       2194.1635    0.0086184524
       2194.8061     0.025691122
       2195.4487    0.0090574001
       2196.0913     0.016146774
       2196.7339   -0.0018746321
       2197.3765    0.0058269702
       2198.0190   -0.0036335237
       2198.6616    0.0081498783
       2199.3042     0.025595441
       2199.9468     0.032014560
       2200.5894     0.078747246
       2201.2319     0.036336666
       2201.8745    0.0091785535
       2202.5171     0.073947458
       2203.1597     0.036812236
       2203.8023   -0.0037459531
       2204.4448   -0.0067894793
       2205.0874     0.036994014
       2205.7300     0.017832831
       2206.3726     0.058411350
       2207.0152     0.050777140
       2207.6578     0.029039162
       2208.3003     0.014372234
       2208.9429     0.025736675
       2209.5855     0.016626962
       2210.2281     0.074988488
       2210.8707    0.0094751858
       2211.5132     0.030136151
       2212.1558     0.034245481
       2212.7984     0.022024288
       2213.4410     0.029686692
       2214.0836     0.037565707
       2214.7261     0.050981820
       2215.3687     0.061529045
       2216.0113     0.024728323
       2216.6539     0.056261944
       2217.2965    -0.036279375
       2217.9391     0.051177169
       2218.5816     0.035811022
       2219.2242     0.064337856
       2219.8668     0.016408524
       2220.5094     0.048925253
       2221.1520     0.045762238
       2221.7945     0.049616205
       2222.4371    0.0078996156
       2223.0797     0.033817325
       2223.7223   -0.0028686827
       2224.3649   -0.0083574740
       2225.0074     0.021268073
       2225.6500     0.041189337
       2226.2926    -0.028462997
       2226.9352     0.019857332
       2227.5778     0.018313952
       2228.2204     0.016439466
       2228.8629    -0.032270293
       2229.5055     0.011601060
       2230.1481     0.043929991
       2230.7907    0.0046794386
       2231.4333     0.054517467
       2232.0758     0.023596748
       2232.7184     0.020747688
       2233.3610     0.028623567
       2234.0036  -0.00035960760
       2234.6462   -0.0030638349
       2235.2887   -0.0086287468
       2235.9313    0.0097033331
       2236.5739     0.011483037
       2237.2165     0.029792948
       2237.8591     0.034905349
       2238.5017     0.012559726
       2239.1442     0.040998982
       2239.7868     0.016473305
       2240.4294     0.023882500
       2241.0720     0.044751914
       2241.7146   -0.0027387425
       2242.3571     0.031830196
       2242.9997     0.059137085
       2243.6423     0.030383043
       2244.2849     0.076902030
       2244.9275     0.049131684
       2245.5700     0.024148125
       2246.2126   -0.0022762332
       2246.8552     0.026229654
       2247.4978     0.014398110
       2248.1404     0.019734403
       2248.7830   -0.0020115194
       2249.4255     0.033133157
       2250.0681     0.019744605
       2250.7107     0.023738953
       2251.3533     0.011526722
       2251.9959     0.015253778
       2252.6384    -0.013798256
       2253.2810     0.032050359
       2253.9236     0.043050320
       2254.5662    0.0092188306
       2255.2088     0.010762325
       2255.8513     0.052671011
       2256.4939     0.032053518
       2257.1365    0.0061282104
       2257.7791     0.048787794
       2258.4217     0.040143711
       2259.0643     0.057363730
       2259.7068    -0.019760094
       2260.3494     0.026883698
       2260.9920     0.039119326
       2261.6346     0.036174410
       2262.2772   -0.0031008413
       2262.9197     0.056572810
       2263.5623     0.013038160
       2264.2049     0.033348846
       2264.8475     0.014945266
       2265.4901     0.017294505
       2266.1326     0.038200148
       2266.7752    0.0034720406
       2267.4178    0.0025405862
       2268.0604   -0.0058145776
       2268.7030     0.024917286
       2269.3456     0.047835726
       2269.9881     0.016149187
       2270.6307   -0.0080416442
       2271.2733     0.016994371
       2271.9159     0.031566903
       2272.5585     0.039420585
       2273.2010     0.016514761
       2273.8436     0.013045619
       2274.4862     0.033755665
       2275.1288     0.017500805
       2275.7714     0.045983415
       2276.4139     0.040063467
       2277.0565    -0.034954717
       2277.6991   -0.0022196936
       2278.3417     0.040309741
       2278.9843     0.012890709
       2279.6269     0.022597129
       2280.2694     0.018026681
       2280.9120     0.034227143
       2281.5546     0.024355163
       2282.1972     0.037131964
       2282.8398    0.0038183049
       2283.4823     0.045451727
       2284.1249     0.056782805
       2284.7675     0.030299685
       2285.4101     0.028045268
       2286.0527     0.010193618
       2286.6952     0.033238299
       2287.3378     0.061891593
       2287.9804     0.010356312
       2288.6230     0.013931980
       2289.2656   -0.0095855569
       2289.9082     0.015182658
       2290.5507     0.010562807
       2291.1933     0.014752175
       2291.8359     0.060262830
       2292.4785     0.029314734
       2293.1211     0.058705613
       2293.7636     0.023407864
       2294.4062     0.014490198
       2295.0488  -0.00082832726
       2295.6914   -0.0086834786
       2296.3340   -0.0099670200
       2296.9765    0.0050299035
       2297.6191   0.00017243584
       2298.2617     0.024215431
       2298.9043     0.046270319
       2299.5469   -0.0029783388
       2300.1895    0.0060383223
       2300.8320     0.060525906
       2301.4746     0.026805956
       2302.1172    -0.010798296
       2302.7598     0.044397623
       2303.4024     0.036778525
       2304.0449     0.037301983
       2304.6875     0.057610715
       2305.3301     0.022174602
       2305.9727     0.034482180
       2306.6153     0.028991642
       2307.2579     0.030772392
       2307.9004     0.023776509
       2308.5430     0.022472743
       2309.1856     0.018192759
       2309.8282    0.0083084528
       2310.4708     0.042842596
       2311.1133    -0.010473951
       2311.7559   -0.0047404043
       2312.3985     0.018017187
       2313.0411     0.059301189
       2313.6837    0.0064499231
       2314.3262     0.091139849
       2314.9688     0.026878019
       2315.6114    0.0020448736
       2316.2540     0.019829028
       2316.8966     0.038073730
       2317.5392     0.034643273
       2318.1817     0.040399299
       2318.8243     0.033956244
       2319.4669    0.0011378412
       2320.1095    0.0074153435
       2320.7521     0.027711963
       2321.3946     0.033947381
       2322.0372    -0.023131183
       2322.6798     0.050424548
       2323.3224     0.013704831
       2323.9650     0.025633870
       2324.6075     0.078369818
       2325.2501    0.0061296777
       2325.8927     0.036709838
       2326.5353   -0.0074737981
       2327.1779    0.0094415857
       2327.8205     0.054226124
       2328.4630     0.035560451
       2329.1056    0.0074875465
       2329.7482     0.047735284
       2330.3908    -0.014760161
       2331.0334     0.056885097
       2331.6759     0.021958248
       2332.3185     0.017034080
       2332.9611     0.017659216
       2333.6037     0.019680657
       2334.2463     0.036160749
       2334.8888     0.018697487
       2335.5314     0.032760876
       2336.1740     0.051891401
       2336.8166     0.033109434
       2337.4592     0.060304320
       2338.1018    -0.017454272
       2338.7443     0.012036532
       2339.3869    0.0051549006
       2340.0295   -0.0014300432
       2340.6721     0.012521967
       2341.3147     0.035932471
       2341.9572     0.042663257
       2342.5998     0.014216617
       2343.2424     0.039378994
       2343.8850     0.012013684
       2344.5276     0.021819170
       2345.1701    -0.037403015
       2345.8127   -0.0030723140
       2346.4553   -0.0011852750
       2347.0979    0.0054973059
       2347.7405   -0.0084157525
       2348.3831    0.0031538323
       2349.0256    0.0067544193
       2349.6682     0.050384922
       2350.3108     0.015399610
       2350.9534     0.024522716
       2351.5960     0.080086534
       2352.2385     0.038871014
       2352.8811     0.012660464
       2353.5237     0.015890843
       2354.1663     0.011150316
       2354.8089     0.023725126
       2355.4514    0.0049173864
       2356.0940     0.021155612
       2356.7366     0.023973046
       2357.3792     0.052270448
       2358.0218     0.061832212
       2358.6644     0.038824639
       2359.3069     0.043013831
       2359.9495     0.019764494
       2360.5921     0.020528045
       2361.2347     0.028098138
       2361.8773     0.047620112
       2362.5198     0.041099844
       2363.1624    -0.021201300
       2363.8050     0.011527017
       2364.4476     0.035739663
       2365.0902     0.072310881
       2365.7327     0.036214066
       2366.3753    0.0010913943
       2367.0179     0.045422072
       2367.6605     0.022049920
       2368.3031     0.056791712
       2368.9457     0.021802993
       2369.5882     0.066213037
       2370.2308     0.047693012
       2370.8734     0.050976990
       2371.5160     0.067145454
       2372.1586     0.012464506
       2372.8011     0.018943463
       2373.4437     0.035354421
       2374.0863    0.0056794823
       2374.7289     0.025120640
       2375.3715    0.0056536149
       2376.0140     0.029118406
       2376.6566    0.0052919241
       2377.2992    0.0077208695
       2377.9418     0.011122798
       2378.5844    -0.033697812
       2379.2270     0.032084123
       2379.8695     0.039640262
       2380.5121    0.0088656809
       2381.1547     0.037017725
       2381.7973     0.013197767
       2382.4399     0.010994039
       2383.0824   -0.0065825634
       2383.7250     0.012905730
       2384.3676    -0.011977131
       2385.0102   0.00071281047
       2385.6528   -0.0031271006
       2386.2953     0.018857320
       2386.9379     0.015715134
       2387.5805     0.046949173
       2388.2231     0.024460680
       2388.8657     0.030105696
       2389.5083     0.043202071
       2390.1508    0.0023761365
       2390.7934     0.019802173
       2391.4360    -0.014110541
       2392.0786    0.0012663295
       2392.7212    0.0047374038
       2393.3637     0.036209583
       2394.0063     0.048065483
       2394.6489    0.0034205873
       2395.2915     0.042019391
       2395.9341   -0.0040667709
       2396.5766    0.0048679981
       2397.2192     0.022560426
       2397.8618   -0.0024540502
       2398.5044   -0.0072076044
       2399.1470     0.066400627
       2399.7896     0.061683423
       2400.4321     0.040996397
       2401.0747     0.017490081
       2401.7173   -0.0081582710
       2402.3599     0.030158612
       2403.0025     0.017264673
       2403.6450   -0.0068215625
       2404.2876     0.038960934
       2404.9302     0.060727489
       2405.5728     0.037701424
       2406.2154    0.0044118868
       2406.8579     0.014319995
       2407.5005    0.0047181255
       2408.1431     0.045229909
       2408.7857     0.035138077
       2409.4283     0.015528661
       2410.0709     0.057392389
       2410.7134     0.027813567
       2411.3560    0.0048646182
       2411.9986     0.049347671
       2412.6412     0.014673800
       2413.2838     0.014550629
       2413.9263    0.0066819415
       2414.5689     0.047512748
       2415.2115     0.074540166
       2415.8541     0.065013871
       2416.4967     0.034610037
       2417.1393     0.052587248
       2417.7818     0.048445399
       2418.4244     0.035254007
       2419.0670     0.084292119
       2419.7096     0.028695478
       2420.3522     0.020168547
       2420.9947   -0.0028661494
       2421.6373     0.059281502
       2422.2799   -0.0065646308
       2422.9225     0.057622646
       2423.5651     0.069792493
       2424.2076     0.034707310
       2424.8502     0.060559654
       2425.4928     0.085973829
       2426.1354    0.0040641782
       2426.7780    0.0040498752
       2427.4206    0.0017224091
       2428.0631     0.037347698
       2428.7057     0.037541183
       2429.3483     0.073123336
       2429.9909     0.020694179
       2430.6335     0.041089488
       2431.2760    0.0030141754
       2431.9186     0.062703464
       2432.5612     0.018396434
       2433.2038     0.040441159
       2433.8464    0.0057861807
       2434.4889     0.036266323
       2435.1315     0.044829502
       2435.7741     0.055530808
       2436.4167     0.045312895
       2437.0593     0.055549352
       2437.7019    0.0093882639
       2438.3444     0.027006220
       2438.9870    0.0060511465
       2439.6296     0.068330900
       2440.2722     0.025357328
       2440.9148     0.058706142
       2441.5573     0.034818499
       2442.1999     0.013505221
       2442.8425     0.020825072
       2443.4851     0.023778505
       2444.1277     0.016112512
       2444.7702     0.030804065
       2445.4128     0.074352602
       2446.0554     0.035026476
       2446.6980   -0.0064730256
       2447.3406     0.084740644
       2447.9832     0.040551161
       2448.6257     0.013932732
       2449.2683     0.047412721
       2449.9109    -0.025422336
       2450.5535     0.069709711
       2451.1961     0.054306576
       2451.8386     0.083799127
       2452.4812     0.041516024
       2453.1238    -0.014029755
       2453.7664     0.027597153
       2454.4090     0.041613080
       2455.0515     0.031370463
       2455.6941     0.072741859
       2456.3367    0.0078516766
       2456.9793     0.049148992
       2457.6219     0.050202279
       2458.2645     0.032391477
       2458.9070     0.028228414
       2459.5496     0.067080736
       2460.1922     0.057702925
       2460.8348     0.063423573
       2461.4774     0.045942689
       2462.1199     0.034971165
       2462.7625     0.029501581
       2463.4051     0.026741758
       2464.0477   -0.0054535646
       2464.6903     0.025112116
       2465.3328     0.024867444
       2465.9754     0.057612671
       2466.6180    -0.019295955
       2467.2606     0.057976687
       2467.9032     0.048517973
       2468.5458   -0.0024848943
       2469.1883     0.017872624
       2469.8309     0.057716728
       2470.4735     0.042804874
       2471.1161     0.064221582
       2471.7587      0.10265463
       2472.4012    0.0037150344
       2473.0438     0.049943894
       2473.6864     0.042901362
       2474.3290     0.039302862
       2474.9716     0.058033597
       2475.6141     0.059175783
       2476.2567     0.053498464
       2476.8993     0.029666079
       2477.5419     0.041762993
       2478.1845     0.044366297
       2478.8271     0.022412726
       2479.4696     0.010105932
       2480.1122     0.055677700
       2480.7548     0.034162532
       2481.3974    0.0058856705
       2482.0400     0.024816160
       2482.6825     0.080040619
       2483.3251     0.019902618
       2483.9677    0.0075340018
       2484.6103     0.026032425
       2485.2529     0.039771045
       2485.8954     0.072518781
       2486.5380      0.10238944
       2487.1806     0.028748622
       2487.8232     0.033688201
       2488.4658   -0.0026253862
       2489.1084     0.095571257
       2489.7509     0.052457941
       2490.3935     0.065059175
       2491.0361    0.0098502745
       2491.6787     0.046371206
       2492.3213     0.052865736
       2492.9638     0.057225865
       2493.6064     0.033922841
       2494.2490     0.040550015
       2494.8916     0.028710935
       2495.5342     0.030723779
       2496.1767     0.042262865
       2496.8193     0.074087585
       2497.4619     0.039150335
       2498.1045   0.00062575635
       2498.7471     0.029853997
       2499.3897     0.029576013
       2500.0322     0.040976403
       2500.6748     0.056067319
       2501.3174     0.043944845
       2501.9600     0.022968843
       2502.6026     0.051187104
       2503.2451     0.063693976
       2503.8877     0.063076694
       2504.5303     0.014369860
       2505.1729    0.0055315557
       2505.8155     0.019158811
       2506.4580      0.10683535
       2507.1006     0.039289803
       2507.7432    -0.026974180
       2508.3858     0.039986570
       2509.0284     0.063303941
       2509.6710     0.025188956
       2510.3135     0.069211963
       2510.9561     0.039178809
       2511.5987     0.023164998
       2512.2413     0.034962332
       2512.8839    0.0019925070
       2513.5264     0.027512623
       2514.1690    -0.028816653
       2514.8116   -0.0083085360
       2515.4542     0.037714244
       2516.0968     0.075557592
       2516.7393  -0.00017472863
       2517.3819     0.083242358
       2518.0245   -0.0023126798
       2518.6671    0.0046844249
       2519.3097    0.0076935192
       2519.9523     0.026135346
       2520.5948     0.033198597
       2521.2374    0.0067079590
       2521.8800    0.0033214089
       2522.5226     0.037409079
       2523.1652    0.0091743643
       2523.8077     0.019418059
       2524.4503     0.023371671
       2525.0929     0.026952708
       2525.7355     0.016114881
       2526.3781     0.013222412
       2527.0207     0.059487475
       2527.6632     0.022217671
       2528.3058     0.027423715
       2528.9484     0.029637791
       2529.5910     0.071043962
       2530.2336    -0.013368735
       2530.8761     0.039677219
       2531.5187     0.035484527
       2532.1613     0.072793027
       2532.8039     0.053877954
       2533.4465     0.056853108
       2534.0890     0.085897588
       2534.7316     0.018978862
       2535.3742     0.041779370
       2536.0168     0.043040548
       2536.6594     0.040294666
       2537.3020     0.043123982
       2537.9445     0.044362919
       2538.5871     0.041679320
       2539.2297     0.045992137
       2539.8723     0.015959584
       2540.5149     0.017338133
       2541.1574     0.055804412
       2541.8000     0.012230572
       2542.4426   -0.0027787092
       2543.0852     0.015807015
       2543.7278     0.035446689
       2544.3703     0.024283471
       2545.0129    0.0072235284
       2545.6555    -0.029649812
       2546.2981     0.073952989
       2546.9407     0.022955288
       2547.5833     0.043835407
       2548.2258     0.077636520
       2548.8684     0.040524994
       2549.5110     0.090203754
       2550.1536     0.039765128
       2550.7962     0.037266790
       2551.4387     0.063147756
       2552.0813     0.028605167
       2552.7239     0.014476542
       2553.3665     0.045892414
       2554.0091     0.025499716
       2554.6516     0.069918922
       2555.2942     0.072551673
       2555.9368     0.047116109
       2556.5794     0.059990866
       2557.2220     0.063043974
       2557.8646     0.067390550
       2558.5071     0.058623612
       2559.1497     0.033095922
       2559.7923     0.043055196
       2560.4349     0.018475889
       2561.0775     0.040705242
       2561.7200     0.067808861
       2562.3626     0.067183824
       2563.0052     0.073720096
       2563.6478     0.054497607
       2564.2904     0.019746242
       2564.9329     0.058321723
       2565.5755     0.032981819
       2566.2181     0.011547819
       2566.8607     0.036012868
       2567.5033      0.11599343
       2568.1459     0.072245472
       2568.7884     0.032101291
       2569.4310     0.086158653
       2570.0736     0.076252065
       2570.7162     0.058879818
       2571.3588     0.061329553
       2572.0013     0.019191434
       2572.6439     0.054696032
       2573.2865     0.067245977
       2573.9291     0.010668554
       2574.5717     0.037468659
       2575.2142     0.052925419
       2575.8568   -0.0016628590
       2576.4994     0.042881108
       2577.1420     0.077367995
       2577.7846     0.041287557
       2578.4272     0.068283453
       2579.0697     0.062687829
       2579.7123     0.065485764
       2580.3549     0.060630647
       2580.9975     0.036977974
       2581.6401     0.063217757
       2582.2826     0.075497172
       2582.9252     0.034738608
       2583.5678     0.066520925
       2584.2104     0.061472592
       2584.8530    -0.018999834
       2585.4955     0.033614820
       2586.1381    -0.053034298
       2586.7807   -0.0022360299
       2587.4233    -0.016599070
       2588.0659     0.013949095
       2588.7085    0.0031998731
       2589.3510     0.050059929
       2589.9936     0.011803360
       2590.6362     0.097751471
       2591.2788     0.067285463
       2591.9214     0.070629032
       2592.5639     0.075014559
       2593.2065     0.046915218
       2593.8491     0.065089701
       2594.4917     0.058568018
       2595.1343     0.038879091
       2595.7768     0.019906474
       2596.4194    -0.010443598
       2597.0620   -0.0019238013
       2597.7046    0.0062102431
       2598.3472     0.046584992
       2598.9898   -0.0070473443
       2599.6323     0.011862319
       2600.2749  -0.00079884693
       2600.9175    -0.040104885
       2601.5601   -0.0065688430
       2602.2027   -0.0027363214
       2602.8452     0.026449904
       2603.4878     0.038430001
       2604.1304     0.046038676
       2604.7730      0.10289490
       2605.4156     0.019237406
       2606.0581     0.060841961
       2606.7007     0.021237925
       2607.3433     0.058188601
       2607.9859     0.058894791
       2608.6285     0.036181759
       2609.2711     0.088775478
       2609.9136     0.074009420
       2610.5562     0.092805711
       2611.1988     0.037281172
       2611.8414     0.067249656
       2612.4840     0.018650558
       2613.1265    0.0027932393
       2613.7691     0.032462331
       2614.4117     0.013189935
       2615.0543     0.032011507
       2615.6969     0.050587987
       2616.3394     0.061078622
       2616.9820     0.073811062
       2617.6246     0.048513125
       2618.2672    0.0061990574
       2618.9098    0.0069721379
       2619.5524     0.052343439
       2620.1949     0.055624924
       2620.8375     0.096793850
       2621.4801      0.11242309
       2622.1227     0.020330163
       2622.7653     0.027686432
       2623.4078      0.10282746
       2624.0504     0.028296058
       2624.6930     0.048528665
       2625.3356     0.067826013
       2625.9782      0.10275690
       2626.6207     0.016638433
       2627.2633      0.10127307
       2627.9059     0.081644679
       2628.5485     0.030252907
       2629.1911     0.060535788
       2629.8337     0.048545724
       2630.4762     0.032040891
       2631.1188     0.059260668
       2631.7614     0.049594046
       2632.4040     0.087038335
       2633.0466      0.10713938
       2633.6891      0.10644167
       2634.3317     0.012985961
       2634.9743     0.030987958
       2635.6169     0.017646406
       2636.2595     0.014406397
       2636.9020     0.016736262
       2637.5446   -0.0031078857
       2638.1872     0.083398028
       2638.8298     0.072032888
       2639.4724     0.022947128
       2640.1150     0.049734092
       2640.7575     0.054138666
       2641.4001     0.065909998
       2642.0427     0.038504507
       2642.6853     0.036495701
       2643.3279     0.023337054
       2643.9704     0.040456291
       2644.6130     0.032184610
       2645.2556     0.086757860
       2645.8982     0.037907834
       2646.5408     0.087641166
       2647.1834     0.011027541
       2647.8259    0.0096213395
       2648.4685      0.10892184
       2649.1111     0.016376457
       2649.7537     0.048231377
       2650.3963    -0.013411753
       2651.0388     0.050163794
       2651.6814     0.016404722
       2652.3240     0.034744579
       2652.9666     0.028522446
       2653.6092     0.053792542
       2654.2517     0.060626949
       2654.8943     0.052570443
       2655.5369     0.041222193
       2656.1795     0.069142296
       2656.8221     0.023759384
       2657.4647     0.062653750
       2658.1072     0.075567482
       2658.7498    -0.022447283
       2659.3924     0.049423615
       2660.0350     0.029359825
       2660.6776     0.043923509
       2661.3201     0.057125381
       2661.9627     0.071787796
       2662.6053     0.031368286
       2663.2479     0.024667094
       2663.8905   8.1560137e-05
       2664.5330     0.092349672
       2665.1756     0.075679080
       2665.8182     0.077260034
       2666.4608     0.057943229
       2667.1034     0.014203843
       2667.7460     0.041707250
       2668.3885     0.074209025
       2669.0311     0.029410533
       2669.6737     0.035876376
       2670.3163     0.024462201
       2670.9589     0.066262278
       2671.6014     0.040538409
       2672.2440     0.034487867
       2672.8866     0.044275023
       2673.5292     0.048245609
       2674.1718     0.061339995
       2674.8143      0.10270233
       2675.4569     0.018397938
       2676.0995     0.061927954
       2676.7421     0.064178065
       2677.3847     0.074869708
       2678.0273    0.0065213695
       2678.6698    -0.024429954
       2679.3124     0.043482483
       2679.9550     0.068188830
       2680.5976     0.064076765
       2681.2402     0.076418177
       2681.8827     0.028877843
       2682.5253     0.044227294
       2683.1679     0.046383529
       2683.8105     0.020556500
       2684.4531     0.027001672
       2685.0956     0.056529884
       2685.7382     0.025223996
       2686.3808     0.067337000
       2687.0234     0.034338010
       2687.6660     0.043147624
       2688.3086     0.094227376
       2688.9511     0.038099850
       2689.5937     0.041702225
       2690.2363     0.051826166
       2690.8789     0.074433316
       2691.5215     0.078486232
       2692.1640     0.023461846
       2692.8066     0.040808557
       2693.4492     0.072392082
       2694.0918     0.090991592
       2694.7344     0.067047671
       2695.3769     0.018774567
       2696.0195   -0.0042316916
       2696.6621     0.012913811
       2697.3047     0.034465413
       2697.9473     0.059231924
       2698.5899     0.094266669
       2699.2324    0.0077318705
       2699.8750     0.042159583
       2700.5176     0.046598479
       2701.1602     0.048152835
       2701.8028   -0.0094819455
       2702.4453     0.040481627
       2703.0879     0.014515108
       2703.7305     0.062994982
       2704.3731     0.066685068
       2705.0157     0.029256399
       2705.6582     0.081758766
       2706.3008     0.048190129
       2706.9434     0.063302333
       2707.5860     0.043610829
       2708.2286     0.091344676
       2708.8712     0.051993632
       2709.5137     0.012323949
       2710.1563     0.023800499
       2710.7989    0.0075891036
       2711.4415     0.042673357
       2712.0841     0.025128118
       2712.7266     0.040900652
       2713.3692     0.058531268
       2714.0118     0.018632115
       2714.6544   -0.0059534648
       2715.2970     0.031203784
       2715.9395    -0.017307840
       2716.5821     0.012551404
       2717.2247     0.052713578
       2717.8673     0.013465592
       2718.5099     0.037379422
       2719.1525     0.029049791
       2719.7950     0.016122753
       2720.4376     0.035625848
       2721.0802     0.066707492
       2721.7228     0.039697447
       2722.3654     0.014930629
       2723.0079      0.11437202
       2723.6505     0.052647778
       2724.2931     0.029462791
       2724.9357     0.052346456
       2725.5783     0.031345510
       2726.2208    0.0044016483
       2726.8634     0.071721124
       2727.5060     0.068325511
       2728.1486     0.045636890
       2728.7912   -0.0097051030
       2729.4338     0.025091760
       2730.0763     0.063314267
       2730.7189     0.030905916
       2731.3615     0.079817036
       2732.0041     0.059736291
       2732.6467     0.050575455
       2733.2892     0.051611855
       2733.9318     0.024732396
       2734.5744     0.035925773
       2735.2170     0.061821482
       2735.8596     0.081822623
       2736.5021     0.064617718
       2737.1447     0.016013753
       2737.7873     0.012824692
       2738.4299     0.057533478
       2739.0725     0.031614971
       2739.7151     0.024551445
       2740.3576     0.018767760
       2741.0002     0.025001110
       2741.6428    -0.028622769
       2742.2854     0.032647568
       2742.9280   -0.0029282009
       2743.5705     0.053092477
       2744.2131     0.040067966
       2744.8557    0.0038220822
       2745.4983     0.056746372
       2746.1409     0.075129754
       2746.7834    -0.024155560
       2747.4260     0.048816715
       2748.0686     0.083915865
       2748.7112     0.076206201
       2749.3538     0.071839328
       2749.9964     0.057923201
       2750.6389     0.064727446
       2751.2815     0.030068220
       2751.9241     0.036750427
       2752.5667     0.056230502
       2753.2093     0.076355370
       2753.8518     0.084052544
       2754.4944     0.066849638
       2755.1370     0.072020352
       2755.7796     0.049567866
       2756.4222    -0.020838625
       2757.0648     0.044497230
       2757.7073     0.022536188
       2758.3499     0.054477530
       2758.9925     0.027465540
       2759.6351     0.088077995
       2760.2777     0.034981098
       2760.9202     0.065705913
       2761.5628     0.033607524
       2762.2054     0.045019287
       2762.8480     0.078786907
       2763.4906     0.045182188
       2764.1331     0.088413300
       2764.7757    0.0026547051
       2765.4183     0.033742304
       2766.0609     0.016755499
       2766.7035     0.063044769
       2767.3461     0.056143513
       2767.9886     0.037131678
       2768.6312     0.028267206
       2769.2738     0.044024517
       2769.9164     0.011908890
       2770.5590     0.049222214
       2771.2015     0.042404501
       2771.8441   -0.0088337676
       2772.4867      0.11233552
       2773.1293     0.032774715
       2773.7719     0.081738753
       2774.4144     0.070673473
       2775.0570     0.053458880
       2775.6996     0.051311784
       2776.3422     0.033271715
       2776.9848     0.039984265
       2777.6274      0.11418281
       2778.2699     0.067208231
       2778.9125     0.065237101
       2779.5551      0.10192421
       2780.1977     0.033598678
       2780.8403     0.038985066
       2781.4828     0.060165148
       2782.1254     0.042694554
       2782.7680     0.061148806
       2783.4106     0.022676505
       2784.0532   -0.0021652415
       2784.6957     0.068600620
       2785.3383     0.068780985
       2785.9809     0.016213476
       2786.6235     0.082660448
       2787.2661    -0.011660584
       2787.9087     0.037449334
       2788.5512     0.023791472
       2789.1938     0.034589014
       2789.8364    0.0038881547
       2790.4790     0.017104665
       2791.1216    0.0070739675
       2791.7641     0.035755868
       2792.4067   -0.0061167841
       2793.0493     0.036981600
       2793.6919   0.00064921902
       2794.3345     0.026857858
       2794.9770     0.027344743
       2795.6196     0.070873767
       2796.2622     0.043556614
       2796.9048     0.064544013
       2797.5474    0.0093920632
       2798.1900     0.046786778
       2798.8325   -0.0036137691
       2799.4751    -0.049080610
       2800.1177    -0.040558773
       2800.7603    0.0089089904
       2801.4029     0.036206988
       2802.0454     0.094308063
       2802.6880     0.031274433
       2803.3306     0.074473726
       2803.9732     0.088157906
       2804.6158      0.11530710
       2805.2583     0.049482690
       2805.9009     0.044338861
       2806.5435   -0.0093937974
       2807.1861    -0.019246677
       2807.8287    -0.011363337
       2808.4713     0.081639909
       2809.1138     0.041970558
       2809.7564     0.071979822
       2810.3990     0.095343223
       2811.0416     0.041574449
       2811.6842    0.0059998776
       2812.3267     0.043897988
       2812.9693    0.0099458141
       2813.6119     0.076860396
       2814.2545     0.075949800
       2814.8971     0.048769978
       2815.5396     0.016326137
       2816.1822     0.076271401
       2816.8248     0.051446918
       2817.4674     0.057136773
       2818.1100     0.071710135
       2818.7526    -0.025133968
       2819.3951     0.083850560
       2820.0377     0.057545786
       2820.6803     0.070773882
       2821.3229     0.030565704
       2821.9655      0.10405134
       2822.6080     0.020438913
       2823.2506     0.021950454
       2823.8932     0.076789276
       2824.5358     0.056788366
       2825.1784     0.073740500
       2825.8209     0.078365474
       2826.4635     0.035163662
       2827.1061     0.044497612
       2827.7487     0.057697343
       2828.3913     0.034593115
       2829.0339     0.054577578
       2829.6764     0.052158474
       2830.3190     0.064602445
       2830.9616     0.074715932
       2831.6042     0.056784727
       2832.2468     0.016690091
       2832.8893     0.064479754
       2833.5319     0.031817352
       2834.1745     0.090606338
       2834.8171      0.13580396
       2835.4597     0.033698079
       2836.1022     0.018413319
       2836.7448     0.051836101
       2837.3874     0.036230046
       2838.0300   -0.0050479701
       2838.6726   -0.0021075812
       2839.3152     0.075297150
       2839.9577     0.053731692
       2840.6003   -0.0048103245
       2841.2429     0.039886500
       2841.8855     0.052026355
       2842.5281     0.093364084
       2843.1706    -0.022341406
       2843.8132     0.025465747
       2844.4558     0.045832450
       2845.0984     0.024417068
       2845.7410     0.030913182
       2846.3835     0.069974366
       2847.0261     0.052439605
       2847.6687     0.058715309
       2848.3113     0.091596680
       2848.9539     0.035695288
       2849.5965     0.042254494
       2850.2390    -0.015838499
       2850.8816    -0.014367061
       2851.5242     0.028620185
       2852.1668     0.042496818
       2852.8094     0.051663779
       2853.4519     0.043607549
       2854.0945     0.011772737
       2854.7371     0.025568381
       2855.3797     0.038839588
       2856.0223     0.083016639
       2856.6648   -0.0092987392
       2857.3074     0.039994797
       2857.9500     0.016023190
       2858.5926    -0.016206421
       2859.2352     0.090407925
       2859.8778     0.065116614
       2860.5203     0.050127140
       2861.1629   -0.0037837497
       2861.8055     0.035324390
       2862.4481     0.080645101
       2863.0907    0.0046263471
       2863.7332     0.048080391
       2864.3758     0.088461776
       2865.0184     0.044504487
       2865.6610     0.046603954
       2866.3036     0.087049600
       2866.9462     0.043353056
       2867.5887     0.010629596
       2868.2313     0.066487497
       2868.8739     0.069594604
       2869.5165     0.020652337
       2870.1591    -0.039954778
       2870.8016     0.099788775
       2871.4442     0.050363106
       2872.0868     0.051359339
       2872.7294    0.0077090336
       2873.3720     0.048411631
       2874.0145     0.046656038
       2874.6571     0.085722061
       2875.2997     0.023390583
       2875.9423     0.094273641
       2876.5849     0.064490235
       2877.2275     0.015367729
       2877.8700     0.078923243
       2878.5126     0.048489258
       2879.1552     0.045914928
       2879.7978     0.085741968
       2880.4404    -0.010054201
       2881.0829     0.083871770
       2881.7255     0.053288344
       2882.3681     0.039954957
       2883.0107     0.050617919
       2883.6533     0.091126721
       2884.2958     0.050554051
       2884.9384     0.051977576
       2885.5810     0.096760607
       2886.2236     0.029395413
       2886.8662     0.052518212
       2887.5088    0.0056093755
       2888.1513    0.0012667227
       2888.7939     0.059639104
       2889.4365     0.033571224
       2890.0791     0.037444659
       2890.7217      0.11074664
       2891.3642      0.10776153
       2892.0068     0.055159073
       2892.6494   -0.0088968894
       2893.2920     0.085169014
       2893.9346     0.033682286
       2894.5771     0.075123664
       2895.2197     0.084002978
       2895.8623     0.071229230
       2896.5049    -0.018282346
       2897.1475     0.083543573
       2897.7901     0.024655585
       2898.4326  -0.00089230835
       2899.0752     0.073841641
       2899.7178     0.035294591
       2900.3604     0.061555828
       2901.0030     0.019104613
       2901.6455     0.074594355
       2902.2881      0.10564464
       2902.9307     0.015461986
       2903.5733     0.017096449
       2904.2159     0.079075364
       2904.8584     0.053505417
       2905.5010     0.067009139
       2906.1436     0.014580935
       2906.7862     0.083750621
       2907.4288     0.076532536
       2908.0714     0.021767201
       2908.7139      0.10175240
       2909.3565     0.077983375
       2909.9991     0.072313591
       2910.6417     0.050122120
       2911.2843     0.079014318
       2911.9268     0.063965345
       2912.5694     0.054987440
       2913.2120      0.10207537
       2913.8546     0.019566846
       2914.4972     0.058735148
       2915.1397     0.045351251
       2915.7823     0.061749507
       2916.4249     0.095983997
       2917.0675    -0.016605527
       2917.7101     0.025648106
       2918.3527     0.058548720
       2918.9952     0.060588558
       2919.6378     0.046720982
       2920.2804     0.015315372
       2920.9230      0.10437819
       2921.5656      0.12053024
       2922.2081      0.10699533
       2922.8507     0.093385540
       2923.4933     0.067835186
       2924.1359     0.037948580
       2924.7785     0.010585504
       2925.4210     0.063876464
       2926.0636     0.035616728
       2926.7062     0.097051265
       2927.3488     0.099402061
       2927.9914     0.049824123
       2928.6340     0.029684807
       2929.2765     0.063267440
       2929.9191      0.11761321
       2930.5617    -0.031956241
       2931.2043     0.023631964
       2931.8469     0.053623921
       2932.4894     0.039742750
       2933.1320     0.064235481
       2933.7746     0.033003286
       2934.4172      0.10066714
       2935.0598     0.061612423
       2935.7023     0.087411440
       2936.3449     0.044100873
       2936.9875     0.043675841
       2937.6301    0.0065481174
       2938.2727     0.061156412
       2938.9153     0.015207660
       2939.5578     0.024206366
       2940.2004      0.10635937
       2940.8430     0.058600180
       2941.4856     0.098040251
       2942.1282     0.078119781
       2942.7707     0.025414029
       2943.4133     0.032455809
       2944.0559     0.062918910
       2944.6985    0.0073024913
       2945.3411     0.027022632
       2945.9836     0.067551500
       2946.6262     0.023038622
       2947.2688     0.089783519
       2947.9114     0.067788313
       2948.5540      0.13234650
       2949.1966     0.064338945
       2949.8391      0.11733182
       2950.4817     0.041443593
       2951.1243     0.037865519
       2951.7669     0.054108026
       2952.4095     0.051953541
       2953.0520     0.098352358
       2953.6946     0.075504192
       2954.3372     0.035350583
       2954.9798     0.030261688
       2955.6224     0.061575311
       2956.2649    -0.034444953
       2956.9075   -0.0011483902
       2957.5501     0.099385700
       2958.1927   -0.0068820864
       2958.8353     0.076713269
       2959.4779     0.026670006
       2960.1204     0.016756565
       2960.7630     0.048169069
       2961.4056     0.050154679
       2962.0482     0.072654862
       2962.6908     0.024381582
       2963.3333     0.085802881
       2963.9759     0.054480546
       2964.6185     0.036260899
       2965.2611     0.064871105
       2965.9037     0.083745941
       2966.5462    -0.012988779
       2967.1888     0.084765653
       2967.8314     0.051388956
       2968.4740   -0.0011839704
       2969.1166     0.054210447
       2969.7592     0.094312830
       2970.4017     0.070563615
       2971.0443     0.034531251
       2971.6869     0.058281926
       2972.3295      0.11597020
       2972.9721     0.065300204
       2973.6146     0.087457184
       2974.2572     0.028086247
       2974.8998     0.014006315
       2975.5424     0.040688183
       2976.1850     0.038876473
       2976.8276     0.017857599
       2977.4701     0.037451025
       2978.1127      0.16368744
       2978.7553     0.068813252
       2979.3979     0.051536791
       2980.0405     0.043952600
       2980.6830     0.041812111
       2981.3256      0.10052573
       2981.9682     0.072312577
       2982.6108     0.024956546
       2983.2534     0.058607080
       2983.8959     0.048389643
       2984.5385     0.039393159
       2985.1811     0.011821360
       2985.8237     0.054257848
       2986.4663     0.052084662
       2987.1089     0.091862464
       2987.7514     0.027543211
       2988.3940     0.019007934
       2989.0366     0.082570295
       2989.6792     0.027600555
       2990.3218     0.031570296
       2990.9643     0.090132841
       2991.6069     0.051506840
       2992.2495     0.017529741
       2992.8921     0.050336200
       2993.5347     0.018419054
       2994.1772     0.040833161
       2994.8198     0.010021161
       2995.4624   -0.0078350571
       2996.1050      0.10442941
       2996.7476    -0.020793417
       2997.3902      0.11041315
       2998.0327     0.048208294
       2998.6753   -0.0083661912
       2999.3179     0.026778436
       2999.9605     0.086632532
       3000.6031      0.10809830
       3001.2456     0.035289564
       3001.8882     0.096412290
       3002.5308      0.10037874
       3003.1734   -0.0040369103
       3003.8160     0.036161342
       3004.4585     0.051475485
       3005.1011     0.076073410
       3005.7437     0.059419887
       3006.3863     0.078508039
       3007.0289     0.080256407
       3007.6715     0.079611523
       3008.3140     0.062893123
       3008.9566     0.053738881
       3009.5992     0.012834597
       3010.2418   -0.0074965965
       3010.8844     0.024373245
       3011.5269     0.047915324
       3012.1695     0.067840643
       3012.8121    -0.016754106
       3013.4547     0.039016971
       3014.0973      0.10954456
       3014.7398     0.055078603
       3015.3824   -0.0043830073
       3016.0250     0.066394099
       3016.6676     0.047750643
       3017.3102     0.038005741
       3017.9528     0.031143545
       3018.5953     0.091460071
       3019.2379     0.068546146
       3019.8805     0.078696527
       3020.5231     0.082886307
       3021.1657     0.035485850
       3021.8082      0.13477141
       3022.4508   -0.0024894455
       3023.0934     0.010617926
       3023.7360     0.046940638
       3024.3786     0.078897684
       3025.0211     0.054668430
       3025.6637     0.083768053
       3026.3063     0.022821295
       3026.9489     0.031969628
       3027.5915     0.010967253
       3028.2341     0.019850290
       3028.8766     0.015593661
       3029.5192    -0.028976261
       3030.1618     0.029753581
       3030.8044     0.032123627
       3031.4470     0.086730348
       3032.0895      0.10865296
       3032.7321     0.033313804
       3033.3747     0.061654043
       3034.0173     0.060383647
       3034.6599    -0.014697788
       3035.3024     0.095489917
       3035.9450     0.075746122
       3036.5876     0.027026260
       3037.2302    0.0098783894
       3037.8728     0.058442832
       3038.5154     0.042444339
       3039.1579     0.089271144
       3039.8005     0.068229339
       3040.4431      0.12207579
       3041.0857  -0.00075138396
       3041.7283      0.12667198
       3042.3708     0.029025352
       3043.0134   -0.0076001714
       3043.6560    -0.024221760
       3044.2986     0.048197844
       3044.9412    -0.012154214
       3045.5837    -0.014821319
       3046.2263     0.098298082
       3046.8689      0.11909668
       3047.5115     0.079994764
       3048.1541    0.0070057470
       3048.7967     0.038157864
       3049.4392   0.00075555970
       3050.0818     0.070818923
       3050.7244     0.033269361
       3051.3670     0.030084949
       3052.0096    0.0066889099
       3052.6521     0.062556367
       3053.2947     0.031223493
       3053.9373     0.073207512
       3054.5799     0.033778133
       3055.2225     0.016543420
       3055.8650     0.056319510
       3056.5076    0.0074689745
       3057.1502     0.033596035
       3057.7928     0.093065265
       3058.4354     0.047441315
       3059.0780     0.029024018
       3059.7205     0.016548092
       3060.3631     0.050415825
       3061.0057     0.045996078
       3061.6483     0.079470914
       3062.2909     0.078542906
       3062.9334     0.065935272
       3063.5760     0.040341891
       3064.2186     0.083602207
       3064.8612     0.049445116
       3065.5038     0.025432822
       3066.1463     0.026122291
       3066.7889      0.10415252
       3067.4315      0.14553307
       3068.0741     0.056455951
       3068.7167     0.068073326
       3069.3593    0.0071708977
       3070.0018   -0.0083134545
       3070.6444    0.0029990116
       3071.2870     0.028800341
       3071.9296     0.051405791
       3072.5722     0.077404642
       3073.2147     0.060516050
       3073.8573     0.096902466
       3074.4999     0.052973516
       3075.1425     0.056714452
       3075.7851      0.15022755
       3076.4276     0.024991657
       3077.0702   -0.0015783655
       3077.7128    -0.017205237
       3078.3554     0.010516972
       3078.9980     0.043124372
       3079.6406     0.073343465
       3080.2831     0.059512602
       3080.9257     0.053806225
       3081.5683     0.050231231
       3082.2109     0.095367202
       3082.8535    0.0093840966
       3083.4960  -0.00050960737
       3084.1386     0.057726706
       3084.7812     0.053822685
       3085.4238     0.069587324
       3086.0664     0.065808331
       3086.7089     0.058967226
       3087.3515     0.056292470
       3087.9941     0.065480451
       3088.6367      0.11365947
       3089.2793     0.068310942
       3089.9219      0.11412046
       3090.5644     0.049607697
       3091.2070     0.040809917
       3091.8496     0.093404191
       3092.4922     0.029896106
       3093.1348     0.018771051
       3093.7773     0.057461970
       3094.4199     0.061146103
       3095.0625     0.094430543
       3095.7051     0.029417846
       3096.3477   -0.0093161949
       3096.9903     0.015208110
       3097.6328     0.014535159
       3098.2754     0.028144992
       3098.9180     0.057023510
       3099.5606     0.026773620
       3100.2032     0.075538404
       3100.8457     0.056157551
       3101.4883    -0.053841327
       3102.1309     0.026604464
       3102.7735     0.054271543
       3103.4161     0.062468940
       3104.0586      0.14020767
       3104.7012     0.035063128
       3105.3438     0.095733560
       3105.9864   -0.0077148163
       3106.6290     0.059188617
       3107.2716     0.016347629
       3107.9141     0.012454466
       3108.5567     0.049857113
       3109.1993     0.026963450
       3109.8419      0.11432391
       3110.4845     0.085261700
       3111.1270     0.075052408
       3111.7696      0.13938168
       3112.4122     0.045544554
       3113.0548     0.052873462
       3113.6974     0.056787783
       3114.3399      0.10502012
       3114.9825     0.023640287
       3115.6251    -0.010446154
       3116.2677     0.065546805
       3116.9103    -0.015988382
       3117.5529     0.083021066
       3118.1954     0.069285437
       3118.8380     0.063003463
       3119.4806    0.0035394999
       3120.1232     0.085963720
       3120.7658     0.041216389
       3121.4083     0.023342995
       3122.0509      0.10862136
       3122.6935     0.024476296
       3123.3361     0.054358704
       3123.9787    0.0064815728
       3124.6212    0.0049463791
       3125.2638    0.0089596132
       3125.9064     0.038711622
       3126.5490     0.076323047
       3127.1916     0.056062395
       3127.8342     0.054268572
       3128.4767     0.016497313
       3129.1193     0.075746500
       3129.7619     0.088308083
       3130.4045   -0.0029279976
       3131.0471     0.077844204
       3131.6896     0.073873134
       3132.3322     0.027219625
       3132.9748     0.016769943
       3133.6174   -0.0031885647
       3134.2600     0.080179088
       3134.9025     0.035831228
       3135.5451     0.067215159
       3136.1877     0.038105535
       3136.8303     0.087698741
       3137.4729     0.071719466
       3138.1155     0.066593528
       3138.7580     0.065485472
       3139.4006    -0.036641883
       3140.0432     0.079012741
       3140.6858     0.061983984
       3141.3284     0.043118810
       3141.9709      0.12916932
       3142.6135     0.078780631
       3143.2561     0.062454790
       3143.8987    0.0076561820
       3144.5413     0.029259515
       3145.1838     0.033931307
       3145.8264     0.032681482
       3146.4690     0.015478796
       3147.1116     0.067985831
       3147.7542     0.050337555
       3148.3968     0.024556405
       3149.0393     0.075383157
       3149.6819   -0.0074271520
       3150.3245     0.018490190
       3150.9671     0.084450561
       3151.6097     0.020700489
       3152.2522      0.13148890
       3152.8948      0.10898483
       3153.5374     0.060118965
       3154.1800     0.071616855
       3154.8226    0.0085370023
       3155.4651     0.043909456
       3156.1077     0.096262199
       3156.7503     0.093954022
       3157.3929     0.021374311
       3158.0355     0.025440893
       3158.6781     0.083703765
       3159.3206      0.11207602
       3159.9632     0.059285821
       3160.6058     0.067858251
       3161.2484    0.0099207977
       3161.8910    0.0042308472
       3162.5335    -0.011378802
       3163.1761     0.012131699
       3163.8187     0.082890702
       3164.4613     0.013714970
       3165.1039    0.0033443588
       3165.7464    0.0093762915
       3166.3890     0.065276051
       3167.0316     0.051994090
       3167.6742     0.047304612
       3168.3168     0.054802570
       3168.9594     0.029378020
       3169.6019     0.072584162
       3170.2445      0.11627429
       3170.8871     0.076945402
       3171.5297      0.13552517
       3172.1723     0.050880117
       3172.8148     0.041392175
       3173.4574    0.0011631199
       3174.1000      0.12095614
       3174.7426      0.10418228
       3175.3852      0.11271027
       3176.0277     0.064867551
       3176.6703     0.037575686
       3177.3129     0.065099217
       3177.9555   -0.0036956190
       3178.5981     0.026622225
       3179.2407     0.062151975
       3179.8832     0.017051465
       3180.5258     0.062547640
       3181.1684     0.052927247
       3181.8110     0.030604602
       3182.4536     0.065614746
       3183.0961     0.053487488
       3183.7387   -0.0041317403
       3184.3813     0.069794054
       3185.0239     0.064198268
       3185.6665    0.0037199501
       3186.3090     0.095572321
       3186.9516     0.080091674
       3187.5942     0.084487487
       3188.2368  -0.00024150918
       3188.8794     0.042810870
       3189.5220     0.064605484
       3190.1645      0.11990045
       3190.8071     0.041526460
       3191.4497     0.031253227
       3192.0923     0.031805177
       3192.7349     0.061503235
       3193.3774   -0.0049720488
       3194.0200     0.011845093
       3194.6626     0.043063105
       3195.3052     0.044355373
       3195.9478     0.050684608
       3196.5903   -0.0064134967
       3197.2329    0.0081095185
       3197.8755    -0.018388103
       3198.5181     0.031579179
       3199.1607     0.036390257
       3199.8033     0.056976057
       3200.4458     0.028961902
       3201.0884    -0.020390695
       3201.7310     0.013432087
       3202.3736     0.029635013
       3203.0162     0.067965546
       3203.6587     0.031470871
       3204.3013     0.047567455
       3204.9439     0.022816459
       3205.5865    -0.029098546
       3206.2291     0.034361697
       3206.8717   -0.0021898299
       3207.5142     0.050174705
       3208.1568     0.020935530
       3208.7994     0.049441062
       3209.4420    -0.042374877
       3210.0846   -0.0067436226
       3210.7271    0.0054246374
       3211.3697     0.031896884
       3212.0123     0.096867869
       3212.6549     0.031611880
       3213.2975     0.064208958
       3213.9400     0.090262923
       3214.5826     0.058107596
       3215.2252     0.048150131
       3215.8678     0.037342042
       3216.5104     0.054508537
       3217.1530     0.064463890
       3217.7955    0.0015775245
       3218.4381     0.040407026
       3219.0807     0.072159248
       3219.7233     0.047098819
       3220.3659     0.051567109
       3221.0084     0.074452462
       3221.6510     0.040694525
       3222.2936     0.066895952
       3222.9362     0.030213599
       3223.5788     0.097784117
       3224.2213     0.031878006
       3224.8639    0.0068750851
       3225.5065     0.038234327
       3226.1491     0.030905864
       3226.7917    0.0053283190
       3227.4343     0.071011065
       3228.0768      0.10880164
       3228.7194     0.030411407
       3229.3620     0.053931506
       3230.0046     0.024131321
       3230.6472    -0.012503380
       3231.2897    -0.045802447
       3231.9323     0.054286536
       3232.5749     0.085420584
       3233.2175     0.042982678
       3233.8601     0.040561745
       3234.5026     0.049418888
       3235.1452     0.040577868
       3235.7878     0.019635243
       3236.4304   -0.0030163175
       3237.0730     0.020320083
       3237.7156    0.0097513526
       3238.3581     0.041660823
       3239.0007    0.0022601234
       3239.6433     0.032308310
       3240.2859     0.038596338
       3240.9285     0.033431996
       3241.5710     0.057470328
       3242.2136     0.011469666
       3242.8562     0.077484765
       3243.4988      0.10356191
       3244.1414   -0.0054211712
       3244.7839    0.0069862323
       3245.4265     0.028728853
       3246.0691     0.079332917
       3246.7117    0.0079358799
       3247.3543     0.024210449
       3247.9969     0.071793213
       3248.6394   0.00066283047
       3249.2820     0.023416114
       3249.9246     0.020679005
       3250.5672    -0.021068936
       3251.2098     0.041678185
       3251.8523    0.0040446596
       3252.4949     0.036826950
       3253.1375     0.071135075
       3253.7801     0.072665144
       3254.4227     0.051207697
       3255.0652     0.012316932
       3255.7078    -0.016548899
       3256.3504    -0.038584809
       3256.9930     0.041339794
       3257.6356     0.054989987
       3258.2782     0.040190345
       3258.9207     0.033888215
       3259.5633     0.062642938
       3260.2059     0.056613899
       3260.8485     0.018911732
       3261.4911    -0.020008289
       3262.1336    -0.033935849
       3262.7762     0.052286905
       3263.4188     0.012309375
       3264.0614     0.028648828
       3264.7040    0.0061876174
       3265.3465   -0.0010102895
       3265.9891     0.057585911
       3266.6317     0.053463586
       3267.2743     0.071486156
       3267.9169     0.035339492
       3268.5595    -0.016468938
       3269.2020     0.027293757
       3269.8446   -0.0075542945
       3270.4872     0.024174269
       3271.1298     0.070789239
       3271.7724     0.055593895
       3272.4149     0.068366512
       3273.0575     0.070593967
       3273.7001     0.054914050
       3274.3427    0.0019324800
       3274.9853    -0.015070330
       3275.6278     0.094818880
       3276.2704      0.14074187
       3276.9130     0.027004203
       3277.5556     0.046794850
       3278.1982   -0.0014390696
       3278.8408     0.059991524
       3279.4833     0.065808153
       3280.1259   0.00092244241
       3280.7685    0.0067698686
       3281.4111     -0.10646979
       3282.0537    -0.091318619
       3282.6962     -0.15270489
       3283.3388      0.14433680
       3283.9814      0.22998517
       3284.6240     0.069932367
       3285.2666    -0.059286164
       3285.9091     0.088288777
       3286.5517      0.13214612
       3287.1943      0.15267646
       3287.8369     -0.11645929
       3288.4795    -0.037626261
       3289.1221    -0.017092248
       3289.7646   -0.0044108429
       3290.4072     0.035514688
       3291.0498    -0.028883562
       3291.6924   -0.0039725911
       3292.3350   -0.0037327735
       3292.9775   -0.0040533268
       3293.6201    -0.018299136
       3294.2627     0.038465288
       3294.9053     0.065703651
       3295.5479    -0.014907473
       3296.1904    -0.040520950
       3296.8330     0.031573443
       3297.4756    -0.011505778
       3298.1182   -0.0029241737
       3298.7608     0.091529770
       3299.4034     0.080051084
       3300.0459   -0.0059155015
       3300.6885    -0.018223927
       3301.3311    -0.011824369
       3301.9737     0.038715044
       3302.6163    0.0059989852
       3303.2588     0.062992108
       3303.9014     0.049461357
       3304.5440     0.032479825
       3305.1866     0.015256538
       3305.8292     0.019755519
       3306.4717    0.0074111180
       3307.1143     0.062673422
       3307.7569    -0.010097435
       3308.3995     0.025488785
       3309.0421     0.016785702
       3309.6847    -0.023641677
       3310.3272    0.0042873390
       3310.9698     0.055570966
       3311.6124     0.038174928
       3312.2550   -0.0083946858
       3312.8976    0.0067986414
       3313.5401     0.027275756
       3314.1827   -0.0091547506
       3314.8253    -0.046590587
       3315.4679    -0.043899214
       3316.1105     0.038273031
       3316.7531   -0.0074261410
       3317.3956     0.023867449
       3318.0382     0.066951567
       3318.6808   -0.0079287018
       3319.3234    0.0041259678
       3319.9660     0.035887789
       3320.6085    -0.020697044
       3321.2511     0.013768339
       3321.8937    0.0078891006
       3322.5363     0.018508116
       3323.1789    -0.010018872
       3323.8214    -0.025347415
       3324.4640      0.11378734
       3325.1066     0.036561060
       3325.7492   -0.0037314460
       3326.3918     0.011514392
       3327.0344    0.0057130456
       3327.6769     0.074533573
       3328.3195   -0.0073388647
       3328.9621     0.037579106
       3329.6047    0.0036814429
       3330.2473    -0.047868120
       3330.8898    -0.042934131
       3331.5324   -0.0054848685
       3332.1750     0.022123416
       3332.8176    0.0022562139
       3333.4602    -0.031653712
       3334.1027     0.019067695
       3334.7453   -0.0056493455
       3335.3879    -0.014097226
       3336.0305    -0.017832667
       3336.6731    -0.016631514
       3337.3157   0.00036526763
       3337.9582     0.030222259
       3338.6008     0.040923793
       3339.2434     0.027341565
       3339.8860     0.011993121
       3340.5286   -0.0075752340
       3341.1711    0.0024061190
       3341.8137     0.024047470
       3342.4563    0.0088581212
       3343.0989   -0.0087309094
       3343.7415    0.0071797917
       3344.3840    -0.026979402
       3345.0266     0.028100867
       3345.6692     0.053652038
       3346.3118   -0.0073181886
       3346.9544     0.042190899
       3347.5970     0.048785356
       3348.2395     0.017395803
       3348.8821  -0.00010114958
       3349.5247    0.0074558630
       3350.1673    -0.035393579
       3350.8099     0.019824639
       3351.4524     0.011766074
       3352.0950     0.012165859
       3352.7376   -0.0032531432
       3353.3802     0.045686417
       3354.0228    0.0025729823
       3354.6653     0.049807189
       3355.3079  -0.00038004121
       3355.9505    -0.027295628
       3356.5931    0.0034389046
       3357.2357     0.015544823
       3357.8783   -0.0031126968
       3358.5208    -0.010743605
       3359.1634    -0.019148409
       3359.8060     0.082036822
       3360.4486    -0.019028882
       3361.0912    -0.018443172
       3361.7337    -0.027538604
       3362.3763   -0.0063341874
       4133.6853      0.18619081
       4134.3542      0.14845490
       4135.0231     0.062580910
       4135.6920     0.089779795
       4136.3609      0.10483364
       4137.0298     0.083227828
       4137.6987     0.066257462
       4138.3676     0.088578955
       4139.0365      0.10617189
       4139.7054      0.11152446
       4140.3743      0.14547498
       4141.0432      0.12567217
       4141.7121      0.16413647
       4142.3810      0.13457807
       4143.0499      0.12669382
       4143.7188      0.10858436
       4144.3877      0.10662070
       4145.0565     0.087964461
       4145.7254      0.14283520
       4146.3943      0.10500772
       4147.0632      0.10810174
       4147.7321      0.10087369
       4148.4010      0.14850509
       4149.0699     0.067080985
       4149.7388     0.096197476
       4150.4077      0.15359665
       4151.0766      0.16382235
       4151.7455      0.16601407
       4152.4144      0.14520899
       4153.0833      0.10334923
       4153.7522      0.14017266
       4154.4211      0.15504359
       4155.0900      0.13634282
       4155.7589      0.13140312
       4156.4278      0.13872668
       4157.0967      0.11134520
       4157.7656      0.10363093
       4158.4345     0.095210680
       4159.1034      0.10264760
       4159.7723      0.11695494
       4160.4411      0.14019819
       4161.1100      0.13452562
       4161.7789      0.12943033
       4162.4478      0.16407153
       4163.1167      0.10019519
       4163.7856     0.099368418
       4164.4545      0.14490207
       4165.1234      0.13227512
       4165.7923      0.13218688
       4166.4612      0.13328785
       4167.1301      0.12701473
       4167.7990      0.10459873
       4168.4679      0.15772878
       4169.1368      0.14251691
       4169.8057      0.13287176
       4170.4746      0.18246078
       4171.1435      0.17545912
       4171.8124      0.16665596
       4172.4813      0.17153817
       4173.1502      0.19801088
       4173.8191      0.22258665
       4174.4880      0.22045081
       4175.1568      0.16859301
       4175.8257      0.15451058
       4176.4946      0.14781352
       4177.1635      0.16460594
       4177.8324      0.16373585
       4178.5013      0.11590743
       4179.1702      0.11717696
       4179.8391      0.14763297
       4180.5080      0.15447189
       4181.1769      0.11803563
       4181.8458      0.10638767
       4182.5147      0.10451976
       4183.1836      0.11569676
       4183.8525      0.18495529
       4184.5214      0.11951159
       4185.1903      0.11151258
       4185.8592      0.13141589
       4186.5281      0.13385398
       4187.1970      0.15386310
       4187.8659      0.17350837
       4188.5348      0.15094364
       4189.2037      0.14557034
       4189.8725      0.13776368
       4190.5414      0.12948242
       4191.2103      0.11216445
       4191.8792     0.066614721
       4192.5481      0.14261063
       4193.2170      0.15749520
       4193.8859      0.12282425
       4194.5548      0.10884331
       4195.2237      0.12194159
       4195.8926      0.13703361
       4196.5615      0.13006779
       4197.2304      0.13583400
       4197.8993      0.12873090
       4198.5682     0.093010054
       4199.2371      0.17464827
       4199.9060      0.19545869
       4200.5749      0.13985371
       4201.2438      0.15234694
       4201.9127      0.15557588
       4202.5816      0.14623910
       4203.2505      0.10443555
       4203.9194      0.13136888
       4204.5883      0.17077912
       4205.2571      0.13321464
       4205.9260      0.12039953
       4206.5949      0.18435924
       4207.2638      0.13971575
       4207.9327      0.12774422
       4208.6016      0.16181344
       4209.2705      0.15578496
       4209.9394      0.21110009
       4210.6083      0.20097324
       4211.2772      0.14998457
       4211.9461      0.13633184
       4212.6150      0.17481973
       4213.2839      0.13917439
       4213.9528      0.12900887
       4214.6217      0.18222066
       4215.2906      0.17367395
       4215.9595      0.16977987
       4216.6284      0.20086109
       4217.2973      0.18070581
       4217.9662      0.16384267
       4218.6351      0.14812249
       4219.3040      0.17627375
       4219.9728      0.13304457
       4220.6417      0.14836274
       4221.3106      0.18475926
       4221.9795      0.15478341
       4222.6484      0.12140402
       4223.3173      0.14238440
       4223.9862      0.15895317
       4224.6551      0.17410949
       4225.3240      0.16235134
       4225.9929      0.11324536
       4226.6618      0.12361522
       4227.3307      0.17297731
       4227.9996      0.12880602
       4228.6685      0.14901364
       4229.3374      0.10000859
       4230.0063      0.11908300
       4230.6752     0.066774943
       4231.3441      0.11079890
       4232.0130      0.15483879
       4232.6819      0.14498317
       4233.3508      0.15489673
       4234.0197      0.17146333
       4234.6885      0.14363026
       4235.3574      0.10919220
       4236.0263      0.13810657
       4236.6952      0.19221463
       4237.3641      0.14048031
       4238.0330      0.15284755
       4238.7019      0.13783906
       4239.3708      0.14757372
       4240.0397      0.17730863
       4240.7086      0.19052455
       4241.3775      0.14934901
       4242.0464      0.12087068
       4242.7153      0.12214204
       4243.3842      0.13994783
       4244.0531      0.17193875
       4244.7220      0.16371949
       4245.3909      0.16859923
       4246.0598      0.15084134
       4246.7287      0.13894101
       4247.3976      0.15749336
       4248.0665     0.081020673
       4248.7354      0.10854723
       4249.4042      0.13201134
       4250.0731      0.16914767
       4250.7420      0.11289179
       4251.4109     0.088433104
       4252.0798      0.11824112
       4252.7487      0.14328604
       4253.4176      0.17788566
       4254.0865      0.16594401
       4254.7554      0.13071003
       4255.4243      0.13066093
       4256.0932      0.14753589
       4256.7621      0.13318734
       4257.4310      0.18651822
       4258.0999      0.15241548
       4258.7688      0.15754055
       4259.4377     0.092089338
       4260.1066      0.11480421
       4260.7755      0.13670739
       4261.4444      0.14841010
       4262.1133      0.12897633
       4262.7822      0.15098573
       4263.4511      0.13741026
       4264.1200      0.10449654
       4264.7888      0.14919501
       4265.4577      0.18136274
       4266.1266      0.14120485
       4266.7955      0.13704166
       4267.4644      0.12940924
       4268.1333      0.11048765
       4268.8022      0.12277676
       4269.4711      0.15494306
       4270.1400      0.18233085
       4270.8089     0.097813714
       4271.4778      0.12474160
       4272.1467      0.14963754
       4272.8156      0.14896641
       4273.4845      0.12699040
       4274.1534      0.11234159
       4274.8223      0.15810984
       4275.4912      0.11494399
       4276.1601     0.075517665
       4276.8290     0.085236615
       4277.4979     0.096065741
       4278.1668     0.099908518
       4278.8357      0.12440606
       4279.5045      0.13499978
       4280.1734      0.11880491
       4280.8423     0.086682308
       4281.5112      0.16906757
       4282.1801      0.16423325
       4282.8490      0.16034979
       4283.5179      0.11001762
       4284.1868      0.15402195
       4284.8557      0.15091022
       4285.5246      0.14722836
       4286.1935      0.17024015
       4286.8624      0.13760573
       4287.5313      0.12294690
       4288.2002      0.14431328
       4288.8691      0.12278595
       4289.5380      0.17025362
       4290.2069      0.14957455
       4290.8758      0.16026418
       4291.5447      0.15071484
       4292.2136      0.14730944
       4292.8825      0.17333352
       4293.5514      0.16560205
       4294.2202      0.13134798
       4294.8891      0.13199719
       4295.5580      0.15599322
       4296.2269      0.20059292
       4296.8958      0.21139689
       4297.5647      0.19541165
       4298.2336      0.17506503
       4298.9025      0.19003218
       4299.5714      0.15360335
       4300.2403      0.17508293
       4300.9092      0.23931662
       4301.5781      0.20430574
       4302.2470      0.20862495
       4302.9159      0.20110565
       4303.5848      0.19387973
       4304.2537      0.18837941
       4304.9226      0.17232553
       4305.5915      0.20486760
       4306.2604      0.17949721
       4306.9293      0.16162801
       4307.5982      0.16295974
       4308.2671      0.11637944
       4308.9360      0.17537125
       4309.6048      0.20940947
       4310.2737      0.12329162
       4310.9426      0.14767382
       4311.6115      0.13724018
       4312.2804      0.25838072
       4312.9493      0.23404054
       4313.6182      0.13436331
       4314.2871      0.19636630
       4314.9560      0.19589981
       4315.6249      0.10681404
       4316.2938     0.049543502
       4316.9627      0.11647527
       4317.6316      0.14374277
       4318.3005     0.041856374
       4318.9694      0.10539977
       4319.6383      0.11560911
       4320.3072      0.12852111
       4320.9761      0.18384516
       4321.6450      0.21385384
       4322.3139      0.16752521
       4322.9828      0.20542728
       4323.6517      0.21845774
       4324.3205      0.14274499
       4324.9894      0.16832699
       4325.6583      0.22315010
       4326.3272      0.23942091
       4326.9961      0.21087147
       4327.6650      0.22688955
       4328.3339      0.22127506
       4329.0028      0.18459089
       4329.6717      0.19818734
       4330.3406      0.20145380
       4331.0095      0.13673949
       4331.6784      0.16379291
       4332.3473      0.15971060
       4333.0162      0.16804093
       4333.6851      0.22212326
       4334.3540      0.23902826
       4335.0229      0.12814568
       4335.6918      0.18729940
       4336.3607      0.16745562
       4337.0296      0.17312231
       4337.6985      0.12107185
       4338.3674      0.15178218
       4339.0362      0.15747255
       4339.7051     0.085159210
       4340.3740     0.094507994
       4341.0429      0.18895223
       4341.7118      0.15847058
       4342.3807     0.088985099
       4343.0496     0.094656180
       4343.7185      0.15335094
       4344.3874      0.16499570
       4345.0563      0.18595212
       4345.7252      0.16537248
       4346.3941      0.15234927
       4347.0630      0.13645764
       4347.7319      0.10928518
       4348.4008      0.10938455
       4349.0697      0.14330488
       4349.7386      0.20222953
       4350.4075      0.18755257
       4351.0764      0.16591296
       4351.7453      0.15734427
       4352.4142      0.15311258
       4353.0831      0.14650987
       4353.7519      0.17661634
       4354.4208      0.15840180
       4355.0897      0.17807991
       4355.7586      0.15677553
       4356.4275      0.22207050
       4357.0964      0.24599760
       4357.7653      0.23408582
       4358.4342      0.20182113
       4359.1031      0.25917408
       4359.7720      0.39497709
       4360.4409      0.50085754
       4361.1098      0.58152539
       4361.7787      0.57047336
       4362.4476      0.59712109
       4363.1165      0.52137306
       4363.7854      0.50469879
       4364.4543      0.47949811
       4365.1232      0.34771680
       4365.7921      0.30882634
       4366.4610      0.20409144
       4367.1299      0.19939186
       4367.7988      0.18307033
       4368.4677      0.11838357
       4369.1365      0.10689232
       4369.8054      0.13672327
       4370.4743      0.15257943
       4371.1432      0.12918846
       4371.8121      0.16024093
       4372.4810      0.21288518
       4373.1499      0.20105554
       4373.8188      0.30621708
       4374.4877      0.28960685
       4375.1566      0.37581382
       4375.8255      0.23532831
       4376.4944     0.087904299
       4377.1633      0.11202040
       4377.8322      0.12275883
       4378.5011      0.15495921
       4379.1700      0.21096195
       4379.8389      0.16224152
       4380.5078      0.18433548
       4381.1767      0.20136485
       4381.8456      0.24385386
       4382.5145      0.21565504
       4383.1834      0.19224294
       4383.8522      0.24267377
       4384.5211      0.23443122
       4385.1900      0.21744068
       4385.8589      0.25291538
       4386.5278      0.13815996
       4387.1967      0.16938536
       4387.8656      0.26083387
       4388.5345      0.26618249
       4389.2034     0.093959536
       4389.8723      0.16991429
       4390.5412      0.14011096
       4391.2101      0.15587756
       4391.8790     0.071921010
       4392.5479     0.086004808
       4393.2168      0.17107281
       4393.8857      0.22323428
       4394.5546      0.15677059
       4395.2235      0.18510901
       4395.8924      0.19222023
       4396.5613      0.13320863
       4397.2302      0.21590387
       4397.8991      0.20437625
       4398.5679      0.16960348
       4399.2368      0.16898213
       4399.9057      0.17017022
       4400.5746      0.15650106
       4401.2435      0.12163106
       4401.9124      0.14181743
       4402.5813      0.13128614
       4403.2502      0.15387495
       4403.9191      0.20523804
       4404.5880      0.14029057
       4405.2569      0.12586881
       4405.9258      0.13114336
       4406.5947      0.19243727
       4407.2636      0.19702074
       4407.9325     0.077569759
       4408.6014      0.12091817
       4409.2703      0.14447740
       4409.9392      0.14442929
       4410.6081      0.16656268
       4411.2770      0.17168338
       4411.9459      0.20872649
       4412.6148      0.16965165
       4413.2837      0.15648977
       4413.9525      0.12267546
       4414.6214      0.20956296
       4415.2903      0.15669806
       4415.9592      0.13579858
       4416.6281      0.14921757
       4417.2970      0.16740582
       4417.9659      0.17612406
       4418.6348      0.17984040
       4419.3037      0.18501990
       4419.9726      0.18893039
       4420.6415      0.13582147
       4421.3104      0.10640327
       4421.9793      0.19980356
       4422.6482      0.20100550
       4423.3171      0.22031491
       4423.9860      0.15446522
       4424.6549      0.17450453
       4425.3238      0.15878106
       4425.9927      0.14904567
       4426.6616      0.10923319
       4427.3305     0.067004427
       4427.9994      0.16653936
       4428.6682      0.18855890
       4429.3371      0.16923610
       4430.0060      0.19740847
       4430.6749      0.17600289
       4431.3438      0.16565646
       4432.0127      0.16608143
       4432.6816      0.11896574
       4433.3505      0.20951350
       4434.0194      0.16574660
       4434.6883      0.18656969
       4435.3572      0.19855467
       4436.0261      0.18382067
       4436.6950      0.16741434
       4437.3639      0.16273140
       4438.0328      0.18488412
       4438.7017      0.13098644
       4439.3706      0.15430999
       4440.0395      0.12790502
       4440.7084      0.12086010
       4441.3773      0.13862369
       4442.0462      0.15036803
       4442.7151      0.14552056
       4443.3839      0.13361048
       4444.0528      0.18443143
       4444.7217      0.16843610
       4445.3906      0.15473618
       4446.0595      0.19283756
       4446.7284      0.18769049
       4447.3973      0.13126807
       4448.0662     0.095988660
       4448.7351      0.15351192
       4449.4040      0.12107007
       4450.0729      0.16565935
       4450.7418      0.15505456
       4451.4107      0.13798640
       4452.0796     0.081240265
       4452.7485      0.13146042
       4453.4174      0.16157709
       4454.0863     0.069887391
       4454.7552      0.16335662
       4455.4241     0.064060279
       4456.0930      0.14428905
       4456.7619      0.16861517
       4457.4308      0.17120501
       4458.0997      0.12140369
       4458.7685      0.10829874
       4459.4374      0.14295546
       4460.1063      0.15552504
       4460.7752      0.17808272
       4461.4441      0.18609523
       4462.1130      0.19426544
       4462.7819      0.11141670
       4463.4508     0.057169443
       4464.1197      0.15925534
       4464.7886      0.15110191
       4465.4575      0.13311404
       4466.1264      0.14622938
       4466.7953      0.18311647
       4467.4642      0.17185279
       4468.1331      0.15672710
       4468.8020      0.11360694
       4469.4709      0.20290793
       4470.1398      0.17636583
       4470.8087     0.089729378
       4471.4776      0.16115027
       4472.1465      0.16128272
       4472.8154      0.21895062
       4473.4842      0.20493814
       4474.1531      0.12564743
       4474.8220      0.15040936
       4475.4909      0.22877860
       4476.1598      0.17357526
       4476.8287      0.19176596
       4477.4976      0.16689235
       4478.1665      0.14991047
       4478.8354      0.25795123
       4479.5043      0.13456424
       4480.1732      0.18259369
       4480.8421      0.25284737
       4481.5110      0.16311337
       4482.1799      0.13460698
       4482.8488      0.13255579
       4483.5177      0.15793879
       4484.1866      0.15061946
       4484.8555      0.16277792
       4485.5244      0.16333880
       4486.1933      0.12841758
       4486.8622      0.14796679
       4487.5311      0.17638046
       4488.1999      0.13981451
       4488.8688      0.13298707
       4489.5377      0.17459131
       4490.2066      0.19857303
       4490.8755      0.14712246
       4491.5444      0.17549235
       4492.2133      0.16307161
       4492.8822      0.19255059
       4493.5511      0.20096494
       4494.2200      0.14483002
       4494.8889      0.16835845
       4495.5578      0.13973859
       4496.2267      0.21295601
       4496.8956      0.23237543
       4497.5645      0.19778442
       4498.2334             NaN
       4498.9023             NaN
       4499.5712             NaN
       4500.2401             NaN
       4500.9090             NaN
       4501.5779             NaN
       4502.2468             NaN
       4502.9156             NaN
       4503.5845             NaN
       4504.2534             NaN
       4504.9223             NaN
       4505.5912             NaN
       4506.2601             NaN
       4506.9290             NaN
       4507.5979             NaN
       4508.2668             NaN
       4508.9357             NaN
       4509.6046             NaN
       4510.2735             NaN
       4510.9424             NaN
       4511.6113             NaN
       4512.2802             NaN
       4512.9491             NaN
       4513.6180             NaN
       4514.2869             NaN
       4514.9558             NaN
       4515.6247             NaN
       4516.2936             NaN
       4516.9625             NaN
       4517.6314             NaN
       4518.3002             NaN
       4518.9691             NaN
       4519.6380             NaN
       4520.3069             NaN
       4520.9758             NaN
       4521.6447             NaN
       4522.3136             NaN
       4522.9825             NaN
       4523.6514             NaN
       4524.3203             NaN
       4524.9892             NaN
       4525.6581             NaN
       4526.3270             NaN
       4526.9959             NaN
       4527.6648             NaN
       4528.3337             NaN
       4529.0026             NaN
       4529.6715             NaN
       4530.3404             NaN
       4531.0093             NaN
       4531.6782             NaN
       4532.3471             NaN
       4533.0159             NaN
       4533.6848             NaN
       4534.3537             NaN
       4535.0226             NaN
       4535.6915             NaN
       4536.3604             NaN
       4537.0293             NaN
       4537.6982             NaN
       4538.3671             NaN
       4539.0360             NaN
       4539.7049             NaN
       4540.3738             NaN
       4541.0427             NaN
       4541.7116             NaN
       4542.3805             NaN
       4543.0494             NaN
       4543.7183             NaN
       4544.3872             NaN
       4545.0561             NaN
       4545.7250             NaN
       4546.3939             NaN
       4547.0628             NaN
       4547.7316             NaN
       4548.4005             NaN
       4549.0694             NaN
       4549.7383             NaN
       4550.4072             NaN
       4551.0761             NaN
       4551.7450             NaN
       4552.4139             NaN
       4553.0828             NaN
       4553.7517             NaN
       4554.4206             NaN
       4555.0895             NaN
       4555.7584             NaN
       4556.4273             NaN
       4557.0962             NaN
       4557.7651             NaN
       4558.4340             NaN
       4559.1029             NaN
       4559.7718             NaN
       4560.4407      0.20619056
       4561.1096      0.18957762
       4561.7785      0.18901210
       4562.4474      0.16349178
       4563.1162      0.14601712
       4563.7851      0.13950295
       4564.4540      0.17312278
       4565.1229      0.20797216
       4565.7918      0.15517873
       4566.4607      0.12309460
       4567.1296      0.12626307
       4567.7985      0.15552455
       4568.4674      0.15869230
       4569.1363      0.22530975
       4569.8052      0.18884220
       4570.4741      0.21251584
       4571.1430      0.15713209
       4571.8119      0.16796217
       4572.4808      0.19540030
       4573.1497      0.22660391
       4573.8186      0.21777074
       4574.4875      0.13259841
       4575.1564      0.18547960
       4575.8253      0.19191476
       4576.4942      0.20309376
       4577.1631      0.14766325
       4577.8319      0.22780264
       4578.5008      0.13417553
       4579.1697      0.11847090
       4579.8386      0.18212859
       4580.5075      0.10249451
       4581.1764      0.10452082
       4581.8453      0.19506540
       4582.5142      0.20513562
       4583.1831      0.13105357
       4583.8520      0.17965326
       4584.5209      0.17345507
       4585.1898      0.23885452
       4585.8587      0.27298490
       4586.5276      0.25203860
       4587.1965      0.27446581
       4587.8654      0.15367079
       4588.5343      0.25424055
       4589.2032      0.17832622
       4589.8721      0.10225344
       4590.5410      0.11767437
       4591.2099      0.21455562
       4591.8788      0.10811281
       4592.5476      0.15092463
       4593.2165      0.12286947
       4593.8854      0.16624175
       4594.5543      0.18392436
       4595.2232     0.088065365
       4595.8921      0.12128565
       4596.5610      0.12104232
       4597.2299      0.10350729
       4597.8988      0.13255718
       4598.5677      0.16653801
       4599.2366      0.12272036
       4599.9055      0.12514435
       4600.5744      0.12277743
       4601.2433      0.13245528
       4601.9122      0.14718586
       4602.5811      0.13431820
       4603.2500      0.15473641
       4603.9189      0.18386347
       4604.5878      0.16788135
       4605.2567      0.12780854
       4605.9256      0.20570735
       4606.5945      0.22690280
       4607.2634      0.24655746
       4607.9322      0.23121567
       4608.6011      0.17430706
       4609.2700      0.22541112
       4609.9389      0.17031765
       4610.6078      0.16546467
       4611.2767      0.11405000
       4611.9456      0.13216896
       4612.6145      0.19555386
       4613.2834      0.16178256
       4613.9523      0.17938909
       4614.6212      0.21121928
       4615.2901      0.10464235
       4615.9590      0.12480438
       4616.6279      0.13909940
       4617.2968      0.14369308
       4617.9657      0.14083831
       4618.6346      0.18570438
       4619.3035      0.18079704
       4619.9724      0.19229743
       4620.6413      0.18027173
       4621.3102      0.20904423
       4621.9791      0.24348531
       4622.6479      0.19812126
       4623.3168      0.18112160
       4623.9857      0.17803513
       4624.6546      0.16227912
       4625.3235      0.18383676
       4625.9924      0.21097142
       4626.6613      0.22410667
       4627.3302      0.16584472
       4627.9991      0.17947626
       4628.6680      0.20178226
       4629.3369      0.24049604
       4630.0058      0.14541102
       4630.6747      0.12978740
       4631.3436      0.15483678
       4632.0125      0.22907148
       4632.6814      0.23911693
       4633.3503      0.25199465
       4634.0192      0.24598396
       4634.6881      0.12883793
       4635.3570      0.22843935
       4636.0259      0.18601516
       4636.6948     0.077745261
       4637.3636      0.14791635
       4638.0325      0.17146350
       4638.7014      0.14999232
       4639.3703      0.20908563
       4640.0392      0.19964137
       4640.7081      0.22873876
       4641.3770      0.22068226
       4642.0459      0.16086830
       4642.7148      0.16163988
       4643.3837      0.13978607
       4644.0526     0.075748692
       4644.7215      0.14023342
       4645.3904      0.12080443
       4646.0593      0.15639055
       4646.7282      0.17247631
       4647.3971      0.26389640
       4648.0660      0.19938493
       4648.7349      0.21096315
       4649.4038      0.18574107
       4650.0727      0.19485247
       4650.7416      0.20314060
       4651.4105    -0.011132252
       4652.0793    -0.085808073
       4652.7482     0.033931581
       4653.4171      0.15085787
       4654.0860      0.15392797
       4654.7549      0.19017328
       4655.4238      0.14217801
       4656.0927      0.15395204
       4656.7616      0.16880694
       4657.4305     0.097444028
       4658.0994      0.13622873
       4658.7683      0.21189243
       4659.4372      0.21983457
       4660.1061      0.17097216
       4660.7750      0.20577543
       4661.4439      0.15126548
       4662.1128     0.032840489
       4662.7817     0.067703603
       4663.4506      0.11241448
       4664.1195      0.10721350
       4664.7884      0.17702346
       4665.4573      0.10147209
       4666.1262      0.14373152
       4666.7951      0.31248110
       4667.4639      0.26363486
       4668.1328      0.28057782
       4668.8017      0.21771506
       4669.4706      0.24140271
       4670.1395      0.11403702
       4670.8084      0.10631178
       4671.4773      0.14829375
       4672.1462      0.13887899
       4672.8151      0.20685887
       4673.4840      0.25618206
       4674.1529      0.10452870
       4674.8218      0.15938197
       4675.4907      0.20046326
       4676.1596      0.20710558
       4676.8285      0.13922514
       4677.4974      0.18437691
       4678.1663      0.18340365
       4678.8352      0.16476544
       4679.5041      0.24786352
       4680.1730      0.16592641
       4680.8419      0.11845736
       4681.5108      0.23314494
       4682.1796      0.16514710
       4682.8485      0.15999402
       4683.5174      0.12882218
       4684.1863     0.098178464
       4684.8552      0.14430166
       4685.5241      0.15115563
       4686.1930      0.14096249
       4686.8619      0.14546261
       4687.5308      0.17180945
       4688.1997      0.20552783
       4688.8686      0.17468523
       4689.5375      0.16323245
       4690.2064      0.24515236
       4690.8753      0.22237894
       4691.5442     0.097102886
       4692.2131      0.11345799
       4692.8820      0.27040843
       4693.5509      0.19766990
       4694.2198      0.13796981
       4694.8887      0.18274154
       4695.5576      0.19828057
       4696.2265      0.10556310
       4696.8953      0.12294308
       4697.5642      0.13309292
       4698.2331      0.20147871
       4698.9020      0.18856421
       4699.5709      0.22390600
       4700.2398      0.28737141
       4700.9087      0.27534793
       4701.5776      0.29360073
       4702.2465      0.21953880
       4702.9154      0.29272258
       4703.5843      0.22586988
       4704.2532      0.42068846
       4704.9221    -0.038803431
       4705.5910     0.022906931
       4706.2599      0.16640057
       4706.9288      0.22198691
       4707.5977      0.17336202
       4708.2666     0.056601598
       4708.9355      0.12759801
       4709.6044      0.13022654
       4710.2733      0.13770693
       4710.9422      0.16617666
       4711.6111      0.26046983
       4712.2799      0.19488590
       4712.9488      0.17206265
       4713.6177      0.19535814
       4714.2866      0.16898372
       4714.9555      0.15709341
       4715.6244      0.19960049
       4716.2933      0.18586314
       4716.9622      0.17960184
       4717.6311      0.12209753
       4718.3000      0.10301015
       4718.9689      0.15017240
       4719.6378      0.11822637
       4720.3067     0.061334548
       4720.9756      0.18563659
       4721.6445      0.20060414
       4722.3134      0.17576291
       4722.9823      0.14991256
       4723.6512     0.070573537
       4724.3201      0.20290455
       4724.9890      0.13924602
       4725.6579     0.077872388
       4726.3268     0.083822797
       4726.9956      0.13773071
       4727.6645      0.10540231
       4728.3334      0.12509248
       4729.0023      0.10986339
       4729.6712      0.23592290
       4730.3401      0.39129176
       4731.0090      0.29424224
       4731.6779      0.21646498
       4732.3468      0.19832243
       4733.0157      0.17253663
       4733.6846     0.031737511
       4734.3535     0.029975757
       4735.0224     0.035615897
       4735.6913      0.11979024
       4736.3602      0.20984038
       4737.0291     0.092660978
       4737.6980      0.16202898
       4738.3669      0.19016383
       4739.0358      0.18715494
       4739.7047      0.17515650
       4740.3736      0.20812785
       4741.0425     0.071399882
       4741.7113      0.15591181
       4742.3802      0.18335307
       4743.0491      0.18945138
       4743.7180      0.14344391
       4744.3869      0.11885569
       4745.0558      0.17766418
       4745.7247      0.26463481
       4746.3936      0.18608299
       4747.0625      0.15188505
       4747.7314      0.15159777
       4748.4003      0.15238658
       4749.0692      0.14273089
       4749.7381    -0.023451970
       4750.4070      0.24310600
       4751.0759     0.077925825
       4751.7448     0.041913726
       4752.4137     0.074521746
       4753.0826      0.11311651
       4753.7515     0.082508065
       4754.4204     0.085975837
       4755.0893     0.065956246
       4755.7582      0.13319165
       4756.4270      0.16895807
       4757.0959      0.15463284
       4757.7648      0.15742737
       4758.4337      0.13294933
       4759.1026      0.14753458
       4759.7715      0.22714982
       4760.4404      0.15946570
       4761.1093      0.18312202
       4761.7782     0.098995846
       4762.4471      0.19149592
       4763.1160     0.095875574
       4763.7849     0.075598529
       4764.4538      0.24563756
       4765.1227      0.20872521
       4765.7916      0.28462770
       4766.4605      0.21973346
       4767.1294      0.13120693
       4767.7983      0.24749154
       4768.4672      0.11462207
       4769.1361     0.074737423
       4769.8050      0.15766415
       4770.4739      0.10526219
       4771.1428      0.13282712
       4771.8116      0.16135296
       4772.4805      0.10974888
       4773.1494      0.10384697
       4773.8183      0.12982317
       4774.4872      0.13381438
       4775.1561      0.11947331
       4775.8250      0.22940326
       4776.4939      0.16023688
       4777.1628      0.18154025
       4777.8317      0.15181933
       4778.5006      0.18475835
       4779.1695      0.23451797
       4779.8384      0.15934864
       4780.5073      0.14144252
       4781.1762      0.19555222
       4781.8451      0.10446727
       4782.5140      0.17648197
       4783.1829      0.22147951
       4783.8518      0.19695922
       4784.5207      0.27051092
       4785.1896      0.23919258
       4785.8585      0.16229878
       4786.5273      0.14308701
       4787.1962      0.15032789
       4787.8651      0.20610325
       4788.5340      0.13914034
       4789.2029      0.11270837
       4789.8718     0.099809305
       4790.5407      0.13799946
       4791.2096      0.16250228
       4791.8785      0.17936650
       4792.5474      0.12220770
       4793.2163      0.19092258
       4793.8852      0.14074663
       4794.5541      0.10870278
       4795.2230      0.16509042
       4795.8919      0.14801239
       4796.5608      0.15620120
       4797.2297      0.11986620
       4797.8986      0.17394253
       4798.5675      0.12082575
       4799.2364      0.10199019
       4799.9053      0.17226533
       4800.5742      0.16962467
       4801.2430      0.10195802
       4801.9119      0.19004263
       4802.5808      0.17968663
       4803.2497      0.17643058
       4803.9186      0.13447973
       4804.5875      0.13970192
       4805.2564      0.17295940
       4805.9253      0.13858121
       4806.5942      0.10195548
       4807.2631      0.12600289
       4807.9320      0.18292551
       4808.6009      0.17069421
       4809.2698      0.16955891
       4809.9387     0.089956582
       4810.6076      0.16189562
       4811.2765      0.17146866
       4811.9454      0.19629141
       4812.6143      0.14552757
       4813.2832      0.10038086
       4813.9521      0.14969846
       4814.6210      0.19787534
       4815.2899      0.17043572
       4815.9588      0.18900620
       4816.6276      0.20903402
       4817.2965      0.18544974
       4817.9654      0.21624229
       4818.6343      0.18054538
       4819.3032      0.17172189
       4819.9721      0.19218355
       4820.6410      0.13235904
       4821.3099      0.15346468
       4821.9788      0.20353602
       4822.6477      0.15650989
       4823.3166      0.14151005
       4823.9855      0.16408352
       4824.6544      0.16845141
       4825.3233      0.20249533
       4825.9922     0.082599627
       4826.6611      0.15790992
       4827.3300      0.13873813
       4827.9989      0.16079083
       4828.6678      0.14130169
       4829.3367      0.18252253
       4830.0056      0.15319421
       4830.6745     0.086486656
       4831.3433     0.071267244
       4832.0122      0.13422188
       4832.6811      0.15978028
       4833.3500      0.12533099
       4834.0189      0.13766558
       4834.6878      0.15464479
       4835.3567      0.17900598
       4836.0256      0.13267600
       4836.6945      0.10966339
       4837.3634      0.13394085
       4838.0323      0.15174266
       4838.7012      0.12308320
       4839.3701      0.17845232
       4840.0390      0.14066891
       4840.7079     0.081147649
       4841.3768      0.12891003
       4842.0457      0.19602773
       4842.7146      0.11936397
       4843.3835      0.17486066
       4844.0524      0.20332134
       4844.7213      0.17768667
       4845.3902      0.13576452
       4846.0590      0.11879899
       4846.7279      0.10970444
       4847.3968     0.098271284
       4848.0657      0.17712326
       4848.7346      0.13699519
       4849.4035      0.21268829
       4850.0724      0.14629618
       4850.7413      0.21300205
       4851.4102      0.10428069
       4852.0791      0.14956660
       4852.7480      0.17231019
       4853.4169      0.13368639
       4854.0858      0.15038503
       4854.7547      0.16985263
       4855.4236      0.21631010
       4856.0925      0.11382891
       4856.7614      0.15734750
       4857.4303      0.16347096
       4858.0992      0.21732621
       4858.7681      0.20198514
       4859.4370     0.084862412
       4860.1059      0.20483912
       4860.7748      0.18789851
       4861.4436      0.15935952
       4862.1125      0.19258570
       4862.7814      0.21298040
       4863.4503      0.33095538
       4864.1192      0.45277394
       4864.7881      0.77311326
       4865.4570      0.90245435
       4866.1259       1.0027180
       4866.7948       1.2107568
       4867.4637       1.0409702
       4868.1326       1.1623619
       4868.8015       1.1217323
       4869.4704      0.95844432
       4870.1393      0.70662724
       4870.8082      0.57648973
       4871.4771      0.48880472
       4872.1460      0.36849112
       4872.8149      0.31026750
       4873.4838      0.28311638
       4874.1527      0.29018817
       4874.8216      0.25838410
       4875.4905      0.27207467
       4876.1593      0.15277530
       4876.8282      0.11231156
       4877.4971      0.12656901
       4878.1660      0.13049439
       4878.8349     0.099705522
       4879.5038      0.15284329
       4880.1727      0.21952274
       4880.8416      0.27645987
       4881.5105      0.25912920
       4882.1794      0.20562895
       4882.8483      0.19955322
       4883.5172      0.11003204
       4884.1861      0.15001773
       4884.8550      0.12344245
       4885.5239      0.10609497
       4886.1928      0.15518984
       4886.8617      0.13027656
       4887.5306      0.14611577
       4888.1995      0.14256145
       4888.8684      0.18573580
       4889.5373      0.19794082
       4890.2062      0.14030185
       4890.8750      0.11391461
       4891.5439      0.13909458
       4892.2128      0.14982369
       4892.8817      0.10497992
       4893.5506      0.18062850
       4894.2195      0.18959717
       4894.8884      0.15030648
       4895.5573      0.15833469
       4896.2262     0.084753524
       4896.8951      0.15048204
       4897.5640     0.087799309
       4898.2329      0.15034181
       4898.9018      0.13747160
       4899.5707      0.21332300
       4900.2396      0.10537354
       4900.9085      0.20970865
       4901.5774      0.21535325
       4902.2463      0.15567920
       4902.9152     0.096725561
       4903.5841      0.12433751
       4904.2530      0.22161694
       4904.9219      0.17457046
       4905.5907      0.20656855
       4906.2596      0.11894051
       4906.9285      0.15083294
       4907.5974      0.13569473
       4908.2663      0.13964948
       4908.9352      0.15006448
       4909.6041      0.18578394
       4910.2730      0.13486752
       4910.9419      0.26844593
       4911.6108     0.093997557
       4912.2797   0.00091446952
       4912.9486     0.069847226
       4913.6175      0.12554042
       4914.2864      0.29854934
       4914.9553     0.067836001
       4915.6242      0.24145543
       4916.2931      0.29976087
       4916.9620      0.31106677
       4917.6309      0.19408513
       4918.2998     0.081601993
       4918.9687     0.071253229
       4919.6376    -0.026190485
       4920.3065      0.10984391
       4920.9753      0.28597788
       4921.6442      0.13547953
       4922.3131      0.27011289
       4922.9820    -0.044207408
       4923.6509     0.044230350
       4924.3198      0.15065909
       4924.9887      0.10635389
       4925.6576     0.089840263
       4926.3265      0.14899441
       4926.9954     0.063935943
       4927.6643     0.098039519
       4928.3332      0.25155473
       4929.0021      0.18223275
       4929.6710      0.16948433
       4930.3399      0.17170446
       4931.0088      0.17633957
       4931.6777      0.11958166
       4932.3466      0.14155641
       4933.0155      0.25172135
       4933.6844      0.17152820
       4934.3533      0.15692382
       4935.0222      0.16535836
       4935.6910      0.21041569
       4936.3599      0.23035722
       4937.0288      0.19457670
       4937.6977      0.20545370
       4938.3666      0.14667891
       4939.0355      0.17741210
       4939.7044      0.16435174
       4940.3733      0.18416325
       4941.0422      0.14695357
       4941.7111      0.19516855
       4942.3800      0.21118737
       4943.0489      0.16219716
       4943.7178      0.13342055
       4944.3867      0.18033780
       4945.0556      0.16903786
       4945.7245      0.28968310
       4946.3934      0.30187933
       4947.0623      0.30629020
       4947.7312      0.46789316
       4948.4001      0.19471735
       4949.0690      0.24259289
       4949.7379    -0.069823109
       4950.4067    -0.051959178
       4951.0756     0.016550983
       4951.7445     0.032539888
       4952.4134     0.030326404
       4953.0823      0.16056442
       4953.7512     0.078064757
       4954.4201      0.10188306
       4955.0890     0.068319690
       4955.7579      0.13391019
       4956.4268      0.21447849
       4957.0957      0.18550929
       4957.7646      0.21042364
       4958.4335      0.28396726
       4959.1024      0.36765994
       4959.7713      0.51139256
       4960.4402      0.42794492
       4961.1091      0.47754173
       4961.7780      0.67386648
       4962.4469      0.56499388
       4963.1158      0.42521259
       4963.7847      0.44633357
       4964.4536      0.41288488
       4965.1225      0.33352219
       4965.7913      0.34507630
       4966.4602      0.26365178
       4967.1291      0.21149018
       4967.7980      0.29053660
       4968.4669     0.054333755
       4969.1358      0.18659997
       4969.8047      0.20928419
       4970.4736     0.089538296
       4971.1425     0.078884048
       4971.8114     0.084162841
       4972.4803      0.13575942
       4973.1492      0.14669357
       4973.8181      0.21166241
       4974.4870      0.12930365
       4975.1559      0.15262548
       4975.8248     0.099080304
       4976.4937      0.14523800
       4977.1626      0.18035290
       4977.8315      0.23144465
       4978.5004      0.29814417
       4979.1693      0.21220753
       4979.8382      0.21833609
       4980.5070    -0.027260622
       4981.1759    -0.036829441
       4981.8448      0.14845410
       4982.5137      0.10467756
       4983.1826      0.13547705
       4983.8515      0.25931584
       4984.5204      0.22049692
       4985.1893      0.11328169
       4985.8582      0.20949304
       4986.5271      0.19584373
       4987.1960      0.14387024
       4987.8649     0.098680772
       4988.5338     0.052849944
       4989.2027      0.22384802
       4989.8716      0.21623641
       4990.5405      0.21019981
       4991.2094      0.13689102
       4991.8783      0.19035702
       4992.5472      0.13365273
       4993.2161      0.21075009
       4993.8850      0.18984225
       4994.5539      0.28040926
       4995.2227      0.23686012
       4995.8916      0.18293651
       4996.5605      0.16488437
       4997.2294      0.21487033
       4997.8983      0.11063682
       4998.5672    -0.036897449
       4999.2361     0.099898279
       4999.9050     0.082456535
       5000.5739     0.010317045
       5001.2428      0.24572488
       5001.9117      0.19071011
       5002.5806      0.30080281
       5003.2495      0.41416215
       5003.9184      0.58185281
       5004.5873      0.96068231
       5005.2562       1.2545363
       5005.9251       1.3693211
       5006.5940       1.6145724
       5007.2629       1.7215461
       5007.9318       1.6800432
       5008.6007       1.5270568
       5009.2696       1.2413038
       5009.9385       1.1236932
       5010.6073      0.83946028
       5011.2762      0.75676927
       5011.9451      0.51227422
       5012.6140      0.44423989
       5013.2829      0.40104459
       5013.9518      0.31168296
       5014.6207      0.44745524
       5015.2896      0.35618649
       5015.9585      0.19422504
       5016.6274      0.18854893
       5017.2963      0.21612936
       5017.9652      0.21030624
       5018.6341      0.13593531
       5019.3030     0.088400409
       5019.9719     0.087038616
       5020.6408      0.13641033
       5021.3097      0.12263430
       5021.9786      0.10055151
       5022.6475      0.16537803
       5023.3164      0.11883292
       5023.9853      0.18931624
       5024.6542      0.18384029
       5025.3230      0.19731870
       5025.9919      0.17796675
       5026.6608      0.15776852
       5027.3297      0.17062928
       5027.9986      0.14167500
       5028.6675      0.16077191
       5029.3364      0.15912740
       5030.0053      0.10877293
       5030.6742      0.20595968
       5031.3431      0.20194380
       5032.0120      0.18879890
       5032.6809      0.15329167
       5033.3498      0.24368557
       5034.0187      0.16182289
       5034.6876      0.19791216
       5035.3565      0.28916510
       5036.0254      0.10362507
       5036.6943      0.22373617
       5037.3632      0.27958466
       5038.0321      0.22235034
       5038.7010      0.24960677
       5039.3699      0.16714711
       5040.0387      0.21350456
       5040.7076      0.30062005
       5041.3765      0.20697122
       5042.0454      0.12475048
       5042.7143      0.13697899
       5043.3832      0.18617615
       5044.0521      0.14028035
       5044.7210      0.20441635
       5045.3899      0.14538997
       5046.0588      0.19343849
       5046.7277      0.16895946
       5047.3966      0.16351494
       5048.0655      0.16001660
       5048.7344      0.20303448
       5049.4033      0.14691087
       5050.0722     0.084005066
       5050.7411      0.17654060
       5051.4100      0.12292410
       5052.0789      0.12937331
       5052.7478     0.083329003
       5053.4167      0.19020867
       5054.0856      0.18057402
       5054.7544      0.22394685
       5055.4233      0.21267460
       5056.0922      0.16775392
       5056.7611      0.18139822
       5057.4300      0.14925835
       5058.0989     0.078531579
       5058.7678      0.11842334
       5059.4367      0.16259084
       5060.1056      0.16205854
       5060.7745      0.16046402
       5061.4434      0.13810172
       5062.1123      0.14924296
       5062.7812      0.22929778
       5063.4501      0.16232122
       5064.1190      0.14165095
       5064.7879      0.23611235
       5065.4568      0.14881198
       5066.1257      0.11170159
       5066.7946      0.11383770
       5067.4635      0.15792239
       5068.1324      0.18127817
       5068.8013      0.19139007
       5069.4702      0.18532167
       5070.1390      0.20520079
       5070.8079      0.27133875
       5071.4768      0.20922606
       5072.1457      0.14754367
       5072.8146      0.19995783
       5073.4835      0.16857556
       5074.1524      0.10855453
       5074.8213      0.13965885
       5075.4902      0.15390524
       5076.1591      0.13856891
       5076.8280      0.17845015
       5077.4969      0.12462710
       5078.1658      0.11182143
       5078.8347      0.11375784
       5079.5036      0.16659923
       5080.1725      0.14674789
       5080.8414     0.083442108
       5081.5103      0.11461767
       5082.1792      0.10475356
       5082.8481      0.16224407
       5083.5170      0.22733736
       5084.1859      0.15507978
       5084.8547      0.19668201
       5085.5236      0.15046468
       5086.1925      0.19752852
       5086.8614      0.18046551
       5087.5303      0.14960995
       5088.1992      0.16550055
       5088.8681      0.18649238
       5089.5370      0.17314108
       5090.2059      0.20247468
       5090.8748      0.21342302
       5091.5437      0.14050234
       5092.2126      0.18954044
       5092.8815      0.21606034
       5093.5504      0.16445127
       5094.2193      0.14239896
       5094.8882      0.16574820
       5095.5571      0.19889658
       5096.2260      0.16031592
       5096.8949      0.11650909
       5097.5638      0.12918309
       5098.2327      0.21893529
       5098.9016      0.20690062
       5099.5704     0.098110308
       5100.2393      0.19466454
       5100.9082      0.21096732
       5101.5771      0.17501374
       5102.2460      0.19221982
       5102.9149      0.27009869
       5103.5838     0.025962770
       5104.2527      0.18327869
       5104.9216     0.025212966
       5105.5905      0.15287956
       5106.2594      0.21455267
       5106.9283      0.18946353
       5107.5972     0.098878758
       5108.2661      0.25710451
       5108.9350      0.22582912
       5109.6039    -0.054576736
       5110.2728     -0.10900587
       5110.9417      0.12359949
       5111.6106      0.10156896
       5112.2795      0.10591994
       5112.9484      0.18420923
       5113.6173    -0.089446451
       5114.2862     0.063070918
       5114.9550      0.10950634
       5115.6239    -0.023025359
       5116.2928     0.094060754
       5116.9617      0.14740591
       5117.6306     0.097790765
       5118.2995     0.029615570
       5118.9684      0.17146414
       5119.6373      0.20172757
       5120.3062      0.21415210
       5120.9751      0.25762409
       5121.6440      0.22248487
       5122.3129      0.14861983
       5122.9818      0.24491945
       5123.6507      0.18687095
       5124.3196     0.082362478
       5124.9885      0.27093702
       5125.6574     0.085029261
       5126.3263     0.027973805
       5126.9952      0.24871356
       5127.6641      0.17178225
       5128.3330     0.058545955
       5129.0019      0.15534158
       5129.6707      0.27977347
       5130.3396      0.21683580
       5131.0085      0.13965142
       5131.6774     0.091927833
       5132.3463     0.023845017
       5133.0152     0.078461927
       5133.6841      0.17557916
       5134.3530      0.15376795
       5135.0219      0.27039555
       5135.6908      0.16793847
       5136.3597      0.12038541
       5137.0286      0.11668933
       5137.6975      0.13992389
       5138.3664      0.10560913
       5139.0353      0.16740893
       5139.7042      0.14612525
       5140.3731      0.21723273
       5141.0420      0.15583539
       5141.7109      0.19069609
       5142.3798     0.020354260
       5143.0487     0.060500042
       5143.7176     0.045788651
       5144.3864      0.12345911
       5145.0553      0.13954036
       5145.7242      0.16406744
       5146.3931      0.20017851
       5147.0620      0.20852443
       5147.7309      0.23456036
       5148.3998      0.17270783
       5149.0687      0.17144103
       5149.7376      0.21989465
       5150.4065      0.15559758
       5151.0754      0.13654787
       5151.7443      0.17579041
       5152.4132      0.20904540
       5153.0821      0.18648908
       5153.7510     0.066791469
       5154.4199      0.14396158
       5155.0888      0.18749813
       5155.7577      0.26307612
       5156.4266      0.15805310
       5157.0955      0.17766177
       5157.7644      0.22067451
       5158.4333      0.10071955
       5159.1022      0.18267669
       5159.7710      0.17813889
       5160.4399      0.18868123
       5161.1088     0.098730837
       5161.7777      0.20696255
       5162.4466      0.20614916
       5163.1155      0.19297782
       5163.7844      0.14058896
       5164.4533      0.12965838
       5165.1222      0.11354126
       5165.7911      0.10831044
       5166.4600      0.12415330
       5167.1289      0.21504137
       5167.7978     0.087910662
       5168.4667     0.091935765
       5169.1356     0.069025252
       5169.8045      0.21174170
       5170.4734      0.21438687
       5171.1423      0.17088949
       5171.8112      0.16549452
       5172.4801      0.18123305
       5173.1490      0.14227623
       5173.8179      0.12176605
       5174.4867      0.14550913
       5175.1556      0.12186150
       5175.8245      0.14091960
       5176.4934     0.066603609
       5177.1623      0.13303534
       5177.8312      0.14311154
       5178.5001      0.14086577
       5179.1690      0.15908118
       5179.8379      0.13635972
       5180.5068      0.19362676
       5181.1757      0.23138964
       5181.8446      0.17343826
       5182.5135      0.23183937
       5183.1824      0.21073920
       5183.8513      0.25725756
       5184.5202     0.079190220
       5185.1891      0.28645498
       5185.8580      0.17503654
       5186.5269      0.31322639
       5187.1958      0.16947118
       5187.8647    -0.038137715
       5188.5336     -0.16548783
       5189.2024    -0.068393667
       5189.8713      0.19314799
       5190.5402      0.15787512
       5191.2091      0.17164115
       5191.8780      0.26174990
       5192.5469      0.14072862
       5193.2158      0.18887493
       5193.8847    -0.049540596
       5194.5536    -0.042322502
       5195.2225    -0.037194761
       5195.8914     0.028000027
       5196.5603     0.095901780
       5197.2292      0.11562839
       5197.8981      0.13893547
       5198.5670      0.13506103
       5199.2359     0.074947991
       5199.9048      0.20202269
       5200.5737      0.23619036
       5201.2426     0.096580592
       5201.9115      0.11969990
       5202.5804      0.15540334
       5203.2493      0.13104399
       5203.9181      0.13202490
       5204.5870      0.12562886
       5205.2559      0.13423804
       5205.9248      0.10008653
       5206.5937      0.16490884
       5207.2626      0.19360459
       5207.9315      0.22450389
       5208.6004      0.14953328
       5209.2693      0.13217319
       5209.9382     0.088245553
       5210.6071     0.046937730
       5211.2760      0.16048489
       5211.9449     0.069449051
       5212.6138      0.16392082
       5213.2827      0.12614241
       5213.9516      0.11068169
       5214.6205      0.14476772
       5215.2894      0.16222514
       5215.9583      0.12480874
       5216.6272      0.13363776
       5217.2961      0.16341997
       5217.9650      0.26743266
       5218.6339    -0.040764160
       5219.3027      0.70988012
       5219.9716      0.30600064
       5220.6405     0.025630030
       5221.3094      0.35925752
       5221.9783     -0.22464798
       5222.6472     -0.13968075
       5223.3161    -0.021522367
       5223.9850      0.30577133
       5224.6539     -0.13730193
       5225.3228     0.082521980
       5225.9917      0.20217662
       5226.6606      0.30700317
       5227.3295      0.14864285
       5227.9984     0.057441465
       5228.6673     0.015237345
       5229.3362     0.055264241
       5230.0051    0.0011557805
       5230.6740      0.17866591
       5231.3429      0.21006835
       5232.0118      0.24651204
       5232.6807      0.12577843
       5233.3496      0.15561798
       5234.0184      0.26697759
       5234.6873      0.21521063
       5235.3562      0.22281149
       5236.0251      0.24754115
       5236.6940      0.10974668
       5237.3629      0.15833936
       5238.0318      0.20123832
       5238.7007      0.17004104
       5239.3696      0.19564401
       5240.0385      0.21709937
       5240.7074      0.28328747
       5241.3763      0.18302421
       5242.0452      0.26934977
       5242.7141      0.16430186
       5243.3830      0.15750039
       5244.0519      0.20500286
       5244.7208      0.20517610
       5245.3897     0.051334840
       5246.0586     0.089487672
       5246.7275     0.021294269
       5247.3964      0.19082266
       5248.0653      0.16901841
       5248.7341      0.16969232
       5249.4030      0.22519725
       5250.0719      0.22072961
       5250.7408      0.23368377
       5251.4097      0.32378537
       5252.0786      0.27402003
       5252.7475      0.13477028
       5253.4164      0.30448958
       5254.0853      0.24636108
       5254.7542     0.052975392
       5255.4231    -0.061740846
       5256.0920     0.012348072
       5256.7609      0.19357574
       5257.4298      0.12966396
       5258.0987      0.13182434
       5258.7676      0.13829018
       5259.4365      0.18057685
       5260.1054      0.17151876
       5260.7743      0.26710673
       5261.4432      0.31548472
       5262.1121      0.14107624
       5262.7810      0.19191474
       5263.4499      0.23304267
       5264.1187      0.10171525
       5264.7876     0.062271347
       5265.4565     0.052270505
       5266.1254     0.087734783
       5266.7943     0.079293289
       5267.4632      0.17727796
       5268.1321      0.10118324
       5268.8010      0.15789317
       5269.4699      0.14274601
       5270.1388     0.067003746
       5270.8077      0.55884647
       5271.4766      0.43308825
       5272.1455      0.26530846
       5272.8144      0.45466324
       5273.4833     0.030048276
       5274.1522      0.18946021
       5274.8211     -0.13448168
       5275.4900    0.0010333360
       5276.1589    0.0031066993
       5276.8278      0.17440502
       5277.4967      0.13821725
       5278.1656      0.17074466
       5278.8344      0.16739998
       5279.5033      0.13651124
       5280.1722      0.18340178
       5280.8411      0.17462456
       5281.5100      0.15613160
       5282.1789      0.14490181
       5282.8478      0.17778850
       5283.5167      0.15474851
       5284.1856      0.15935144
       5284.8545      0.23394598
       5285.5234      0.25868478
       5286.1923      0.22136623
       5286.8612      0.16394232
       5287.5301      0.16175271
       5288.1990      0.18856698
       5288.8679      0.16851448
       5289.5368      0.17665725
       5290.2057      0.12697639
       5290.8746      0.20574990
       5291.5435      0.27449360
       5292.2124      0.49857843
       5292.8813      0.45590727
       5293.5501      0.31307634
       5294.2190      0.29671414
       5294.8879     0.053209559
       5295.5568     -0.16952134
       5296.2257    -0.064806917
       5296.8946    -0.081167702
       5297.5635     0.069081538
       5298.2324     0.064166050
       5298.9013      0.19821595
       5299.5702      0.10112246
       5300.2391      0.19631535
       5300.9080      0.13456152
       5301.5769      0.18603929
       5302.2458      0.17670379
       5302.9147      0.19805905
       5303.5836      0.20050941
       5304.2525      0.18801802
       5304.9214      0.17518865
       5305.5903      0.20591147
       5306.2592      0.18357643
       5306.9281      0.23933288
       5307.5970      0.16628201
       5308.2658      0.20259098
       5308.9347      0.26903622
       5309.6036      0.11326510
       5310.2725      0.15589593
       5310.9414      0.23434942
       5311.6103      0.11215546
       5312.2792      0.23213243
       5312.9481      0.17192377
       5313.6170     0.020257930
       5314.2859      0.10972549
       5314.9548     0.074875762
       5315.6237      0.11119866
       5316.2926      0.14978963
       5316.9615      0.38873504
       5317.6304      0.30080886
       5318.2993      0.34250400
       5318.9682      0.18294981
       5319.6371      0.28934665
       5320.3060     0.054830438
       5320.9749     0.044358964
       5321.6438     0.085293936
       5322.3127      0.13542248
       5322.9816      0.24939030
       5323.6504      0.20126252
       5324.3193      0.15350806
       5324.9882      0.18332008
       5325.6571      0.18492853
       5326.3260      0.15959094
       5326.9949      0.20117858
       5327.6638      0.17639296
       5328.3327      0.21955451
       5329.0016      0.20056538
       5329.6705      0.24782949
       5330.3394      0.22061832
       5331.0083      0.18406806
       5331.6772      0.16940070
       5332.3461      0.18303799
       5333.0150      0.18846479
       5333.6839      0.19279965
       5334.3528      0.12679898
       5335.0217      0.19944574
       5335.6906      0.26187932
       5336.3595      0.21476663
       5337.0284      0.23823312
       5337.6973      0.22446989
       5338.3661      0.23796393
       5339.0350      0.20435637
       5339.7039      0.25662125
       5340.3728      0.18929506
       5341.0417      0.17251253
       5341.7106      0.16982111
       5342.3795      0.13840861
       5343.0484      0.17660030
       5343.7173      0.16704003
       5344.3862      0.20504712
       5345.0551      0.27222630
       5345.7240      0.10944623
       5346.3929      0.11042120
       5347.0618      0.15535503
       5347.7307      0.21470491
       5348.3996     0.080041795
       5349.0685      0.23611478
       5349.7374      0.20464935
       5350.4063      0.22979332
       5351.0752      0.21068319
       5351.7441      0.20115555
       5352.4130      0.23626461
       5353.0818      0.14279995
       5353.7507      0.23863381
       5354.4196      0.16726794
       5355.0885      0.18264029
       5355.7574      0.15801411
       5356.4263      0.14974826
       5357.0952      0.21882294
       5357.7641      0.23717327
       5358.4330      0.15283948
       5359.1019      0.12320550
       5359.7708      0.29563067
       5360.4397      0.52110972
       5361.1086      0.45462720
       5361.7775      0.46018801
       5362.4464      0.28345515
       5363.1153      0.31842370
       5363.7842      0.31012867
       5364.4531      0.26498673
       5365.1220      0.22679585
       5365.7909      0.16960301
       5366.4598      0.12991838
       5367.1287      0.22142582
       5367.7976      0.20812204
       5368.4664      0.22098256
       5369.1353      0.19164166
       5369.8042     0.056100456
       5370.4731      0.16765194
       5371.1420      0.27573797
       5371.8109     0.094306683
       5372.4798      0.17575288
       5373.1487      0.18381535
       5373.8176      0.23657673
       5374.4865      0.22204027
       5375.1554      0.18697888
       5375.8243      0.20173876
       5376.4932      0.13488038
       5377.1621      0.11916515
       5377.8310      0.20539957
       5378.4999      0.17467899
       5379.1688      0.20683922
       5379.8377      0.10403778
       5380.5066      0.16833367
       5381.1755      0.20108757
       5381.8444      0.14573709
       5382.5133      0.16884191
       5383.1821      0.17926215
       5383.8510      0.22403984
       5384.5199      0.22959435
       5385.1888      0.20309638
       5385.8577      0.20868635
       5386.5266      0.19172172
       5387.1955      0.20059380
       5387.8644      0.16838825
       5388.5333      0.17377087
       5389.2022      0.17599994
       5389.8711      0.26689634
       5390.5400      0.22751905
       5391.2089      0.17095865
       5391.8778      0.24113402
       5392.5467      0.23950705
       5393.2156      0.14725642
       5393.8845      0.17505393
       5394.5534      0.10924245
       5395.2223      0.20888162
       5395.8912      0.24384953
       5396.5601      0.24727370
       5397.2290      0.25401766
       5397.8978      0.15179705
       5398.5667      0.20936928
       5399.2356      0.28002098
       5399.9045      0.17745369
       5400.5734      0.18070178
       5401.2423      0.29671869
       5401.9112      0.18930004
       5402.5801      0.19782854
       5403.2490      0.16701031
       5403.9179      0.26242210
       5404.5868      0.16136336
       5405.2557      0.14452666
       5405.9246      0.24976284
       5406.5935      0.22376167
       5407.2624      0.14757209
       5407.9313      0.26396498
       5408.6002      0.26239716
       5409.2691      0.11358125
       5409.9380      0.17342713
       5410.6069      0.18982754
       5411.2758      0.14223488
       5411.9447      0.22459526
       5412.6136      0.24870732
       5413.2824      0.24453678
       5413.9513      0.25718488
       5414.6202      0.16072107
       5415.2891      0.14272051
       5415.9580      0.15812015
       5416.6269      0.15641366
       5417.2958      0.24489959
       5417.9647      0.21934427
       5418.6336      0.19771759
       5419.3025      0.17247798
       5419.9714      0.10536271
       5420.6403      0.18638228
       5421.3092      0.13022228
       5421.9781     0.063850762
       5422.6470      0.16294493
       5423.3159      0.17223171
       5423.9848      0.21506911
       5424.6537      0.12904287
       5425.3226      0.12719224
       5425.9915      0.17830698
       5426.6604      0.16938654
       5427.3293      0.14866204
       5427.9981      0.14251620
       5428.6670      0.21209513
       5429.3359      0.30447898
       5430.0048      0.26964177
       5430.6737      0.20058426
       5431.3426      0.14831943
       5432.0115      0.19437417
       5432.6804      0.14129730
       5433.3493      0.14808429
       5434.0182      0.20369471
       5434.6871      0.21167413
       5435.3560      0.23798026
       5436.0249      0.16787539
       5436.6938      0.16513117
       5437.3627      0.26562573
       5438.0316      0.27340855
       5438.7005      0.14842019
       5439.3694      0.21978039
       5440.0383      0.16160701
       5440.7072      0.24186453
       5441.3761      0.25008486
       5442.0450      0.20729594
       5442.7138      0.26355585
       5443.3827      0.26152003
       5444.0516      0.20634192
       5444.7205      0.26166394
       5445.3894      0.19890824
       5446.0583      0.20412709
       5446.7272      0.19986612
       5447.3961      0.28389310
       5448.0650      0.28599609
       5448.7339      0.19038773
       5449.4028      0.25559514
       5450.0717      0.27127102
       5450.7406      0.18705269
       5451.4095      0.17669129
       5452.0784      0.19350035
       5452.7473      0.17323075
       5453.4162      0.25287923
       5454.0851      0.27089451
       5454.7540      0.22111942
       5455.4229      0.15802966
       5456.0918      0.21283211
       5456.7607      0.17249176
       5457.4295      0.28073709
       5458.0984      0.19216150
       5458.7673      0.23284858
       5459.4362      0.26844235
       5460.1051      0.13348764
       5460.7740      0.19118588
       5461.4429      0.17596872
       5462.1118      0.23505692
       5462.7807      0.16069013
       5463.4496      0.19431439
       5464.1185      0.17019046
       5464.7874      0.22570951
       5465.4563      0.20934608
       5466.1252      0.24040258
       5466.7941      0.22255718
       5467.4630      0.26348535
       5468.1319      0.30489529
       5468.8008      0.30600960
       5469.4697      0.24071675
       5470.1386      0.21708315
       5470.8075      0.17897732
       5471.4764      0.17891369
       5472.1453      0.25600983
       5472.8141      0.21822383
       5473.4830      0.27178935
       5474.1519      0.23886805
       5474.8208      0.30228449
       5475.4897      0.18316987
       5476.1586      0.19454728
       5476.8275      0.21918643
       5477.4964      0.29019926
       5478.1653      0.20995799
       5478.8342      0.20454037
       5479.5031      0.30592248
       5480.1720      0.19648612
       5480.8409      0.20344148
       5481.5098      0.12648807
       5482.1787      0.19401111
       5482.8476      0.24820901
       5483.5165      0.21868101
       5484.1854      0.29050238
       5484.8543     0.046773585
       5485.5232      0.14519629
       5486.1921      0.13763886
       5486.8610      0.24164349
       5487.5298      0.29797615
       5488.1987      0.29550411
       5488.8676      0.32696880
       5489.5365      0.26868365
       5490.2054      0.40272061
       5490.8743      0.28690781
       5491.5432      0.17783731
       5492.2121    -0.068055265
       5492.8810      0.14018616
       5493.5499      0.19784683
       5494.2188    -0.047779878
       5494.8877     -0.38962602
       5495.5566     -0.20230818
       5496.2255      0.11830397
       5496.8944      0.33783472
       5497.5633  -1.0537812e-06
       5498.2322      0.15428382
       5498.9011      0.66682311
       5499.5700      0.51555626
       5500.2389     -0.14211243
       5500.9078     -0.10236849
       5501.5767     -0.27693269
       5502.2455     -0.11993776
       5502.9144     0.044327127
       5503.5833     0.079655792
       5504.2522      0.10547043
       5504.9211      0.26294781
       5505.5900      0.31902357
       5506.2589      0.12663367
       5506.9278      0.18972043
       5507.5967      0.17073339
       5508.2656    -0.021948913
       5508.9345     -0.18033283
       5509.6034      0.11564521
       5510.2723      0.15581250
       5510.9412      0.17826066
       5511.6101      0.19452542
       5512.2790      0.22250314
       5512.9479      0.19805223
       5513.6168      0.21542112
       5514.2857      0.20150154
       5514.9546      0.19691541
       5515.6235     0.092394925
       5516.2924      0.10549416
       5516.9613      0.20428787
       5517.6301      0.22380946
       5518.2990      0.24453586
       5518.9679      0.20876490
       5519.6368      0.24203367
       5520.3057      0.20764010
       5520.9746      0.20932781
       5521.6435      0.18367975
       5522.3124      0.23595031
       5522.9813      0.15474257
       5523.6502      0.19798430
       5524.3191     0.096642023
       5524.9880      0.17718049
       5525.6569      0.20613000
       5526.3258      0.53435976
       5526.9947      0.81483066
       5527.6636      0.48200419
       5528.3325     0.034298265
       5529.0014     -0.40225034
       5529.6703     -0.62029168
       5530.3392     -0.61478072
       5531.0081     -0.48324231
       5531.6770     -0.29039218
       5532.3458      0.17464237
       5533.0147      0.30257423
       5533.6836      0.21478356
       5534.3525    0.0011355991
       5535.0214      0.17374536
       5535.6903     0.047362900
       5536.3592      0.31116858
       5537.0281      0.18798686
       5537.6970      0.16949969
       5538.3659      0.15849292
       5539.0348      0.24066799
       5539.7037      0.21513850
       5540.3726      0.27148422
       5541.0415      0.21873326
       5541.7104      0.24793123
       5542.3793      0.35318225
       5543.0482      0.17965716
       5543.7171      0.16957720
       5544.3860      0.27803539
       5545.0549      0.17237609
       5545.7238     0.085801752
       5546.3927      0.17036188
       5547.0615      0.25448957
       5547.7304      0.17726691
       5548.3993      0.24872888
       5549.0682      0.18284790
       5549.7371      0.26658381
       5550.4060      0.22973381
       5551.0749      0.36916721
       5551.7438      0.15876861
       5552.4127      0.38483378
       5553.0816      0.17097298
       5553.7505     0.046758328
       5554.4194    -0.099543324
       5555.0883     0.011953104
       5555.7572      0.14595686
       5556.4261      0.17735879
       5557.0950      0.12384261
       5557.7639     0.065238642
       5558.4328      0.16256166
       5559.1017      0.20061245
       5559.7706      0.25538969
       5560.4395      0.25793815
       5561.1084      0.23241069
       5561.7773      0.32825046
       5562.4461      0.17348450
       5563.1150      0.41261875
       5563.7839     -0.18811507
       5564.4528     -0.33859390
       5565.1217    0.0049815722
       5565.7906     -0.51042779
       5566.4595     -0.27316022
       5567.1284     -0.32563415
       5567.7973     0.040667358
       5568.4662     0.026208799
       5569.1351      0.24585037
       5569.8040      0.23186447
       5570.4729      0.18684914
       5571.1418      0.14229857
       5571.8107      0.28685681
       5572.4796      0.26395653
       5573.1485      0.34207930
       5573.8174      0.49792830
       5574.4863      0.23125497
       5575.1552      0.23085706
       5575.8241      0.27950211
       5576.4930     0.054960298
       5577.1618      0.17536717
       5577.8307    0.0028616716
       5578.4996      0.24111659
       5579.1685      0.13927875
       5579.8374      0.25061436
       5580.5063      0.23872294
       5581.1752      0.17566145
       5581.8441      0.25647626
       5582.5130      0.19149469
       5583.1819      0.49793499
       5583.8508      0.35241506
       5584.5197      0.54877951
       5585.1886    -0.066401839
       5585.8575     -0.39991873
       5586.5264     -0.39247618
       5587.1953     -0.29710328
       5587.8642     -0.25712699
       5588.5331     -0.13836734
       5589.2020      0.19411747
       5589.8709      0.14237569
       5590.5398      0.23182322
       5591.2087      0.28883684
       5591.8775      0.30064858
       5592.5464      0.18585277
       5593.2153      0.22825375
       5593.8842      0.26750383
       5594.5531      0.20929655
       5595.2220      0.15497284
       5595.8909      0.16723071
       5596.5598      0.16343949
       5597.2287      0.27596238
       5597.8976      0.15975811
       5598.5665      0.21320527
       5599.2354      0.29506826
       5599.9043      0.16267371
       5600.5732     -0.18885919
       5601.2421     0.063230751
       5601.9110      0.21525600
       5602.5799     0.045801122
       5603.2488      0.14804484
       5603.9177      0.16049037
       5604.5866      0.20618808
       5605.2555      0.20010270
       5605.9244      0.50893631
       5606.5932      0.72447439
       5607.2621      0.26374477
       5607.9310      0.31236918
       5608.5999      0.26993588
       5609.2688      0.29116170
       5609.9377      0.26610981
       5610.6066     0.052152853
       5611.2755      0.19189805
       5611.9444     -0.14465825
       5612.6133     0.057032826
       5613.2822     0.021563165
       5613.9511      0.23511444
       5614.6200      0.13825219
       5615.2889      0.14831408
       5615.9578      0.16567735
       5616.6267      0.28966248
       5617.2956      0.24688814
       5617.9645      0.24627854
       5618.6334      0.19227162
       5619.3023      0.15708135
       5619.9712      0.19790036
       5620.6401      0.14056123
       5621.3090      0.19331822
       5621.9778      0.16959013
       5622.6467      0.23197643
       5623.3156      0.14918302
       5623.9845      0.18379145
       5624.6534      0.28932926
       5625.3223      0.42620336
       5625.9912      0.14166309
       5626.6601      0.20169153
       5627.3290      0.28246052
       5627.9979      0.25711787
       5628.6668      0.38064227
       5629.3357    -0.045184727
       5630.0046      0.13233370
       5630.6735      0.16553048
       5631.3424      0.21199500
       5632.0113      0.20179187
       5632.6802      0.18142926
       5633.3491      0.20259641
       5634.0180      0.35183685
       5634.6869      0.19348337
       5635.3558      0.30253923
       5636.0247     0.028843500
       5636.6935    -0.095286200
       5637.3624    -0.079262310
       5638.0313      0.15515429
       5638.7002    -0.034685874
       5639.3691      0.23752131
       5640.0380      0.15629276
       5640.7069      0.28902039
       5641.3758      0.14614813
       5642.0447      0.14996149
       5642.7136      0.16008807
       5643.3825      0.31508156
       5644.0514      0.18112724
       5644.7203      0.23390243
       5645.3892      0.20795925
       5646.0581      0.27411134
       5646.7270      0.23983332
       5647.3959      0.16999020
       5648.0648      0.17216899
       5648.7337      0.25498923
       5649.4026      0.21990022
       5650.0715      0.27317962
       5650.7404      0.14595316
       5651.4092      0.32587651
       5652.0781      0.18270029
       5652.7470      0.13717420
       5653.4159      0.15553068
       5654.0848      0.34607043
       5654.7537      0.10636693
       5655.4226     0.042947025
       5656.0915      0.30293959
       5656.7604      0.14800135
       5657.4293      0.27815248
       5658.0982      0.24746831
       5658.7671      0.23178698
       5659.4360      0.20115204
       5660.1049      0.14303594
       5660.7738      0.20017693
       5661.4427      0.41026086
       5662.1116      0.34750258
       5662.7805      0.22642135
       5663.4494      0.31019159
       5664.1183      0.20366496
       5664.7872      0.16205962
       5665.4561     0.086558181
       5666.1250      0.15408016
       5666.7938    -0.010793155
       5667.4627     -0.22409407
       5668.1316     0.051172179
       5668.8005      0.25977077
       5669.4694      0.19110168
       5670.1383      0.17446343
       5670.8072      0.32287937
       5671.4761      0.21445010
       5672.1450      0.12826290
       5672.8139      0.25853347
       5673.4828      0.27843397
       5674.1517      0.24467211
       5674.8206      0.15813959
       5675.4895      0.22841675
       5676.1584      0.20681800
       5676.8273      0.21753073
       5677.4962      0.25296402
       5678.1651      0.25689267
       5678.8340      0.21177006
       5679.5029      0.28852350
       5680.1718      0.20002404
       5680.8407      0.20741459
       5681.5095      0.24935369
       5682.1784      0.27634308
       5682.8473      0.25812762
       5683.5162      0.19806008
       5684.1851      0.19470718
       5684.8540      0.35901793
       5685.5229      0.24714623
       5686.1918      0.34105842
       5686.8607      0.36533717
       5687.5296      0.23744185
       5688.1985      0.18435716
       5688.8674      0.30377680
       5689.5363      0.35197563
       5690.2052      0.18584718
       5690.8741      0.30148109
       5691.5430      0.35793211
       5692.2119      0.16227040
       5692.8808      0.27762383
       5693.5497      0.27390769
       5694.2186      0.14028622
       5694.8875      0.23462580
       5695.5564      0.14714616
       5696.2252      0.31548639
       5696.8941      0.32964752
       5697.5630      0.16237849
       5698.2319      0.54137524
       5698.9008      0.28721277
       5699.5697      0.35024027
       5700.2386      0.26592696
       5700.9075      0.31553197
       5701.5764      0.29220221
       5702.2453      0.40544715
       5702.9142    -0.033658295
       5703.5831      0.15043208
       5704.2520      0.27128424
       5704.9209     0.036249006
       5705.5898      0.15045868
       5706.2587      0.10823679
       5706.9276      0.15996750
       5707.5965     0.045224891
       5708.2654      0.24894474
       5708.9343   -0.0048030791
       5709.6032      0.28829804
       5710.2721      0.11186475
       5710.9410     0.033235845
       5711.6098     0.087524107
       5712.2787      0.21910510
       5712.9476      0.19523894
       5713.6165      0.26103864
       5714.2854      0.34516779
       5714.9543      0.26388789
       5715.6232     0.019970377
       5716.2921      0.35493471
       5716.9610      0.43235022
       5717.6299      0.13861270
       5718.2988      0.20056493
       5718.9677      0.81034103
       5719.6366      0.42253291
       5720.3055      0.34093875
       5720.9744      0.18737310
       5721.6433      0.23116596
       5722.3122   -0.0081898096
       5722.9811     0.029563067
       5723.6500    -0.015129771
       5724.3189      0.19253630
       5724.9878      0.33969632
       5725.6567      0.26951553
       5726.3255      0.22413126
       5726.9944      0.13475220
       5727.6633      0.24169708
       5728.3322      0.23989542
       5729.0011    -0.047875498
       5729.6700      0.24407857
       5730.3389      0.18884240
       5731.0078      0.22751594
       5731.6767      0.29440969
       5732.3456      0.36392483
       5733.0145      0.16909327
       5733.6834     0.069788499
       5734.3523      0.27655972
       5735.0212      0.19441241
       5735.6901      0.12377581
       5736.3590      0.17357510
       5737.0279      0.18026894
       5737.6968      0.16046730
       5738.3657      0.18957369
       5739.0346      0.23150971
       5739.7035      0.16615364
       5740.3724      0.22579986
       5741.0412      0.13155311
       5741.7101      0.21490039
       5742.3790      0.14435526
       5743.0479      0.17219982
       5743.7168      0.17986693
       5744.3857      0.28527873
       5745.0546      0.23090187
       5745.7235      0.27493614
       5746.3924      0.26139571
       5747.0613      0.19736489
       5747.7302      0.15732299
       5748.3991      0.25089542
       5749.0680      0.20935857
       5749.7369     0.083040051
       5750.4058      0.20290135
       5751.0747      0.18613943
       5751.7436      0.16660783
       5752.4125      0.11259135
       5753.0814      0.21911747
       5753.7503      0.16940439
       5754.4192      0.21979910
       5755.0881      0.14786929
       5755.7569      0.13881521
       5756.4258      0.19675472
       5757.0947      0.10086441
       5757.7636      0.42744599
       5758.4325      0.54408595
       5759.1014      0.44622184
       5759.7703     -0.21260214
       5760.4392    -0.054408215
       5761.1081      0.47192842
       5761.7770     -0.68177427
       5762.4459     -0.42808052
       5763.1148    -0.097082733
       5763.7837      0.27694366
       5764.4526      0.16645712
       5765.1215      0.38769983
       5765.7904      0.12896648
       5766.4593     0.052696697
       5767.1282      0.34412276
       5767.7971     0.063256679
       5768.4660      0.34531483
       5769.1349      0.21744113
       5769.8038      0.29953320
       5770.4727      0.24590428
       5771.1415     0.093217795
       5771.8104      0.27442132
       5772.4793      0.26668069
       5773.1482      0.41676534
       5773.8171      0.34095795
       5774.4860      0.21815862
       5775.1549      0.14818329
       5775.8238      0.23803220
       5776.4927      0.40271146
       5777.1616      0.15396195
       5777.8305      0.28147999
       5778.4994      0.24700191
       5779.1683      0.25312839
       5779.8372      0.21579995
       5780.5061      0.30453442
       5781.1750      0.19574445
       5781.8439      0.18559149
       5782.5128      0.16577863
       5783.1817      0.20601943
       5783.8506      0.21342268
       5784.5195      0.14946574
       5785.1884      0.10557808
       5785.8572      0.16899957
       5786.5261      0.20224156
       5787.1950      0.20097631
       5787.8639      0.21800030
       5788.5328      0.18945382
       5789.2017      0.21126685
       5789.8706     0.045883793
       5790.5395      0.21880162
       5791.2084     0.094373771
       5791.8773      0.11706704
       5792.5462     0.098925162
       5793.2151      0.28614061
       5793.8840     -0.12296486
       5794.5529    -0.052041899
       5795.2218     0.078073094
       5795.8907     0.044376490
       5796.5596      0.19871953
       5797.2285      0.30180267
       5797.8974      0.20680699
       5798.5663      0.22882607
       5799.2352      0.19590884
       5799.9041      0.19506621
       5800.5729      0.20582453
       5801.2418      0.24413280
       5801.9107      0.23502522
       5802.5796      0.18561359
       5803.2485      0.17300162
       5803.9174      0.80312828
       5804.5863      0.73293335
       5805.2552      0.29122407
       5805.9241     0.067139008
       5806.5930      0.15519511
       5807.2619     -0.66082483
       5807.9308     -0.18400123
       5808.5997      0.24084784
       5809.2686      0.15824389
       5809.9375      0.24460616
       5810.6064      0.17446459
       5811.2753      0.39454122
       5811.9442      0.25145772
       5812.6131      0.29702722
       5813.2820      0.22263696
       5813.9509      0.19669212
       5814.6198      0.19290266
       5815.2887      0.19087731
       5815.9575      0.17443871
       5816.6264      0.16611613
       5817.2953      0.42878244
       5817.9642      0.18877080
       5818.6331      0.10304331
       5819.3020     -0.29127412
       5819.9709      0.21692025
       5820.6398      0.15637345
       5821.3087      0.25936346
       5821.9776      0.24410477
       5822.6465      0.39065986
       5823.3154      0.17240105
       5823.9843      0.15218126
       5824.6532      0.25525798
       5825.3221      0.29101275
       5825.9910      0.27421706
       5826.6599      0.47891984
       5827.3288       1.0345655
       5827.9977      0.75606192
       5828.6666      0.37224216
       5829.3355      0.57118907
       5830.0044      0.47786547
       5830.6732     -0.94752903
       5831.3421      0.22069250
       5832.0110     0.070669475
       5832.6799      0.33350446
       5833.3488      0.21612458
       5834.0177      0.33447298
       5834.6866      0.27463546
       5835.3555      0.15533715
       5836.0244      0.22234860
       5836.6933      0.19904708
       5837.3622      0.13587649
       5838.0311      0.13905456
       5838.7000      0.19492766
       5839.3689      0.17372620
       5840.0378      0.10506807
       5840.7067      0.15558166
       5841.3756     0.042286329
       5842.0445      0.16793339
       5842.7134      0.10092310
       5843.3823      0.23719136
       5844.0512      0.27479155
       5844.7201      0.72376069
       5845.3889      0.54201281
       5846.0578     -0.10343492
       5846.7267      0.17012802
       5847.3956     -0.19095108
       5848.0645     -0.47145200
       5848.7334     -0.55006037
       5849.4023    0.0090352961
       5850.0712    -0.096963299
       5850.7401     -0.39792103
       5851.4090     0.061795695
       5852.0779      0.43945502
       5852.7468      0.43923792
       5853.4157      0.26518844
       5854.0846      0.22714297
       5854.7535    -0.066027998
       5855.4224     -0.34596997
       5856.0913      0.59962862
       5856.7602      0.15110083
       5857.4291      0.44376227
       5858.0980      0.24879161
       5858.7669      0.24542690
       5859.4358      0.26322280
       5860.1046      0.20263546
       5860.7735     0.089894387
       5861.4424      0.19233663
       5862.1113      0.22945239
       5862.7802     0.066052748
       5863.4491   -0.0013063562
       5864.1180      0.36653635
       5864.7869      0.33385285
       5865.4558     0.030780353
       5866.1247      0.21988693
       5866.7936     0.096169557
       5867.4625      0.23020285
       5868.1314     0.046196859
       5868.8003      0.13426852
       5869.4692      0.17734717
       5870.1381      0.33171122
       5870.8070      0.13993023
       5871.4759      0.20020527
       5872.1448      0.23360837
       5872.8137      0.11205257
       5873.4826      0.24338358
       5874.1515      0.17106957
       5874.8204      0.16949602
       5875.4892      0.33081022
       5876.1581      0.14112432
       5876.8270     0.095505607
       5877.4959      0.34186022
       5878.1648      0.12084700
       5878.8337     0.093028754
       5879.5026      0.21900432
       5880.1715      0.20466577
       5880.8404      0.13833952
       5881.5093      0.25194890
       5882.1782      0.11357091
       5882.8471      0.65159665
       5883.5160       1.1008429
       5884.1849      0.61945857
       5884.8538     -0.66620730
       5885.5227     -0.32222001
       5886.1916     -0.42514290
       5886.8605     -0.37047118
       5887.5294      0.13653107
       5888.1983      0.18096617
       5888.8672    -0.067178205
       5889.5361     0.087650130
       5890.2049     0.053449292
       5890.8738      0.24780152
       5891.5427     0.058070435
       5892.2116     0.065569033
       5892.8805     -0.24543269
       5893.5494      0.12896595
       5894.2183      0.13501647
       5894.8872     0.075647367
       5895.5561    -0.017282579
       5896.2250      0.18423145
       5896.8939      0.30663275
       5897.5628      0.17508689
       5898.2317      0.22939069
       5898.9006      0.21302810
       5899.5695      0.19332116
       5900.2384      0.31365050
       5900.9073      0.31823118
       5901.5762     0.097648030
       5902.2451     0.041574811
       5902.9140     0.025567678
       5903.5829      0.13373635
       5904.2518     0.081379142
       5904.9206      0.23148994
       5905.5895      0.10985529
       5906.2584      0.19931670
       5906.9273      0.20228232
       5907.5962     0.047181137
       5908.2651      0.18973873
       5908.9340    -0.010257772
       5909.6029      0.20466417
       5910.2718     0.094810389
       5910.9407      0.11916899
       5911.6096      0.27820749
       5912.2785      0.27980857
       5912.9474      0.16595090
       5913.6163      0.13667430
       5914.2852      0.20233295
       5914.9541      0.13691624
       5915.6230      0.28054945
       5916.2919   -0.0097359824
       5916.9608      0.25540995
       5917.6297      0.16987466
       5918.2986     0.050962302
       5918.9675     0.091291701
       5919.6364      0.23806824
       5920.3052      0.39753789
       5920.9741      0.50130594
       5921.6430      0.53085690
       5922.3119      0.46464755
       5922.9808    -0.075281648
       5923.6497      0.15055799
       5924.3186     -0.47931817
       5924.9875    -0.059382214
       5925.6564     0.071326337
       5926.3253     0.057286956
       5926.9942      0.23593033
       5927.6631     0.064848216
       5928.3320      0.10488195
       5929.0009     0.088243455
       5929.6698      0.15003594
       5930.3387      0.18128853
       5931.0076     0.055046729
       5931.6765     0.062409796
       5932.3454      0.36660341
       5933.0143      0.21594896
       5933.6832      0.29504438
       5934.3521    -0.085085858
       5935.0209  -0.00054951585
       5935.6898     0.038602039
       5936.3587     -0.15523993
       5937.0276     0.065540223
       5937.6965      0.13476771
       5938.3654      0.18030866
       5939.0343    0.0033936103
       5939.7032    0.0083422175
       5940.3721    -0.049512747
       5941.0410    -0.047849324
       5941.7099      0.19744969
       5942.3788      0.12784784
       5943.0477      0.25751278
       5943.7166      0.52249421
       5944.3855      0.19369641
       5945.0544      0.29977743
       5945.7233      0.12145675
       5946.3922      0.50147616
       5947.0611      0.32406769
       5947.7300    -0.054643951
       5948.3989     -0.10706612
       5949.0678     0.043707515
       5949.7366      0.16022262
       5950.4055     0.084415526
       5951.0744      0.13001111
       5951.7433      0.15592740
       5952.4122     0.066973924
       5953.0811      0.11989440
       5953.7500    0.0041309196
       5954.4189      0.23589917
       5955.0878      0.10888382
       5955.7567      0.11388286
       5956.4256      0.14800196
       5957.0945      0.32495696
       5957.7634      0.10823454
       5958.4323      0.22886523
       5959.1012      0.32020504
       5959.7701      0.12217810
       5960.4390      0.23648324
       5961.1079      0.27123977
       5961.7768      0.15773318
       5962.4457      0.14545976
       5963.1146    -0.012800994
       5963.7835     -0.11803223
       5964.4524     0.085882761
       5965.1212      0.29199627
       5965.7901      0.24000078
       5966.4590      0.29460928
       5967.1279      0.17770495
       5967.7968      0.22941741
       5968.4657      0.15812504
       5969.1346      0.26489911
       5969.8035      0.24211563
       5970.4724     -0.12223633
       5971.1413      0.36131981
       5971.8102    -0.096647106
       5972.4791     -0.45158137
       5973.1480    -0.039978779
       5973.8169    -0.077845160
       5974.4858     -0.35324625
       5975.1547     -0.58931379
       5975.8236      0.13118645
       5976.4925      0.15476454
       5977.1614      0.28059600
       5977.8303      0.13802237
       5978.4992     0.064805208
       5979.1681      0.48411885
       5979.8369      0.27755904
       5980.5058      0.59830982
       5981.1747      0.61480403
       5981.8436      0.27241747
       5982.5125      0.39271221
       5983.1814     -0.16361596
       5983.8503     0.094663026
       5984.5192    -0.036370702
       5985.1881      0.38076913
       5985.8570      0.18491029
       5986.5259      0.28036870
       5987.1948      0.19422325
       5987.8637      0.25723601
       5988.5326      0.13099785
       5989.2015      0.21534216
       5989.8704      0.23389844
       5990.5393    -0.083280654
       5991.2082      0.12910450
       5991.8771      0.14773248
       5992.5460      0.15158353
       5993.2149     -0.56907207
       5993.8838      0.44504994
       5994.5526     0.074480394
       5995.2215      0.16173035
       5995.8904     -0.10254764
       5996.5593     -0.11307916
       5997.2282    -0.082976506
       5997.8971      0.21854004
       5998.5660    -0.019381539
       5999.2349     0.030336788
       5999.9038    -0.016400640
       6000.5727     0.028500657
       6001.2416      0.46133994
       6001.9105      0.41651593
       6002.5794      0.39082303
       6003.2483    -0.088654251
       6003.9172      0.40407388
       6004.5861     -0.33903556
       6005.2550      0.53084014
       6005.9239      0.24816979
       6006.5928     -0.10760669
       6007.2617    -0.051247958
       6007.9306    -0.065864423
       6008.5995      0.11312183
       6009.2683      0.41048743
       6009.9372      0.14710062
       6010.6061     0.062468871
       6011.2750      0.11227157
       6011.9439      0.13737601
       6012.6128     0.047454316
       6013.2817      0.16323736
       6013.9506     0.096665667
       6014.6195     0.030410538
       6015.2884      0.18606789
       6015.9573     0.038695165
       6016.6262      0.13801349
       6017.2951      0.28541632
       6017.9640     0.050048400
       6018.6329     0.039612742
       6019.3018      0.11266936
