# wavelength flux
       1013.9758     0.052780652
       1014.3249     0.035137406
       1014.6740     0.097158150
       1015.0232     0.044740175
       1015.3723     0.097849808
       1015.7214      0.11238624
       1016.0706     0.046491232
       1016.4197     0.055598656
       1016.7688      0.12375259
       1017.1180     0.096028005
       1017.4671      0.13134024
       1017.8162      0.10172291
       1018.1654      0.10823249
       1018.5145      0.10417838
       1018.8637     0.012659510
       1019.2128      0.10762536
       1019.5619     0.085150353
       1019.9111      0.11302255
       1020.2602      0.16809986
       1020.6093      0.14066815
       1020.9585     0.069825036
       1021.3076     0.085088697
       1021.6567      0.11217994
       1022.0059      0.16932415
       1022.3550      0.14749819
       1022.7041     0.070890654
       1023.0533      0.17059133
       1023.4024      0.11500629
       1023.7515     0.090240866
       1024.1007     0.078078619
       1024.4498     0.098211445
       1024.7989     0.099902813
       1025.1481   -0.0059651368
       1025.4972     0.049756394
       1025.8463      0.14904243
       1026.1955     0.034869907
       1026.5446     0.038277282
       1026.8937      0.10436592
       1027.2429     0.047834953
       1027.5920     0.096600931
       1027.9411      0.12690117
       1028.2903      0.15263973
       1028.6394     0.076673097
       1028.9885     0.020992686
       1029.3377     0.080952987
       1029.6868      0.10789787
       1030.0359     0.027134500
       1030.3851     0.066116579
       1030.7342     0.081278280
       1031.0833     0.044391146
       1031.4325      0.11837982
       1031.7816     0.093083912
       1032.1307     0.038965370
       1032.4799     0.065354889
       1032.8290     0.063752101
       1033.1781     0.067167213
       1033.5273     0.012646343
       1033.8764     0.073819757
       1034.2255     0.088664021
       1034.5747     0.089579802
       1034.9238     0.074763633
       1035.2729      0.10683759
       1035.6221   -0.0023266747
       1035.9712     0.058135027
       1036.3203     0.046009892
       1036.6695    0.0067973583
       1037.0186      0.10843891
       1037.3677     0.082669186
       1037.7169     0.062184902
       1038.0660     0.085113530
       1038.4152     0.097155114
       1038.7643     0.085965962
       1039.1134     0.091415009
       1039.4626     0.058992643
       1039.8117     0.070887666
       1040.1608      0.15679725
       1040.5100     0.095471213
       1040.8591      0.10178000
       1041.2082     0.090211548
       1041.5574     0.087503648
       1041.9065      0.10298284
       1042.2556    -0.018874920
       1042.6048    -0.028165195
       1042.9539     0.044856108
       1043.3030     0.070742781
       1043.6522     0.064009900
       1044.0013     0.076879793
       1044.3504     0.043930025
       1044.6996    -0.015248261
       1045.0487     0.016346642
       1045.3978     0.074014793
       1045.7470    0.0050418686
       1046.0961     0.099923550
       1046.4452     0.092423721
       1046.7944    0.0054071315
       1047.1435     0.073486902
       1047.4926     0.059884423
       1047.8418     0.063146637
       1048.1909     0.063417936
       1048.5400      0.12452660
       1048.8892     0.060555705
       1049.2383     0.072769091
       1049.5874     0.026313042
       1049.9366     0.057059561
       1050.2857     0.061467378
       1050.6348     0.081561449
       1050.9840      0.11097852
       1051.3331     0.085123355
       1051.6822     0.058741786
       1052.0314      0.12749025
       1052.3805     0.063082449
       1052.7296     0.089049746
       1053.0788     0.069401878
       1053.4279     0.061545697
       1053.7770     0.011814936
       1054.1262     0.055353370
       1054.4753     0.014114248
       1054.8244     0.029677632
       1055.1736     0.083332973
       1055.5227     0.082893260
       1055.8718    0.0038844384
       1056.2210     0.073637412
       1056.5701     0.054637496
       1056.9193      0.10696976
       1057.2684     0.071099673
       1057.6175     0.037406830
       1057.9667     0.058834830
       1058.3158     0.021119342
       1058.6649      0.11031144
       1059.0141     0.041711818
       1059.3632     0.026312067
       1059.7123     0.093775406
       1060.0615    0.0045102278
       1060.4106      0.10026157
       1060.7597      0.12243110
       1061.1089     0.059003115
       1061.4580     0.059715769
       1061.8071     0.052660664
       1062.1563     0.018951299
       1062.5054   -0.0088112389
       1062.8545     0.039743883
       1063.2037     0.083869835
       1063.5528     0.036377035
       1063.9019     0.016589072
       1064.2511     0.070375240
       1064.6002    0.0080492349
       1064.9493     0.062395287
       1065.2985      0.10927293
       1065.6476      0.12199494
       1065.9967     0.031295384
       1066.3459     0.073312375
       1066.6950     0.098703449
       1067.0441     0.065268419
       1067.3933     0.040439671
       1067.7424     0.036214895
       1068.0915     0.060695811
       1068.4407     0.035076818
       1068.7898     0.093914863
       1069.1389     0.041824619
       1069.4881     0.087214172
       1069.8372     0.087520620
       1070.1863     0.088551392
       1070.5355     0.095706053
       1070.8846     0.055813404
       1071.2337      0.12559434
       1071.5829      0.13272781
       1071.9320      0.10722651
       1072.2811     0.094289348
       1072.6303      0.15749476
       1072.9794      0.13363577
       1073.3285      0.13363362
       1073.6777     0.083591053
       1074.0268     0.081321670
       1074.3759      0.15004500
       1074.7251     0.051301114
       1075.0742      0.14702106
       1075.4233     0.063951176
       1075.7725     0.062852469
       1076.1216     0.088015575
       1076.4708     0.063416610
       1076.8199     0.065334307
       1077.1690      0.13836901
       1077.5182      0.12554875
       1077.8673     0.053045520
       1078.2164     0.076761835
       1078.5656     0.084769313
       1078.9147     0.054594633
       1079.2638     0.086648012
       1079.6130     0.088069697
       1079.9621     0.072258237
       1080.3112     0.092941667
       1080.6604     0.016264214
       1081.0095     0.068946385
       1081.3586      0.14081665
       1081.7078     0.068468707
       1082.0569      0.10012459
       1082.4060     0.071927646
       1082.7552      0.16521934
       1083.1043      0.13226887
       1083.4534     0.058225152
       1083.8026     0.033317352
       1084.1517      0.10393919
       1084.5008     0.056131034
       1084.8500      0.13655898
       1085.1991     0.059612284
       1085.5482     0.036594557
       1085.8974     0.051248483
       1086.2465     0.016913458
       1086.5956    -0.011187293
       1086.9448     0.062400414
       1087.2939     0.070555130
       1087.6430     0.098078225
       1087.9922     0.011408413
       1088.3413     0.017679911
       1088.6904     0.050248023
       1089.0396     0.039455224
       1089.3887     0.016598082
       1089.7378     0.048553411
       1090.0870     0.070831209
       1090.4361     0.022120334
       1090.7852     0.049471319
       1091.1344     0.011393277
       1091.4835     0.048090105
       1091.8326    0.0015247587
       1092.1818    -0.018446553
       1092.5309    0.0036868331
       1092.8800     0.037488591
       1093.2292     0.023795542
       1093.5783    -0.010955869
       1093.9274     0.045003560
       1094.2766     0.059350641
       1094.6257    0.0096239843
       1094.9749    -0.011395340
       1095.3240    -0.018061727
       1095.6731     0.016269598
       1096.0223     0.047183876
       1096.3714     0.015052832
       1096.7205     0.035898944
       1097.0697     0.029959906
       1097.4188     0.018272427
       1097.7679   -0.0049096454
       1098.1171     0.029338030
       1098.4662     0.032695352
       1098.8153     0.056071000
       1099.1645   -0.0043080293
       1099.5136     0.013471200
       1099.8627     0.033541920
       1100.2119     0.052660929
       1100.5610     0.059844265
       1100.9101     0.051565335
       1101.2593     0.088849063
       1101.6084      0.10323050
       1101.9575     0.072608109
       1102.3067     0.022262139
       1102.6558     0.010861515
       1103.0049     0.085248103
       1103.3541     0.099766987
       1103.7032     0.021302336
       1104.0523     0.012384413
       1104.4015    -0.023251427
       1104.7506    -0.015391428
       1105.0997    -0.024755287
       1105.4489   -0.0087542216
       1105.7980    -0.011474493
       1106.1471    -0.012133162
       1106.4963     0.018872813
       1106.8454     0.032536953
       1107.1945     0.096562358
       1107.5437     0.076531491
       1107.8928     0.082052406
       1108.2419     0.047094769
       1108.5911     0.021564584
       1108.9402     0.067120261
       1109.2893     0.063023692
       1109.6385     0.089476645
       1109.9876     0.077796706
       1110.3367     0.035666124
       1110.6859     0.027157101
       1111.0350     0.035576226
       1111.3841     0.073290643
       1111.7333    0.0077830211
       1112.0824     0.013291239
       1112.4315     0.040957047
       1112.7807     0.026897381
       1113.1298     0.040337992
       1113.4789     0.036536677
       1113.8281     0.062253015
       1114.1772     0.047471820
       1114.5264     0.055475407
       1114.8755     0.033389593
       1115.2246     0.055687816
       1115.5738     0.087227541
       1115.9229     0.042423714
       1116.2720     0.087521219
       1116.6212     0.068839319
       1116.9703     0.055916679
       1117.3194     0.048056775
       1117.6686     0.024943021
       1118.0177     0.042227033
       1118.3668     0.075753565
       1118.7160     0.018017576
       1119.0651    0.0046747240
       1119.4142     0.012126580
       1119.7634    -0.022729895
       1120.1125    0.0099334912
       1120.4616   0.00027449261
       1120.8108    -0.012541128
       1121.1599     0.051135694
       1121.5090     0.026259405
       1121.8582     0.065115599
       1122.2073   0.00059161769
       1122.5564     0.042364404
       1122.9056     0.077813727
       1123.2547     0.068240000
       1123.6038     0.044347604
       1123.9530     0.093304048
       1124.3021     0.025686651
       1124.6512     0.022754802
       1125.0004     0.014887575
       1125.3495     0.039628552
       1125.6986      0.11178725
       1126.0478     0.077357266
       1126.3969     0.087806434
       1126.7460     0.074628784
       1127.0952     0.081978897
       1127.4443     0.027000746
       1127.7934     0.088267443
       1128.1426     0.078100611
       1128.4917     0.045357462
       1128.8408     0.040547953
       1129.1900     0.066327025
       1129.5391     0.069171015
       1129.8882     0.066124823
       1130.2374     0.039807577
       1130.5865     0.032331779
       1130.9356     0.038292548
       1131.2848     0.038590815
       1131.6339     0.030039668
       1131.9830     0.036593363
       1132.3322     0.075063793
       1132.6813     0.071097613
       1133.0305     0.063280919
       1133.3796     0.041762034
       1133.7287     0.068292374
       1134.0779     0.019169754
       1134.4270     0.061090379
       1134.7761     0.082086171
       1135.1253     0.076848222
       1135.4744     0.076527391
       1135.8235     0.050659507
       1136.1727     0.079306097
       1136.5218     0.082131596
       1136.8709     0.060554079
       1137.2201     0.093157283
       1137.5692     0.060996009
       1137.9183     0.065232113
       1138.2675     0.054236933
       1138.6166     0.021005967
       1138.9657     0.043481705
       1139.3149     0.043002135
       1139.6640     0.034862480
       1140.0131    -0.017047215
       1140.3623     0.059772375
       1140.7114     0.035505033
       1141.0605     0.033949492
       1141.4097     0.027992665
       1141.7588     0.010742691
       1142.1079     0.063400527
       1142.4571     0.055726659
       1142.8062     0.030403205
       1143.1553   -0.0055015216
       1143.5045     0.049980648
       1143.8536     0.020186976
       1144.2027     0.038957382
       1144.5519     0.049648523
       1144.9010     0.030588188
       1145.2501     0.048377542
       1145.5993     0.091794414
       1145.9484     0.056212334
       1146.2975     0.052197609
       1146.6467     0.052913848
       1146.9958     0.010441736
       1147.3449     0.099445608
       1147.6941     0.060164380
       1148.0432    0.0086671895
       1148.3923     0.053508069
       1148.7415     0.059075066
       1149.0906     0.045921290
       1149.4397     0.045478998
       1149.7889    0.0041735883
       1150.1380     0.021108493
       1150.4871     0.013203590
       1150.8363     0.030568927
       1151.1854     0.015212870
       1151.5345     0.032608137
       1151.8837     0.060493930
       1152.2328     0.088408225
       1152.5820     0.057492403
       1152.9311     0.059885053
       1153.2802     0.049976760
       1153.6294     0.086439935
       1153.9785     0.032672397
       1154.3276     0.044630801
       1154.6768     0.043305379
       1155.0259     0.020723800
       1155.3750     0.048226254
       1155.7242     0.028859657
       1156.0733     0.050717319
       1156.4224     0.021081485
       1156.7716     0.022320613
       1157.1207     0.026541726
       1157.4698     0.046694473
       1157.8190     0.053259993
       1158.1681     0.042260817
       1158.5172     0.094898811
       1158.8664     0.085880183
       1159.2155     0.079690329
       1159.5646      0.10058795
       1159.9138      0.12154431
       1160.2629     0.095730971
       1160.6120     0.096282837
       1160.9612     0.054298206
       1161.3103      0.10474579
       1161.6594     0.075133592
       1162.0086     0.076309674
       1162.3577     0.063328142
       1162.7068     0.092370657
       1163.0560     0.068918074
       1163.4051    0.0080434335
       1163.7542     0.039853754
       1164.1034     0.057583478
       1164.4525     0.041468073
       1164.8016     0.054070606
       1165.1508     0.092075357
       1165.4999     0.076315244
       1165.8490     0.087666597
       1166.1982     0.055929927
       1166.5473     0.044989852
       1166.8964     0.064294996
       1167.2456     0.089437398
       1167.5947     0.059382680
       1167.9438     0.088135394
       1168.2930     0.098662364
       1168.6421     0.078144152
       1168.9912     0.088857241
       1169.3404      0.13155633
       1169.6895      0.10041270
       1170.0386     0.025594147
       1170.3878     0.075005408
       1170.7369      0.13665683
       1171.0861      0.12202346
       1171.4352     0.087709240
       1171.7843     0.025323422
       1172.1335     0.071824312
       1172.4826     0.032385184
       1172.8317     0.061756457
       1173.1809      0.10245357
       1173.5300      0.12472483
       1173.8791     0.071341197
       1174.2283      0.10958790
       1174.5774     0.098378448
       1174.9265      0.11189241
       1175.2757     0.093454107
       1175.6248     0.040424311
       1175.9739     0.051295893
       1176.3231     0.025219318
       1176.6722     0.047837605
       1177.0213     0.094785808
       1177.3705      0.10888277
       1177.7196      0.10479862
       1178.0687     0.046932258
       1178.4179      0.11032637
       1178.7670      0.10047355
       1179.1161     0.044734117
       1179.4653     0.080824888
       1179.8144      0.10137745
       1180.1635     0.093602018
       1180.5127     0.047707457
       1180.8618     0.033226848
       1181.2109     0.072877633
       1181.5601     0.057836847
       1181.9092     0.071850215
       1182.2583     0.044763107
       1182.6075     0.062449857
       1182.9566      0.11719613
       1183.3057     0.093184974
       1183.6549     0.092294145
       1184.0040     0.093895463
       1184.3531      0.10400041
       1184.7023      0.13097556
       1185.0514     0.096296323
       1185.4005      0.13300201
       1185.7497      0.10299188
       1186.0988      0.11246930
       1186.4479      0.13892345
       1186.7971     0.096211031
       1187.1462      0.11270041
       1187.4953      0.14064732
       1187.8445      0.14608713
       1188.1936      0.14386648
       1188.5427      0.11912081
       1188.8919      0.13674536
       1189.2410      0.11280345
       1189.5901      0.14465841
       1189.9393      0.12111750
       1190.2884      0.13765624
       1190.6376      0.17645212
       1190.9867      0.16482147
       1191.3358      0.13569915
       1191.6850      0.12103393
       1192.0341      0.19404398
       1192.3832      0.16825668
       1192.7324      0.10618774
       1193.0815     0.084588193
       1193.4306     0.031521027
       1193.7798     0.023096509
       1194.1289     0.024466381
       1194.4780     0.053141453
       1194.8272     0.055422660
       1195.1763     0.084179516
       1195.5254     0.072946544
       1195.8746     0.096337173
       1196.2237     0.033990478
       1196.5728     0.042383800
       1196.9220     0.076039352
       1197.2711     0.065460381
       1197.6202      0.11464813
       1197.9694      0.10372849
       1198.3185      0.10235869
       1198.6676     0.087807759
       1199.0168      0.16591312
       1199.3659     0.099738200
       1199.7150     0.097055892
       1200.0642     0.082002269
       1200.4133     0.079863294
       1200.7624     0.076843395
       1201.1116     0.040110942
       1201.4607     0.068805353
       1201.8098      0.11167176
       1202.1590      0.15509680
       1202.5081      0.13231663
       1202.8572      0.19688129
       1203.2064      0.23028824
       1203.5555      0.20822877
       1203.9046      0.17768885
       1204.2538      0.19534822
       1204.6029      0.23604358
       1204.9520      0.21024443
       1205.3012      0.18342607
       1205.6503      0.24829987
       1205.9994      0.22241029
       1206.3486      0.21817895
       1206.6977      0.21113845
       1207.0468      0.24304969
       1207.3960      0.26240238
       1207.7451      0.29219563
       1208.0942      0.27938758
       1208.4434      0.30042410
       1208.7925      0.26853520
       1209.1417      0.24163005
       1209.4908      0.21747184
       1209.8399      0.15835758
       1210.1891      0.15733465
       1210.5382      0.16302270
       1210.8873      0.15779137
       1211.2365      0.19205158
       1211.5856      0.21035570
       1211.9347      0.20239037
       1212.2839      0.23129090
       1212.6330      0.30245873
       1212.9821      0.28225151
       1213.3313      0.26795141
       1213.6804      0.30399915
       1214.0295      0.31821399
       1214.3787      0.32075436
       1214.7278      0.28596547
       1215.0769      0.34653654
       1215.4261      0.37940346
       1215.7752      0.40535060
       1216.1243      0.44836324
       1216.4735      0.38577466
       1216.8226      0.35019892
       1217.1717      0.33954888
       1217.5209      0.35029168
       1217.8700      0.28446963
       1218.2191      0.29842388
       1218.5683      0.29531065
       1218.9174      0.30971714
       1219.2665      0.28418127
       1219.6157      0.27803458
       1219.9648      0.26487751
       1220.3139      0.25507876
       1220.6631      0.31470046
       1221.0122      0.28742130
       1221.3613      0.28411232
       1221.7105      0.27590434
       1222.0596      0.32005693
       1222.4087      0.27841875
       1222.7579      0.28604504
       1223.1070      0.28133946
       1223.4561      0.25724289
       1223.8053      0.26721088
       1224.1544      0.26326928
       1224.5035      0.23534835
       1224.8527      0.21159173
       1225.2018      0.22578259
       1225.5509      0.15838567
       1225.9001      0.24219904
       1226.2492      0.22978681
       1226.5983      0.17684054
       1226.9475      0.14110488
       1227.2966      0.13204037
       1227.6457     0.073299120
       1227.9949      0.12875786
       1228.3440      0.13476651
       1228.6932      0.14488446
       1229.0423      0.14926122
       1229.3914      0.20477967
       1229.7406      0.19581838
       1230.0897      0.23899368
       1230.4388      0.21484161
       1230.7880      0.21533919
       1231.1371      0.20533966
       1231.4862      0.22588038
       1231.8354      0.19550157
       1232.1845      0.21375312
       1232.5336      0.19140790
       1232.8828      0.24428490
       1233.2319      0.20404139
       1233.5810      0.23775202
       1233.9302      0.20772654
       1234.2793      0.22618908
       1234.6284      0.22287487
       1234.9776      0.22056746
       1235.3267      0.19556793
       1235.6758      0.20660868
       1236.0250      0.22788930
       1236.3741      0.22618983
       1236.7232      0.21600482
       1237.0724      0.18679743
       1237.4215      0.17552782
       1237.7706      0.23965568
       1238.1198      0.24354707
       1238.4689      0.21350126
       1238.8180      0.20296625
       1239.1672      0.21120361
       1239.5163      0.21210028
       1239.8654      0.24433382
       1240.2146      0.26178250
       1240.5637      0.21599068
       1240.9128      0.21138352
       1241.2620      0.23639724
       1241.6111      0.18677483
       1241.9602      0.21491729
       1242.3094      0.21699818
       1242.6585      0.17321277
       1243.0076      0.18793688
       1243.3568      0.18065571
       1243.7059      0.15296567
       1244.0550      0.21186378
       1244.4042      0.23702927
       1244.7533      0.17906646
       1245.1024      0.20217114
       1245.4516      0.20942459
       1245.8007      0.16512099
       1246.1498      0.16843766
       1246.4990      0.16310067
       1246.8481      0.17873857
       1247.1973      0.15774712
       1247.5464      0.15474247
       1247.8955      0.19152422
       1248.2447      0.17446094
       1248.5938      0.14518187
       1248.9429      0.15955507
       1249.2921      0.15441354
       1249.6412      0.18723695
       1249.9903      0.17690763
       1250.3395      0.17437101
       1250.6886      0.17764358
       1251.0377      0.19396239
       1251.3869      0.17786221
       1251.7360      0.19444037
       1252.0851      0.17470440
       1252.4343      0.15503308
       1252.7834      0.18883800
       1253.1325      0.16518471
       1253.4817      0.13969271
       1253.8308      0.17304323
       1254.1799      0.14881654
       1254.5291      0.16398979
       1254.8782      0.18032029
       1255.2273      0.13948972
       1255.5765      0.14809056
       1255.9256      0.16076606
       1256.2747      0.15587018
       1256.6239      0.10318015
       1256.9730      0.12895320
       1257.3221      0.15792964
       1257.6713      0.16291874
       1258.0204      0.13174356
       1258.3695      0.13734004
       1258.7187      0.15170596
       1259.0678      0.11056451
       1259.4169      0.10661718
       1259.7661      0.10928918
       1260.1152      0.10949574
       1260.4643      0.12925341
       1260.8135      0.11919477
       1261.1626      0.14713363
       1261.5117      0.14556215
       1261.8609      0.15920015
       1262.2100      0.14054837
       1262.5591      0.19724865
       1262.9083      0.15705796
       1263.2574      0.12334340
       1263.6065      0.11092070
       1263.9557      0.12830108
       1264.3048      0.10694360
       1264.6539      0.16032590
       1265.0031      0.14626289
       1265.3522      0.15629105
       1265.7013      0.16884080
       1266.0505      0.15130128
       1266.3996      0.15200964
       1266.7488      0.17802075
       1267.0979      0.14289163
       1267.4470      0.12983308
       1267.7962      0.14526177
       1268.1453      0.13892915
       1268.4944      0.12954904
       1268.8436      0.13568698
       1269.1927      0.14225774
       1269.5418      0.10922224
       1269.8910      0.11983759
       1270.2401      0.11598087
       1270.5892     0.087130768
       1270.9384      0.12996717
       1271.2875      0.11324700
       1271.6366      0.10339555
       1271.9858      0.11563767
       1272.3349      0.12521308
       1272.6840      0.17326957
       1273.0332      0.11188563
       1273.3823      0.12380683
       1273.7314      0.11748458
       1274.0806      0.11648370
       1274.4297      0.11461882
       1274.7788      0.10757861
       1275.1280     0.088593003
       1275.4771      0.12492324
       1275.8262      0.11692500
       1276.1754      0.10528352
       1276.5245      0.11512637
       1276.8736      0.14151707
       1277.2228      0.11769570
       1277.5719      0.16414220
       1277.9210      0.11407921
       1278.2702      0.13141877
       1278.6193      0.13013886
       1278.9684      0.14735204
       1279.3176      0.10667196
       1279.6667      0.12648062
       1280.0158      0.11871551
       1280.3650      0.12987578
       1280.7141      0.13814025
       1281.0632      0.13493938
       1281.4124      0.11010686
       1281.7615      0.11509848
       1282.1106     0.081589082
       1282.4598     0.094470464
       1282.8089     0.094448916
       1283.1580     0.096323946
       1283.5072     0.086060824
       1283.8563      0.10387398
       1284.2054     0.090616758
       1284.5546     0.058502480
       1284.9037      0.11666182
       1285.2529      0.13344967
       1285.6020      0.12001277
       1285.9511      0.10339111
       1286.3003      0.10025238
       1286.6494     0.087225589
       1286.9985      0.11487247
       1287.3477      0.12176416
       1287.6968     0.096363342
       1288.0459      0.13641163
       1288.3951      0.14185052
       1288.7442      0.10046143
       1289.0933      0.13049816
       1289.4425      0.15168431
       1289.7916      0.13800442
       1290.1407      0.10517667
       1290.4899      0.13361791
       1290.8390     0.083228845
       1291.1881     0.097759345
       1291.5373      0.11100046
       1291.8864      0.13875263
       1292.2355     0.097808508
       1292.5847      0.11451215
       1292.9338      0.10970774
       1293.2829      0.12230382
       1293.6321      0.12678717
       1293.9812      0.13247217
       1294.3303      0.12808314
       1294.6795      0.10156354
       1295.0286      0.12303140
       1295.3777      0.11419189
       1295.7269      0.10739953
       1296.0760      0.11087904
       1296.4251      0.10614886
       1296.7743      0.13153690
       1297.1234      0.11200225
       1297.4725      0.10469050
       1297.8217      0.10079493
       1298.1708      0.15927323
       1298.5199      0.13815022
       1298.8691      0.15863872
       1299.2182      0.10772942
       1299.5673      0.11498810
       1299.9165      0.12046412
       1300.2656      0.13387192
       1300.6147      0.15171283
       1300.9639      0.11997634
       1301.3130      0.12432834
       1301.6621      0.12743872
       1302.0113      0.12702849
       1302.3604      0.10447895
       1302.7095      0.15850301
       1303.0587      0.10709851
       1303.4078      0.13140424
       1303.7569      0.11762751
       1304.1061     0.097658008
       1304.4552      0.12327464
       1304.8044      0.11658138
       1305.1535      0.10756987
       1305.5026      0.15894812
       1305.8518      0.11402859
       1306.2009      0.15489066
       1306.5500     0.097608571
       1306.8992      0.12395547
       1307.2483      0.10004740
       1307.5974      0.13413238
       1307.9466      0.11724688
       1308.2957      0.16044994
       1308.6448      0.16417687
       1308.9940      0.13395700
       1309.3431      0.14317914
       1309.6922      0.17740103
       1310.0414      0.12557029
       1310.3905     0.086215529
       1310.7396      0.16977140
       1311.0888      0.16329824
       1311.4379      0.15677656
       1311.7870      0.12594988
       1312.1362     0.095422693
       1312.4853      0.14905565
       1312.8344      0.13205591
       1313.1836     0.074914584
       1313.5327      0.10562462
       1313.8818      0.10726337
       1314.2310      0.15813495
       1314.5801      0.13730908
       1314.9292      0.10904017
       1315.2784      0.14890144
       1315.6275      0.11504541
       1315.9766      0.10485810
       1316.3258      0.17526310
       1316.6749      0.15973527
       1317.0240      0.12826580
       1317.3732      0.15975633
       1317.7223      0.14829630
       1318.0714      0.11463169
       1318.4206      0.13265709
       1318.7697     0.096512021
       1319.1188      0.10994697
       1319.4680      0.16545003
       1319.8171      0.12150259
       1320.1662      0.12134457
       1320.5154     0.090903663
       1320.8645      0.14743524
       1321.2136      0.10447381
       1321.5628      0.15812526
       1321.9119      0.13134988
       1322.2610      0.10123870
       1322.6102      0.12127207
       1322.9593      0.13371107
       1323.3085      0.16571124
       1323.6576      0.13568602
       1324.0067      0.10208338
       1324.3559      0.12251454
       1324.7050      0.15212508
       1325.0541      0.15417457
       1325.4033      0.15181579
       1325.7524      0.13969636
       1326.1015      0.13320813
       1326.4507      0.14037403
       1326.7998      0.12722326
       1327.1489      0.13766376
       1327.4981      0.11766580
       1327.8472      0.12164499
       1328.1963      0.10678448
       1328.5455      0.12736196
       1328.8946     0.085685997
       1329.2437     0.053457931
       1329.5929      0.11241973
       1329.9420      0.11506327
       1330.2911     0.086382756
       1330.6403     0.095970612
       1330.9894      0.11754685
       1331.3385      0.12930222
       1331.6877      0.15889935
       1332.0368      0.12641102
       1332.3859      0.11209948
       1332.7351      0.12920944
       1333.0842      0.12122490
       1333.4333      0.12933122
       1333.7825     0.069062198
       1334.1316     0.082443073
       1334.4807     0.069584832
       1334.8299      0.16494422
       1335.1790     0.086010921
       1335.5281     0.098856266
       1335.8773     0.094636282
       1336.2264      0.12117395
       1336.5755     0.098027328
       1336.9247      0.13485937
       1337.2738      0.15843301
       1337.6229      0.14609437
       1337.9721      0.17928667
       1338.3212      0.16065140
       1338.6703      0.17117099
       1339.0195      0.13015613
       1339.3686      0.13944023
       1339.7177      0.15579304
       1340.0669      0.15082290
       1340.4160      0.14794746
       1340.7651      0.10274023
       1341.1143      0.15260783
       1341.4634      0.11536422
       1341.8125      0.12074603
       1342.1617      0.12695537
       1342.5108      0.14677779
       1342.8600      0.14453141
       1343.2091      0.10648887
       1343.5582      0.11510195
       1343.9074      0.16087845
       1344.2565      0.12003584
       1344.6056      0.12744072
       1344.9548      0.16952926
       1345.3039      0.12941034
       1345.6530      0.14578335
       1346.0022      0.13810026
       1346.3513      0.15892373
       1346.7004      0.12808329
       1347.0496      0.13709796
       1347.3987      0.12596658
       1347.7478      0.12752011
       1348.0970     0.084871577
       1348.4461      0.10024814
       1348.7952      0.13781752
       1349.1444      0.17579875
       1349.4935      0.15825610
       1349.8426      0.12992551
       1350.1918      0.10361259
       1350.5409      0.15643710
       1350.8900      0.13354189
       1351.2392      0.19244023
       1351.5883      0.13417917
       1351.9374      0.13598901
       1352.2866      0.11030809
       1352.6357     0.099814475
       1352.9848      0.14215675
       1353.3340      0.13369178
       1353.6831      0.15281949
       1354.0322      0.17610775
       1354.3814      0.13006757
       1354.7305      0.13901556
       1355.0796      0.19025160
       1355.4288      0.14437875
       1355.7779     0.097587710
       1356.1270      0.14850763
       1356.4762      0.12031830
       1356.8253      0.13893656
       1357.1744      0.15977921
       1357.5236      0.11918118
       1357.8727      0.15133589
       1358.2218      0.15764842
       1358.5710      0.10411192
       1358.9201      0.14105692
       1359.2692      0.13824496
       1359.6184      0.14271486
       1359.9675      0.13201129
       1360.3166      0.17474179
       1360.6658      0.16991676
       1361.0149      0.18658198
       1361.3641      0.15611592
       1361.7132      0.18633170
       1362.0623      0.16065505
       1362.4115      0.12708707
       1362.7606      0.13706126
       1363.1097      0.15441391
       1363.4589      0.11584335
       1363.8080      0.13924748
       1364.1571      0.16826033
       1364.5063      0.14075778
       1364.8554      0.10710823
       1365.2045      0.16582820
       1365.5537      0.11451056
       1365.9028      0.18205957
       1366.2519      0.15403301
       1366.6011      0.15265845
       1366.9502      0.13602813
       1367.2993      0.13422690
       1367.6485      0.12167144
       1367.9976      0.17568504
       1368.3467      0.11968083
       1368.6959      0.17533938
       1369.0450      0.13741795
       1369.3941      0.11466012
       1369.7433      0.15456298
       1370.0924      0.14933729
       1370.4415      0.13184048
       1370.7907      0.13111329
       1371.1398     0.094499222
       1371.4889      0.12509672
       1371.8381      0.15043615
       1372.1872      0.15427892
       1372.5363      0.13314274
       1372.8855      0.10306673
       1373.2346      0.17812010
       1373.5837      0.13763179
       1373.9329      0.12937551
       1374.2820      0.12457109
       1374.6311      0.15681029
       1374.9803      0.14707558
       1375.3294      0.13753783
       1375.6785      0.15778612
       1376.0277      0.16666812
       1376.3768      0.13973138
       1376.7259      0.14369100
       1377.0751      0.14001277
       1377.4242      0.15256428
       1377.7733      0.12826305
       1378.1225      0.12616096
       1378.4716     0.075384188
       1378.8207      0.16577204
       1379.1699      0.14459123
       1379.5190      0.13824242
       1379.8681      0.10672554
       1380.2173      0.14795747
       1380.5664      0.18396234
       1380.9156      0.17113381
       1381.2647      0.14276582
       1381.6138      0.17747202
       1381.9630     0.073451642
       1382.3121      0.12974475
       1382.6612      0.18276130
       1383.0104      0.14113090
       1383.3595      0.16204493
       1383.7086      0.15820472
       1384.0578      0.16595053
       1384.4069      0.15575100
       1384.7560      0.15127926
       1385.1052      0.17963176
       1385.4543      0.16650028
       1385.8034      0.15086779
       1386.1526      0.18857396
       1386.5017      0.13274443
       1386.8508      0.16610922
       1387.2000      0.12290255
       1387.5491      0.16168886
       1387.8982      0.19125179
       1388.2474      0.14330280
       1388.5965      0.16873357
       1388.9456      0.16443001
       1389.2948      0.12259147
       1389.6439      0.17392256
       1389.9930      0.19533174
       1390.3422      0.14757852
       1390.6913      0.18842701
       1391.0404      0.23155706
       1391.3896      0.16650005
       1391.7387      0.19696912
       1392.0878      0.17596390
       1392.4370      0.17998499
       1392.7861      0.18531522
       1393.1352      0.19263567
       1393.4844      0.15614771
       1393.8335      0.22308106
       1394.1826      0.19120654
       1394.5318      0.17351718
       1394.8809      0.18884561
       1395.2300      0.20699321
       1395.5792      0.15139197
       1395.9283      0.14572352
       1396.2774      0.16644776
       1396.6266      0.16981778
       1396.9757      0.22873345
       1397.3248      0.19259264
       1397.6740      0.18160162
       1398.0231      0.17003575
       1398.3722      0.12625598
       1398.7214      0.14135401
       1399.0705      0.17212774
       1399.4197      0.15890761
       1399.7688      0.17412832
       1400.1179      0.14946766
       1400.4671      0.15780319
       1400.8162      0.15916114
       1401.1653      0.13020870
       1401.5145      0.19070980
       1401.8636      0.18966024
       1402.2127      0.16207422
       1402.5619      0.14307291
       1402.9110      0.17448354
       1403.2601      0.17921635
       1403.6093      0.11698846
       1403.9584      0.13637076
       1404.3075      0.13928254
       1404.6567      0.12151305
       1405.0058      0.11910520
       1405.3549      0.16892327
       1405.7041      0.12066117
       1406.0532      0.12955415
       1406.4023      0.15949165
       1406.7515      0.17441991
       1407.1006      0.17274857
       1407.4497      0.19610783
       1407.7989      0.19035904
       1408.1480      0.17222137
       1408.4971      0.20692732
       1408.8463      0.20564199
       1409.1954      0.19504524
       1409.5445      0.14869939
       1409.8937      0.17736129
       1410.2428      0.16244416
       1410.5919      0.19268199
       1410.9411      0.19308511
       1411.2902      0.20718981
       1411.6393      0.19130743
       1411.9885      0.18532860
       1412.3376      0.16174152
       1412.6867      0.16363507
       1413.0359      0.20034607
       1413.3850      0.14947109
       1413.7341      0.16750514
       1414.0833      0.20760042
       1414.4324      0.13723256
       1414.7815      0.19615805
       1415.1307      0.13324506
       1415.4798      0.17753451
       1415.8289      0.14943937
       1416.1781      0.17224965
       1416.5272      0.19513487
       1416.8763      0.17886718
       1417.2255      0.15855766
       1417.5746      0.14468935
       1417.9237      0.14389524
       1418.2729      0.14136727
       1418.6220      0.12730463
       1418.9712      0.16253488
       1419.3203      0.18046696
       1419.6694      0.19294971
       1420.0186      0.22227634
       1420.3677      0.10491003
       1420.7168      0.19325521
       1421.0660      0.12264367
       1421.4151      0.17029140
       1421.7642      0.17257542
       1422.1134      0.10205872
       1422.4625      0.16274757
       1422.8116      0.10125321
       1423.1608      0.13223618
       1423.5099     0.087099023
       1423.8590     0.068056405
       1424.2082     0.031651182
       1424.5573     0.087121442
       1424.9064     0.070406371
       1425.2556     0.060790186
       1425.6047      0.10630420
       1425.9538     0.081722523
       1426.3030     0.071744511
       1426.6521     0.030948805
       1427.0012      0.13924676
       1427.3504      0.10589006
       1427.6995      0.14153680
       1428.0486      0.13136813
       1428.3978      0.15817973
       1428.7469      0.17714504
       1429.0960      0.14554021
       1429.4452      0.14619767
       1429.7943      0.17828123
       1430.1434      0.17156209
       1430.4926      0.12473274
       1430.8417      0.12759431
       1431.1908     0.074396506
       1431.5400      0.15095157
       1431.8891      0.17831532
       1432.2382      0.12656211
       1432.5874      0.17078769
       1432.9365      0.15849277
       1433.2856      0.10405622
       1433.6348      0.16086836
       1433.9839      0.13412730
       1434.3330      0.21190787
       1434.6822      0.14444931
       1435.0313      0.13323831
       1435.3804      0.15176321
       1435.7296     0.098670525
       1436.0787      0.17293837
       1436.4278      0.11036283
       1436.7770      0.15906472
       1437.1261      0.16021455
       1437.4753     0.086468674
       1437.8244      0.10309460
       1438.1735      0.18256630
       1438.5227      0.14286662
       1438.8718      0.10691088
       1439.2209      0.17498302
       1439.5701      0.14939262
       1439.9192      0.16088074
       1440.2683      0.17332936
       1440.6175      0.15374169
       1440.9666      0.13872222
       1441.3157      0.17721163
       1441.6649      0.12679269
       1442.0140      0.17541334
       1442.3631      0.16497876
       1442.7123      0.18709010
       1443.0614      0.19317968
       1443.4105      0.13882371
       1443.7597      0.15292319
       1444.1088      0.14343775
       1444.4579      0.12160393
       1444.8071      0.15666940
       1445.1562      0.15339504
       1445.5053      0.15199908
       1445.8545      0.16162772
       1446.2036      0.20219358
       1446.5527      0.13379738
       1446.9019      0.15068041
       1447.2510     0.088502109
       1447.6001      0.12637282
       1447.9493      0.14932562
       1448.2984      0.10978342
       1448.6475     0.083999767
       1448.9967      0.16173839
       1449.3458      0.17665134
       1449.6949      0.15233503
       1450.0441      0.13071233
       1450.3932      0.16566153
       1450.7423     0.084925975
       1451.0915      0.12457158
       1451.4406      0.14800131
       1451.7897      0.16659840
       1452.1389      0.14505371
       1452.4880      0.13478334
       1452.8371      0.14195688
       1453.1863      0.13964507
       1453.5354      0.11691612
       1453.8845      0.10819410
       1454.2337      0.13667989
       1454.5828      0.10197543
       1454.9319      0.15173432
       1455.2811      0.17179081
       1455.6302      0.15290555
       1455.9793      0.16021222
       1456.3285      0.15836719
       1456.6776      0.15429829
       1457.0268      0.10215634
       1457.3759      0.13090890
       1457.7250      0.11348046
       1458.0742      0.13645665
       1458.4233      0.10468296
       1458.7724      0.10357526
       1459.1216      0.17086336
       1459.4707      0.12064820
       1459.8198      0.19306073
       1460.1690      0.15444460
       1460.5181      0.13160571
       1460.8672      0.10570879
       1461.2164      0.13128579
       1461.5655      0.17534407
       1461.9146      0.11381298
       1462.2638      0.12042816
       1462.6129     0.068794359
       1462.9620      0.17024956
       1463.3112     0.097830949
       1463.6603      0.13636780
       1464.0094     0.071870032
       1464.3586      0.15069114
       1464.7077      0.16070603
       1465.0568      0.14293505
       1465.4060      0.13701139
       1465.7551      0.16523567
       1466.1042      0.14080535
       1466.4534      0.13230508
       1466.8025      0.14976512
       1467.1516      0.18711327
       1467.5008      0.11030102
       1467.8499     0.080737629
       1468.1990      0.10567449
       1468.5482      0.14334316
       1468.8973      0.11664820
       1469.2464      0.11613600
       1469.5956      0.17056004
       1469.9447      0.16726254
       1470.2938      0.11363853
       1470.6430      0.16645246
       1470.9921      0.20106413
       1471.3412      0.13897425
       1471.6904      0.15851094
       1472.0395      0.10381112
       1472.3886      0.16742225
       1472.7378      0.18305135
       1473.0869      0.11773625
       1473.4360     0.090964248
       1473.7852      0.17439467
       1474.1343      0.20124686
       1474.4834      0.15145758
       1474.8326      0.12112506
       1475.1817      0.11529285
       1475.5309      0.15938955
       1475.8800      0.17136735
       1476.2291      0.14598691
       1476.5783      0.14535298
       1476.9274      0.12990353
       1477.2765      0.14092738
       1477.6257      0.14445508
       1477.9748      0.11958319
       1478.3239      0.15738663
       1478.6731      0.15942784
       1479.0222      0.14149260
       1479.3713      0.13433968
       1479.7205      0.21086183
       1480.0696      0.20217005
       1480.4187      0.18048197
       1480.7679      0.19567269
       1481.1170      0.19532085
       1481.4661      0.15858358
       1481.8153      0.14239250
       1482.1644      0.11907411
       1482.5135      0.20138303
       1482.8627      0.22828418
       1483.2118      0.16679881
       1483.5609      0.12372826
       1483.9101      0.19216819
       1484.2592      0.17498468
       1484.6083      0.14516181
       1484.9575      0.18193175
       1485.3066      0.16726669
       1485.6557      0.18298050
       1486.0049      0.17278981
       1486.3540      0.15683773
       1486.7031      0.21615882
       1487.0523     0.094141099
       1487.4014      0.21111441
       1487.7505      0.16696224
       1488.0997      0.16565203
       1488.4488      0.15751404
       1488.7979      0.17614947
       1489.1471      0.21432708
       1489.4962      0.16481630
       1489.8453      0.14590422
       1490.1945      0.16267269
       1490.5436      0.16394223
       1490.8927      0.18960984
       1491.2419      0.14787045
       1491.5910      0.13438862
       1491.9401      0.15475503
       1492.2893      0.16889158
       1492.6384      0.19727519
       1492.9875      0.17539205
       1493.3367      0.15296550
       1493.6858      0.14276377
       1494.0349      0.19935474
       1494.3841      0.18591542
       1494.7332      0.14824387
       1495.0824      0.19792325
       1495.4315      0.14781731
       1495.7806      0.17365343
       1496.1298      0.19453436
       1496.4789      0.17381229
       1496.8280      0.16837415
       1497.1772      0.18879960
       1497.5263      0.18194807
       1497.8754      0.19876176
       1498.2246      0.20349036
       1498.5737      0.13432637
       1498.9228      0.14760025
       1499.2720      0.17120917
       1499.6211      0.16450849
       1499.9702      0.16229448
       1500.3194      0.14643680
       1500.6685      0.11887082
       1501.0176      0.16199504
       1501.3668      0.22049411
       1501.7159      0.18278692
       1502.0650      0.16537106
       1502.4142      0.13803482
       1502.7633      0.17941595
       1503.1124      0.16968401
       1503.4616      0.17125126
       1503.8107      0.12277392
       1504.1598      0.13547795
       1504.5090      0.21369856
       1504.8581      0.16772753
       1505.2072      0.19382888
       1505.5564      0.17277285
       1505.9055      0.21295995
       1506.2546      0.20034939
       1506.6038      0.15331406
       1506.9529      0.17921746
       1507.3020     0.057931088
       1507.6512      0.15855442
       1508.0003      0.10751203
       1508.3494      0.17149463
       1508.6986      0.21596627
       1509.0477      0.20508829
       1509.3968      0.17077668
       1509.7460      0.21036783
       1510.0951      0.20889659
       1510.4442      0.16498953
       1510.7934      0.17750900
       1511.1425      0.19098118
       1511.4916      0.19517705
       1511.8408      0.23740221
       1512.1899      0.22377141
       1512.5390      0.16771346
       1512.8882      0.20272128
       1513.2373      0.14839144
       1513.5865      0.21556623
       1513.9356      0.21464492
       1514.2847      0.25336272
       1514.6339      0.20445554
       1514.9830      0.21123220
       1515.3321      0.18844884
       1515.6813      0.19261105
       1516.0304      0.21507234
       1516.3795      0.19040387
       1516.7287      0.23780099
       1517.0778      0.16251376
       1517.4269      0.18483549
       1517.7761      0.21246881
       1518.1252      0.18988191
       1518.4743      0.17489243
       1518.8235      0.19497474
       1519.1726      0.20115065
       1519.5217      0.17915556
       1519.8709      0.16838270
       1520.2200      0.22560196
       1520.5691      0.20474036
       1520.9183      0.20275583
       1521.2674      0.24162807
       1521.6165      0.19916518
       1521.9657      0.20969610
       1522.3148      0.19114225
       1522.6639      0.16856689
       1523.0131      0.20090815
       1523.3622      0.19246442
       1523.7113      0.22144534
       1524.0605      0.16059156
       1524.4096      0.19468028
       1524.7587      0.17656851
       1525.1079      0.22563758
       1525.4570      0.20353791
       1525.8061      0.21319742
       1526.1553      0.24481866
       1526.5044      0.15627434
       1526.8535      0.16505960
       1527.2027      0.18487202
       1527.5518      0.22251159
       1527.9009      0.17322252
       1528.2501      0.23119886
       1528.5992      0.16567133
       1528.9483      0.17235591
       1529.2975      0.22665921
       1529.6466      0.24977970
       1529.9957      0.17350314
       1530.3449      0.20918116
       1530.6940      0.26074286
       1531.0431      0.23888258
       1531.3923      0.22939986
       1531.7414      0.28668846
       1532.0905      0.30356789
       1532.4397      0.28075016
       1532.7888      0.28375292
       1533.1380      0.28751236
       1533.4871      0.28547881
       1533.8362      0.23568731
       1534.1854      0.25082402
       1534.5345      0.19877222
       1534.8836      0.22417557
       1535.2328      0.24545633
       1535.5819      0.27508212
       1535.9310      0.26929576
       1536.2802      0.31304956
       1536.6293      0.32422236
       1536.9784      0.36795805
       1537.3276      0.38428584
       1537.6767      0.34039207
       1538.0258      0.29561489
       1538.3750      0.29152141
       1538.7241      0.36151661
       1539.0732      0.32639068
       1539.4224      0.36901881
       1539.7715      0.35085810
       1540.1206      0.35656777
       1540.4698      0.39378112
       1540.8189      0.38362332
       1541.1680      0.37461228
       1541.5172      0.38496094
       1541.8663      0.32676898
       1542.2154      0.40158763
       1542.5646      0.41334437
       1542.9137      0.44884760
       1543.2628      0.42197887
       1543.6120      0.39546905
       1543.9611      0.43880951
       1544.3102      0.38194326
       1544.6594      0.44713610
       1545.0085      0.45072713
       1545.3576      0.40727116
       1545.7068      0.44082655
       1546.0559      0.48125975
       1546.4050      0.38063053
       1546.7542      0.42541189
       1547.1033      0.45145055
       1547.4524      0.40687021
       1547.8016      0.40824485
       1548.1507      0.40995837
       1548.4998      0.42501429
       1548.8490      0.44001839
       1549.1981      0.35923395
       1549.5472      0.44487515
       1549.8964      0.43002487
       1550.2455      0.46752379
       1550.5946      0.42009213
       1550.9438      0.47308277
       1551.2929      0.43899894
       1551.6421      0.35874129
       1551.9912      0.37373310
       1552.3403      0.39641192
       1552.6895      0.35983708
       1553.0386      0.37457831
       1553.3877      0.44629069
       1553.7369      0.41213384
       1554.0860      0.39002352
       1554.4351      0.38834040
       1554.7843      0.36618036
       1555.1334      0.35071874
       1555.4825      0.35358306
       1555.8317      0.35146568
       1556.1808      0.36459448
       1556.5299      0.36917685
       1556.8791      0.38406603
       1557.2282      0.36439946
       1557.5773      0.35354402
       1557.9265      0.37025413
       1558.2756      0.32931043
       1558.6247      0.30186720
       1558.9739      0.34416238
       1559.3230      0.32120108
       1559.6721      0.29580862
       1560.0213      0.31904387
       1560.3704      0.31279698
       1560.7195      0.29082140
       1561.0687      0.27662356
       1561.4178      0.29023333
       1561.7669      0.29208223
       1562.1161      0.28789545
       1562.4652      0.27794865
       1562.8143      0.28567084
       1563.1635      0.27267793
       1563.5126      0.30592762
       1563.8617      0.26886336
       1564.2109      0.32429323
       1564.5600      0.29131275
       1564.9091      0.28959960
       1565.2583      0.27094565
       1565.6074      0.23646045
       1565.9565      0.25169652
       1566.3057      0.26798278
       1566.6548      0.29630045
       1567.0039      0.24289634
       1567.3531      0.30614118
       1567.7022      0.29917145
       1568.0513      0.28277111
       1568.4005      0.31136663
       1568.7496      0.28428586
       1569.0987      0.32866908
       1569.4479      0.23621525
       1569.7970      0.34108655
       1570.1461      0.28870229
       1570.4953      0.28994755
       1570.8444      0.32988048
       1571.1936      0.33442984
       1571.5427      0.27723294
       1571.8918      0.23642481
       1572.2410      0.28970324
       1572.5901      0.29792335
       1572.9392      0.27385416
       1573.2884      0.28132928
       1573.6375      0.24147691
       1573.9866      0.24999037
       1574.3358      0.21717730
       1574.6849      0.25496784
       1575.0340      0.18524366
       1575.3832      0.26848798
       1575.7323      0.28238181
       1576.0814      0.24263103
       1576.4306      0.26646224
       1576.7797      0.25476400
       1577.1288      0.24595871
       1577.4780      0.29784780
       1577.8271      0.26331849
       1578.1762      0.29431976
       1578.5254      0.21857172
       1578.8745      0.22571205
       1579.2236      0.19623258
       1579.5728      0.22969659
       1579.9219      0.23746205
       1580.2710      0.22390706
       1580.6202      0.19546247
       1580.9693      0.24390358
       1581.3184      0.15297577
       1581.6676      0.24082192
       1582.0167      0.25392618
       1582.3658      0.23455208
       1582.7150      0.24012788
       1583.0641      0.15216792
       1583.4132      0.23403169
       1583.7624      0.26732497
       1584.1115      0.29452540
       1584.4606      0.23757038
       1584.8098      0.21564642
       1585.1589      0.24150943
       1585.5080      0.21937975
       1585.8572      0.22937267
       1586.2063      0.21201713
       1586.5554      0.23390620
       1586.9046      0.20623009
       1587.2537      0.18688578
       1587.6028      0.24955066
       1587.9520      0.22522695
       1588.3011      0.23263075
       1588.6502      0.28386068
       1588.9994      0.27529288
       1589.3485      0.18819074
       1589.6977      0.21284597
       1590.0468      0.19289165
       1590.3959      0.21411332
       1590.7451      0.20507629
       1591.0942      0.19328922
       1591.4433      0.18030395
       1591.7925      0.22475774
       1592.1416      0.17209457
       1592.4907      0.20103456
       1592.8399      0.16674301
       1593.1890      0.12488448
       1593.5381      0.19943771
       1593.8873      0.16976196
       1594.2364      0.14115923
       1594.5855      0.17861492
       1594.9347      0.19218826
       1595.2838      0.15171402
       1595.6329      0.19948312
       1595.9821      0.18949751
       1596.3312      0.21901983
       1596.6803      0.20831992
       1597.0295      0.16425556
       1597.3786      0.12116508
       1597.7277      0.17845946
       1598.0769      0.18046211
       1598.4260      0.20705959
       1598.7751      0.24361587
       1599.1243      0.21117308
       1599.4734      0.17063707
       1599.8225      0.20031962
       1600.1717      0.15542841
       1600.5208      0.14100505
       1600.8699      0.19603972
       1601.2191      0.23408712
       1601.5682      0.12274337
       1601.9173      0.11681495
       1602.2665      0.15726232
       1602.6156      0.20191177
       1602.9647      0.17973864
       1603.3139      0.21289670
       1603.6630      0.24759603
       1604.0121      0.22705378
       1604.3613      0.27923422
       1604.7104      0.17198304
       1605.0595      0.14597675
       1605.4087      0.16293797
       1605.7578      0.15166242
       1606.1069      0.18360828
       1606.4561      0.17221760
       1606.8052      0.25142423
       1607.1543      0.20022337
       1607.5035      0.16872737
       1607.8526      0.20506862
       1608.2017      0.17993966
       1608.5509      0.17298175
       1608.9000      0.18971057
       1609.2492      0.19066204
       1609.5983      0.14464407
       1609.9474      0.13850829
       1610.2966      0.20971270
       1610.6457      0.14208806
       1610.9948      0.12753197
       1611.3440      0.11870608
       1611.6931      0.20887730
       1612.0422      0.17789454
       1612.3914      0.13640868
       1612.7405      0.21609450
       1613.0896      0.15733672
       1613.4388      0.17092266
       1613.7879      0.18995764
       1614.1370      0.21137303
       1614.4862      0.19343273
       1614.8353      0.19242600
       1615.1844      0.16157184
       1615.5336      0.20677542
       1615.8827      0.23042400
       1616.2318      0.21451899
       1616.5810      0.25728293
       1616.9301      0.16475147
       1617.2792      0.18985292
       1617.6284      0.18595176
       1617.9775      0.16112882
       1618.3266      0.14896071
       1618.6758      0.16971264
       1619.0249      0.15911964
       1619.3740      0.21088771
       1619.7232      0.19028152
       1620.0723      0.18746987
       1620.4214      0.18869912
       1620.7706      0.19634636
       1621.1197      0.20167620
       1621.4688      0.15854493
       1621.8180      0.16178338
       1622.1671      0.16326241
       1622.5162      0.13374463
       1622.8654      0.21573102
       1623.2145      0.19482495
       1623.5636      0.21174477
       1623.9128      0.17733570
       1624.2619      0.15243661
       1624.6110      0.16355215
       1624.9602      0.17081417
       1625.3093      0.18588653
       1625.6584      0.16876818
       1626.0076      0.15110583
       1626.3567      0.18399254
       1626.7058      0.14864622
       1627.0550      0.21484764
       1627.4041      0.19981435
       1627.7533      0.15043843
       1628.1024      0.22525138
       1628.4515      0.18639855
       1628.8007      0.19049239
       1629.1498      0.18241011
       1629.4989      0.22984719
       1629.8481      0.25649237
       1630.1972      0.22117656
       1630.5463      0.19111360
       1630.8955      0.19113718
       1631.2446      0.20375792
       1631.5937      0.20847079
       1631.9429      0.29012904
       1632.2920      0.17129330
       1632.6411      0.22880945
       1632.9903      0.23590176
       1633.3394      0.18933820
       1633.6885      0.18458370
       1634.0377      0.21157386
       1634.3868      0.13365840
       1634.7359      0.20102660
       1635.0851      0.24097266
       1635.4342      0.24050089
       1635.7833      0.20892016
       1636.1325      0.15605253
       1636.4816      0.24549046
       1636.8307      0.19851740
       1637.1799      0.23693989
       1637.5290      0.23027342
       1637.8781      0.19415953
       1638.2273      0.18420585
       1638.5764      0.21564675
       1638.9255      0.18593601
       1639.2747      0.28996877
       1639.6238      0.23830015
       1639.9729      0.23738446
       1640.3221      0.22287126
       1640.6712      0.22000038
       1641.0203      0.23401847
       1641.3695      0.17049658
       1641.7186      0.14752755
       1642.0677      0.20966625
       1642.4169      0.18815532
       1642.7660      0.18930113
       1643.1151      0.19447908
       1643.4643      0.18581180
       1643.8134      0.15956299
       1644.1625      0.23039342
       1644.5117      0.21486929
       1644.8608      0.15806334
       1645.2099      0.18260334
       1645.5591      0.25119201
       1645.9082      0.21408552
       1646.2573      0.20671569
       1646.6065      0.21263400
       1646.9556      0.21018675
       1647.3048      0.26295317
       1647.6539      0.22262207
       1648.0030      0.17236948
       1648.3522      0.14940912
       1648.7013      0.20721562
       1649.0504      0.19368471
       1649.3996      0.21758935
       1649.7487      0.18647520
       1650.0978      0.14235326
       1650.4470      0.17137522
       1650.7961      0.13351010
       1651.1452      0.17940278
       1651.4944      0.20593744
       1651.8435      0.20983320
       1652.1926      0.19308887
       1652.5418      0.22404869
       1652.8909      0.19251506
       1653.2400      0.21716426
       1653.5892      0.15739348
       1653.9383      0.23803159
       1654.2874      0.21957253
       1654.6366      0.18699993
       1654.9857      0.20326905
       1655.3348      0.12304124
       1655.6840      0.21421338
       1656.0331      0.23098767
       1656.3822      0.25994454
       1656.7314      0.16919801
       1657.0805      0.16655410
       1657.4296      0.15691833
       1657.7788      0.19232325
       1658.1279      0.17629188
       1658.4770      0.17045168
       1658.8262      0.11552118
       1659.1753      0.18972964
       1659.5244      0.16939654
       1659.8736      0.17219197
       1660.2227      0.19828800
       1660.5718      0.21321674
       1660.9210      0.17282918
       1661.2701      0.17045823
       1661.6192      0.17805297
       1661.9684      0.15782409
       1662.3175      0.18591975
       1662.6666      0.17805826
       1663.0158      0.21356094
       1663.3649      0.17151315
       1663.7140      0.20059851
       1664.0632      0.22655180
       1664.4123      0.21526313
       1664.7614      0.21035345
       1665.1106      0.19049215
       1665.4597      0.19028632
       1665.8089      0.14618328
       1666.1580      0.25367072
       1666.5071      0.16075847
       1666.8563      0.14452101
       1667.2054      0.16576239
       1667.5545      0.19994660
       1667.9037      0.17600423
       1668.2528      0.14314721
       1668.6019      0.19251409
       1668.9511      0.24281366
       1669.3002      0.22299300
       1669.6493      0.21526033
       1669.9985      0.15976707
       1670.3476      0.14948515
       1670.6967      0.21542944
       1671.0459     0.088458681
       1671.3950      0.10275769
       1671.7441     0.055728733
       1672.0933     0.089217973
       1672.4424     0.086147424
       1672.7915     0.064181195
       1673.1407     0.056535337
       1673.4898     0.080725438
       1673.8389      0.15789573
       1674.1881      0.15268179
       1674.5372      0.16089399
       1674.8863      0.26823459
       1675.2355      0.21637651
       1675.5846      0.15090890
       1675.9337      0.15365136
       1676.2829      0.14865650
       1676.6320      0.18619677
       1676.9811      0.13396285
       1677.3303      0.13704176
       1677.6794      0.19901524
       1678.0285      0.14913300
       1678.3777      0.20036465
       1678.7268      0.12577581
       1679.0759      0.15749772
       1679.4251     0.063070034
       1679.7742      0.16384971
       1680.1233      0.19207246
       1680.4725      0.17267382
       1680.8216      0.14157578
       1681.1707      0.20474903
       1681.5199      0.13953458
       1681.8690      0.11180290
       1682.2181      0.10863697
       1682.5673      0.17338997
       1682.9164      0.16301173
       1683.2655      0.11731256
       1683.6147      0.18117182
       1683.9638      0.19803523
       1684.3129      0.19473121
       1684.6621      0.17201891
       1685.0112      0.16855831
       1685.3604      0.18120583
       1685.7095      0.13840555
       1686.0586      0.16849628
       1686.4078      0.18677267
       1686.7569      0.19447199
       1687.1060      0.18272539
       1687.4552      0.10995997
       1687.8043      0.18045274
       1688.1534      0.12318204
       1688.5026      0.14962172
       1688.8517      0.19557712
       1689.2008      0.20671872
       1689.5500      0.18808427
       1689.8991     0.097753732
       1690.2482      0.13889154
       1690.5974      0.11438254
       1690.9465      0.18751190
       1691.2956      0.19962182
       1691.6448      0.14746422
       1691.9939      0.17062531
       1692.3430      0.12584937
       1692.6922      0.12529570
       1693.0413     0.079268165
       1693.3904     0.092784411
       1693.7396     0.052581252
       1694.0887     0.081675139
       1694.4378      0.13015366
       1694.7870      0.12363427
       1695.1361      0.18085989
       1695.4852      0.13291830
       1695.8344      0.15595084
       1696.1835      0.15103890
       1696.5326      0.17921141
       1696.8818      0.14407873
       1697.2309      0.15250144
       1697.5800      0.15267186
       1697.9292     0.064261054
       1698.2783     0.073558080
       1698.6274     0.015883172
       1698.9766     0.059500225
       1699.3257     0.043686389
       1699.6748     0.059780360
       1700.0240     0.090916662
       1700.3731      0.12946610
       1700.7222      0.11618998
       1701.0714      0.11047639
       1701.4205      0.12092787
       1701.7696     0.095013144
       1702.1188      0.14276520
       1702.4679      0.16503749
       1702.8170      0.15220896
       1703.1662      0.11210975
       1703.5153      0.16950122
       1703.8645      0.18070196
       1704.2136     0.092605629
       1704.5627      0.16356977
       1704.9119      0.17616097
       1705.2610      0.20661020
       1705.6101      0.14731545
       1705.9593      0.10755655
       1706.3084      0.12295647
       1706.6575      0.12834234
       1707.0067      0.13967335
       1707.3558      0.13648653
       1707.7049      0.12539943
       1708.0541      0.10421167
       1708.4032      0.13172864
       1708.7523      0.19917945
       1709.1015      0.16228660
       1709.4506      0.12792481
       1709.7997      0.11098446
       1710.1489      0.18207984
       1710.4980      0.15511744
       1710.8471      0.14397618
       1711.1963      0.11310537
       1711.5454      0.11036279
       1711.8945      0.17011138
       1712.2437      0.15060290
       1712.5928      0.11042906
       1712.9419      0.14404828
       1713.2911      0.11685053
       1713.6402      0.14178627
       1713.9893      0.12786935
       1714.3385      0.16863557
       1714.6876      0.13705946
       1715.0367      0.17184064
       1715.3859      0.16341870
       1715.7350      0.17418521
       1716.0841      0.12636602
       1716.4333      0.21188853
       1716.7824      0.19153971
       1717.1315      0.20190597
       1717.4807      0.17662096
       1717.8298      0.14551320
       1718.1789      0.12631562
       1718.5281      0.11991063
       1718.8772      0.17209850
       1719.2263     0.079663143
       1719.5755      0.12838898
       1719.9246      0.18231018
       1720.2737      0.11628661
       1720.6229      0.13807401
       1720.9720      0.13946383
       1721.3211      0.13515707
       1721.6703      0.11640304
       1722.0194      0.16221939
       1722.3685      0.17878547
       1722.7177      0.16761416
       1723.0668      0.14135359
       1723.4160      0.17074624
       1723.7651      0.18697410
       1724.1142      0.19485727
       1724.4634      0.12486916
       1724.8125      0.17396069
       1725.1616      0.15604773
       1725.5108      0.13077496
       1725.8599      0.13144244
       1726.2090      0.11456914
       1726.5582     0.073949989
       1726.9073      0.14091182
       1727.2564      0.18054919
       1727.6056      0.19982853
       1727.9547      0.20037885
       1728.3038      0.19800859
       1728.6530      0.17077966
       1729.0021      0.13972263
       1729.3512      0.14996302
       1729.7004      0.18203202
       1730.0495      0.14819247
       1730.3986      0.19888878
       1730.7478      0.15506525
       1731.0969      0.12636240
       1731.4460      0.13524008
       1731.7952      0.17693248
       1732.1443      0.15035911
       1732.4934      0.14875951
       1732.8426      0.14575683
       1733.1917      0.16319098
       1733.5408      0.13993447
       1733.8900      0.20015185
       1734.2391      0.13891088
       1734.5882      0.16225574
       1734.9374      0.13309942
       1735.2865      0.13117071
       1735.6356      0.13907736
       1735.9848      0.19105115
       1736.3339      0.19373878
       1736.6830      0.21004523
       1737.0322      0.17254759
       1737.3813      0.11689040
       1737.7304      0.12672828
       1738.0796      0.15690558
       1738.4287      0.16395930
       1738.7778      0.14964275
       1739.1270      0.13694136
       1739.4761      0.18025129
       1739.8252      0.14454846
       1740.1744      0.17295034
       1740.5235      0.13652533
       1740.8726      0.15224142
       1741.2218      0.15486760
       1741.5709      0.12027868
       1741.9201      0.16417057
       1742.2692      0.15954964
       1742.6183      0.16544018
       1742.9675      0.17351076
       1743.3166      0.16312155
       1743.6657      0.17714917
       1744.0149      0.17520691
       1744.3640      0.14625979
       1744.7131      0.16605694
       1745.0623      0.19821721
       1745.4114      0.18287008
       1745.7605      0.16881345
       1746.1097      0.15499251
       1746.4588      0.16814123
       1746.8079      0.12617074
       1747.1571      0.14707608
       1747.5062      0.13245577
       1747.8553      0.20925788
       1748.2045      0.14922758
       1748.5536      0.14266585
       1748.9027      0.10628721
       1749.2519      0.12353726
       1749.6010      0.12610437
       1749.9501      0.12119913
       1750.2993      0.10261955
       1750.6484      0.13565640
       1750.9975      0.18139711
       1751.3467      0.14189125
       1751.6958      0.12293759
       1752.0449      0.17101874
       1752.3941      0.12636323
       1752.7432     0.086277183
       1753.0923      0.19520479
       1753.4415      0.10956220
       1753.7906      0.10115393
       1754.1397      0.12246942
       1754.4889      0.14376401
       1754.8380      0.18616288
       1755.1871      0.15137528
       1755.5363     0.093831401
       1755.8854      0.15038231
       1756.2345      0.17266765
       1756.5837      0.11944355
       1756.9328      0.11250886
       1757.2819      0.18870583
       1757.6311      0.15974684
       1757.9802      0.17418648
       1758.3293      0.20470797
       1758.6785      0.13245233
       1759.0276      0.13396661
       1759.3767      0.14886470
       1759.7259      0.12967348
       1760.0750      0.12676916
       1760.4241      0.13562652
       1760.7733      0.15442661
       1761.1224      0.12289752
       1761.4716      0.13506494
       1761.8207      0.16703156
       1762.1698      0.15362374
       1762.5190      0.17216127
       1762.8681      0.13869200
       1763.2172      0.14086270
       1763.5664      0.14766341
       1763.9155      0.16970688
       1764.2646      0.10490551
       1764.6138      0.14016919
       1764.9629      0.19559653
       1765.3120      0.18182677
       1765.6612      0.15819074
       1766.0103      0.16557046
       1766.3594     0.086231996
       1766.7086      0.12630894
       1767.0577      0.16647480
       1767.4068      0.17330087
       1767.7560     0.097541518
       1768.1051      0.15318240
       1768.4542      0.16758272
       1768.8034     0.080482418
       1769.1525     0.093487515
       1769.5016      0.12609979
       1769.8508      0.16161143
       1770.1999      0.16145137
       1770.5490      0.14585899
       1770.8982      0.14750150
       1771.2473     0.083194088
       1771.5964     0.081552410
       1771.9456      0.12942930
       1772.2947     0.084414891
       1772.6438      0.10556791
       1772.9930      0.11507147
       1773.3421      0.13113557
       1773.6912      0.15130203
       1774.0404      0.10875095
       1774.3895     0.089525209
       1774.7386      0.11972491
       1775.0878      0.10633021
       1775.4369     0.092632779
       1775.7860      0.12077197
       1776.1352      0.12485327
       1776.4843     0.094689918
       1776.8334     0.086987903
       1777.1826      0.10384108
       1777.5317      0.18620076
       1777.8808      0.16246109
       1778.2300      0.13173927
       1778.5791      0.16346391
       1778.9282     0.080976124
       1779.2774     0.085258465
       1779.6265      0.17517144
       1779.9757     0.089359008
       1780.3248      0.15514249
       1780.6739      0.20303658
       1781.0231      0.13295710
       1781.3722      0.13967271
       1781.7213      0.12796993
       1782.0705     0.067212884
       1782.4196     0.091002649
       1782.7687      0.14101683
       1783.1179     0.077073860
       1783.4670     0.092641603
       1783.8161     0.076987695
       1784.1653      0.13222852
       1784.5144      0.11889902
       1784.8635     0.072214142
       1785.2127     0.071752510
       1785.5618     0.042915061
       1785.9109      0.20886752
       1786.2601      0.27743064
       1786.6092   -0.0067567330
       1786.9583      0.26551376
       1787.3075     0.095526547
       1787.6566    -0.045487955
       1788.0057     0.072300417
       1788.3549      0.10258806
       1788.7040     -0.20603631
       1789.0531     -0.24009824
       1789.4023     0.092699889
       1789.7514    -0.051624555
       1790.1005      0.11685609
       1790.4497      0.15693393
       1790.7988     0.090859875
       1791.1479    -0.028533106
       1791.4971     0.095721475
       1791.8462     0.081359770
       1792.1953     0.061046269
       1792.5445     0.040298413
       1792.8936     0.095574376
       1793.2427      0.13802131
       1793.5919     0.017923411
       1793.9410      0.10958834
       1794.2901     0.098579405
       1794.6393     0.070491238
       1794.9884     0.070964186
       1795.3375     0.040340511
       1795.6867      0.10007935
       1796.0358     0.074097944
       1796.3849     0.084538097
       1796.7341      0.11272574
       1797.0832      0.10190428
       1797.4323     0.075835888
       1797.7815      0.12350967
       1798.1306      0.11190798
       1798.4797     0.081460089
       1798.8289      0.10623947
       1799.1780     0.073979355
       1799.5272     0.084137514
       1799.8763     0.055461198
       1800.2254     0.036932093
       1800.5746     0.084205287
       1800.9237     0.021901244
       1801.2728     0.098761473
       1801.6220     0.087363528
       1801.9711     0.026660789
       1802.3202     0.081452384
       1802.6694     0.085616731
       1803.0185      0.10774516
       1803.3676     0.099347709
       1803.7168     0.070111965
       1804.0659     0.026239560
       1804.4150     0.038224070
       1804.7642     0.059321496
       1805.1133     0.054907931
       1805.4624     0.083749019
       1805.8116     0.013432072
       1806.1607     0.066970369
       1806.5098     0.025820863
       1806.8590     0.040922602
       1807.2081      0.10242075
       1807.5572      0.11567274
       1807.9064     0.080772687
       1808.2555     0.041080443
       1808.6046     0.014795046
       1808.9538     0.030988937
       1809.3029  -0.00016883531
       1809.6520   -0.0047295958
       1810.0012     0.034599474
       2225.1426      0.22841273
       2225.5216      0.39341120
       2225.9007      0.30106887
       2226.2797      0.29809651
       2226.6587      0.22358437
       2227.0378      0.12860954
       2227.4168      0.13212514
       2227.7959      0.16038342
       2228.1749      0.21590633
       2228.5539      0.16534641
       2228.9330      0.21594240
       2229.3120      0.12585458
       2229.6911      0.24945748
       2230.0701      0.34277987
       2230.4491      0.33218078
       2230.8282      0.26195952
       2231.2072      0.17015826
       2231.5863      0.13230758
       2231.9653      0.12474865
       2232.3444      0.19445058
       2232.7234      0.29894243
       2233.1024      0.27530432
       2233.4815      0.14864648
       2233.8605      0.20368554
       2234.2396      0.13689510
       2234.6186      0.24527451
       2234.9976      0.28996454
       2235.3767      0.22364728
       2235.7557      0.20134806
       2236.1348      0.18776877
       2236.5138      0.17014581
       2236.8928      0.14459531
       2237.2719      0.20597307
       2237.6509      0.31164093
       2238.0300      0.29194457
       2238.4090      0.27651603
       2238.7880      0.29957537
       2239.1671      0.29470211
       2239.5461      0.19060576
       2239.9252      0.16376886
       2240.3042      0.25270220
       2240.6832      0.25435203
       2241.0623      0.21422829
       2241.4413      0.23910570
       2241.8204      0.19255463
       2242.1994      0.29119451
       2242.5784      0.29133820
       2242.9575      0.27084053
       2243.3365      0.25689114
       2243.7156      0.28671634
       2244.0946      0.30052493
       2244.4736      0.19747486
       2244.8527      0.20338283
       2245.2317      0.22178775
       2245.6108      0.26199062
       2245.9898      0.26280495
       2246.3689      0.24239303
       2246.7479      0.28713282
       2247.1269      0.21478258
       2247.5060      0.13775768
       2247.8850      0.20058411
       2248.2641      0.26723862
       2248.6431      0.20256029
       2249.0221      0.25871408
       2249.4012      0.24263572
       2249.7802      0.24074680
       2250.1593      0.24282085
       2250.5383      0.20468539
       2250.9173      0.19320172
       2251.2964      0.29031754
       2251.6754      0.30723297
       2252.0545      0.24407933
       2252.4335      0.25268143
       2252.8125      0.26997955
       2253.1916      0.29707391
       2253.5706      0.26628470
       2253.9497      0.17989220
       2254.3287      0.22528758
       2254.7077      0.30991071
       2255.0868      0.22379290
       2255.4658      0.18448441
       2255.8449      0.15348079
       2256.2239      0.28192195
       2256.6029      0.28405319
       2256.9820      0.32526714
       2257.3610      0.27290572
       2257.7401      0.23546951
       2258.1191      0.34051047
       2258.4981      0.29362643
       2258.8772      0.22897158
       2259.2562      0.29025536
       2259.6353      0.18449452
       2260.0143      0.12543652
       2260.3934      0.24141802
       2260.7724      0.22398640
       2261.1514      0.19738260
       2261.5305      0.15624097
       2261.9095      0.11819300
       2262.2886      0.18300624
       2262.6676      0.27479116
       2263.0466      0.25477022
       2263.4257      0.25371103
       2263.8047      0.12811141
       2264.1838      0.11716452
       2264.5628      0.22614603
       2264.9418      0.28041125
       2265.3209      0.26647677
       2265.6999      0.26677247
       2266.0790      0.25582256
       2266.4580      0.27634413
       2266.8370      0.27280664
       2267.2161      0.23647552
       2267.5951      0.23383263
       2267.9742      0.21384330
       2268.3532      0.18443506
       2268.7322      0.12912214
       2269.1113      0.13695449
       2269.4903      0.28696273
       2269.8694      0.32816311
       2270.2484      0.30538725
       2270.6274      0.21550451
       2271.0065      0.24052466
       2271.3855      0.22410461
       2271.7646      0.22808382
       2272.1436      0.22253803
       2272.5227      0.25219665
       2272.9017      0.27677701
       2273.2807      0.20533107
       2273.6598      0.16437928
       2274.0388      0.21458491
       2274.4179      0.29374313
       2274.7969      0.23337785
       2275.1759      0.12296399
       2275.5550      0.16875291
       2275.9340      0.22517820
       2276.3131      0.26541509
       2276.6921      0.24772396
       2277.0711      0.35095863
       2277.4502      0.35489333
       2277.8292      0.27059993
       2278.2083      0.24294549
       2278.5873      0.26200463
       2278.9663      0.17842405
       2279.3454      0.16056948
       2279.7244      0.23402345
       2280.1035      0.28134048
       2280.4825      0.31442244
       2280.8615      0.19455529
       2281.2406      0.25939528
       2281.6196      0.25001921
       2281.9987      0.25668297
       2282.3777      0.38965912
       2282.7567      0.26735163
       2283.1358      0.19261243
       2283.5148      0.25075232
       2283.8939      0.25265316
       2284.2729      0.22136759
       2284.6519      0.24646448
       2285.0310      0.30516268
       2285.4100      0.27313759
       2285.7891      0.23684547
       2286.1681      0.27874259
       2286.5472      0.21645702
       2286.9262      0.13914678
       2287.3052      0.32619719
       2287.6843      0.30060872
       2288.0633      0.32109080
       2288.4424      0.26209084
       2288.8214      0.32118384
       2289.2004      0.31032526
       2289.5795      0.19534609
       2289.9585      0.27448947
       2290.3376      0.27349192
       2290.7166      0.18377213
       2291.0956      0.19742817
       2291.4747      0.24393641
       2291.8537      0.26166885
       2292.2328      0.32856175
       2292.6118      0.37969691
       2292.9908      0.29559418
       2293.3699      0.23733116
       2293.7489      0.31933112
       2294.1280      0.33383228
       2294.5070      0.24774941
       2294.8860      0.28282017
       2295.2651      0.32233283
       2295.6441      0.37484986
       2296.0232      0.26767480
       2296.4022      0.24306212
       2296.7812      0.23739588
       2297.1603      0.31125814
       2297.5393      0.31997796
       2297.9184      0.27189665
       2298.2974      0.23962081
       2298.6764      0.29109915
       2299.0555      0.28598521
       2299.4345      0.34407387
       2299.8136      0.32470033
       2300.1926      0.28886794
       2300.5717      0.28591681
       2300.9507      0.22195065
       2301.3297      0.28982274
       2301.7088      0.34071856
       2302.0878      0.29550095
       2302.4669      0.22627927
       2302.8459      0.22574681
       2303.2249      0.19099943
       2303.6040      0.22365344
       2303.9830      0.21356140
       2304.3621      0.29075560
       2304.7411      0.29570545
       2305.1201      0.22606491
       2305.4992      0.28950869
       2305.8782      0.35376114
       2306.2573      0.29030709
       2306.6363      0.32203550
       2307.0153      0.37919257
       2307.3944      0.34060561
       2307.7734      0.30570583
       2308.1525      0.25460333
       2308.5315      0.21752038
       2308.9105      0.26370254
       2309.2896      0.29244746
       2309.6686      0.27722252
       2310.0477      0.28468970
       2310.4267      0.29376229
       2310.8057      0.31926344
       2311.1848      0.24395818
       2311.5638      0.24532306
       2311.9429      0.23983449
       2312.3219      0.22052512
       2312.7009      0.31238642
       2313.0800      0.28740615
       2313.4590      0.31422392
       2313.8381      0.24642371
       2314.2171      0.26001166
       2314.5962      0.30579838
       2314.9752      0.30586365
       2315.3542      0.34916831
       2315.7333      0.31171160
       2316.1123      0.30175392
       2316.4914      0.33661394
       2316.8704      0.34002664
       2317.2494      0.32743172
       2317.6285      0.28706254
       2318.0075      0.31995669
       2318.3866      0.26895723
       2318.7656      0.31268294
       2319.1446      0.31487282
       2319.5237      0.27743954
       2319.9027      0.18660997
       2320.2818      0.19209638
       2320.6608      0.29132172
       2321.0398      0.27234756
       2321.4189      0.31827201
       2321.7979      0.40241022
       2322.1770      0.28339875
       2322.5560      0.25036551
       2322.9350      0.22188344
       2323.3141      0.14996999
       2323.6931      0.26530031
       2324.0722      0.32106835
       2324.4512      0.22972446
       2324.8302      0.20396999
       2325.2093      0.23027656
       2325.5883      0.23139699
       2325.9674      0.32643386
       2326.3464      0.38254525
       2326.7254      0.32776261
       2327.1045      0.25308172
       2327.4835      0.27991868
       2327.8626      0.20485713
       2328.2416      0.27651702
       2328.6207      0.24590012
       2328.9997      0.25378963
       2329.3787      0.46065446
       2329.7578      0.33332270
       2330.1368      0.28931879
       2330.5159      0.36556204
       2330.8949      0.44491786
       2331.2739      0.18025197
       2331.6530      0.28262136
       2332.0320      0.23934929
       2332.4111      0.20133219
       2332.7901      0.32557254
       2333.1691      0.21664120
       2333.5482      0.20497212
       2333.9272      0.20812440
       2334.3063      0.19315822
       2334.6853     0.079068456
       2335.0643      0.23782704
       2335.4434      0.23654173
       2335.8224      0.19204060
       2336.2015      0.12448215
       2336.5805      0.19358145
       2336.9595      0.25048752
       2337.3386      0.28690175
       2337.7176      0.22103549
       2338.0967      0.15713076
       2338.4757      0.23840313
       2338.8547      0.25249777
       2339.2338      0.22604613
       2339.6128      0.26249312
       2339.9919      0.34670365
       2340.3709      0.31850310
       2340.7499      0.24855447
       2341.1290      0.27768698
       2341.5080      0.33053278
       2341.8871      0.38014357
       2342.2661      0.38072853
       2342.6452      0.20364554
       2343.0242      0.29914723
       2343.4032      0.33903865
       2343.7823      0.15449231
       2344.1613     0.026860367
       2344.5404      0.37566951
       2344.9194      0.39979626
       2345.2984      0.22347577
       2345.6775      0.30551878
       2346.0565      0.39236172
       2346.4356      0.28722881
       2346.8146      0.26530189
       2347.1936      0.23472885
       2347.5727      0.17489967
       2347.9517      0.23260641
       2348.3308      0.23596960
       2348.7098      0.28114827
       2349.0888      0.26270312
       2349.4679      0.32623228
       2349.8469      0.33694712
       2350.2260      0.24912676
       2350.6050      0.22407175
       2350.9840      0.30330158
       2351.3631      0.43498469
       2351.7421      0.35927273
       2352.1212      0.30083286
       2352.5002      0.32878789
       2352.8792      0.27188826
       2353.2583      0.21965197
       2353.6373      0.25444469
       2354.0164      0.31230451
       2354.3954      0.31303228
       2354.7745      0.45644574
       2355.1535      0.55191918
       2355.5325      0.41117592
       2355.9116      0.34477822
       2356.2906      0.26440773
       2356.6697      0.20818039
       2357.0487      0.18294124
       2357.4277      0.21980938
       2357.8068      0.17223035
       2358.1858      0.18932375
       2358.5649      0.33966414
       2358.9439      0.39486391
       2359.3229      0.36758962
       2359.7020      0.38586012
       2360.0810      0.33839919
       2360.4601      0.32820739
       2360.8391      0.27898717
       2361.2181      0.27762387
       2361.5972      0.19723388
       2361.9762      0.23113105
       2362.3553      0.21743825
       2362.7343      0.23365584
       2363.1133      0.45285240
       2363.4924      0.61942732
       2363.8714      0.52018931
       2364.2505      0.39642579
       2364.6295      0.29907106
       2365.0085      0.24650432
       2365.3876      0.19895489
       2365.7666     0.096088474
       2366.1457      0.20587261
       2366.5247      0.25940382
       2366.9037      0.31139563
       2367.2828      0.34328792
       2367.6618      0.24026287
       2368.0409      0.33479540
       2368.4199      0.38490348
       2368.7990      0.47664640
       2369.1780      0.30395916
       2369.5570      0.36977118
       2369.9361      0.45101558
       2370.3151      0.33005598
       2370.6942      0.26112198
       2371.0732      0.21862098
       2371.4522      0.34385025
       2371.8313      0.34608839
       2372.2103      0.29991906
       2372.5894      0.28957588
       2372.9684      0.33980878
       2373.3474      0.40554677
       2373.7265      0.40449128
       2374.1055      0.30630589
       2374.4846     0.014332876
       2374.8636     0.027534597
       2375.2426      0.13566723
       2375.6217      0.23739554
       2376.0007      0.21818381
       2376.3798      0.18697271
       2376.7588      0.38123620
       2377.1378      0.31354434
       2377.5169      0.25173229
       2377.8959      0.28118324
       2378.2750      0.25640572
       2378.6540      0.22765225
       2379.0330      0.23613639
       2379.4121      0.29351707
       2379.7911      0.26939939
       2380.1702      0.36301417
       2380.5492      0.35022195
       2380.9282      0.27500805
       2381.3073      0.19491451
       2381.6863      0.14426248
       2382.0654      0.35271019
       2382.4444      0.33606979
       2382.8235      0.28402398
       2383.2025      0.21747568
       2383.5815      0.35487387
       2383.9606      0.44653741
       2384.3396      0.43683097
       2384.7187      0.22887569
       2385.0977      0.21154024
       2385.4767      0.20431081
       2385.8558      0.22901290
       2386.2348      0.20541150
       2386.6139     0.053193440
       2386.9929     0.065348925
       2387.3719     0.036214321
       2387.7510      0.14473543
       2388.1300      0.26730909
       2388.5091      0.28477538
       2388.8881      0.29284071
       2389.2671      0.28622134
       2389.6462      0.23037299
       2390.0252      0.27166477
       2390.4043      0.27956276
       2390.7833      0.29143341
       2391.1623      0.29648180
       2391.5414      0.25332306
       2391.9204      0.26017884
       2392.2995      0.30322621
       2392.6785      0.35944232
       2393.0575      0.35864438
       2393.4366      0.43044117
       2393.8156      0.39625406
       2394.1947      0.30128350
       2394.5737      0.22771359
       2394.9527      0.24858741
       2395.3318      0.31171344
       2395.7108      0.37827211
       2396.0899      0.32193885
       2396.4689      0.38259643
       2396.8480      0.37271893
       2397.2270      0.35836952
       2397.6060      0.25510883
       2397.9851      0.29845083
       2398.3641      0.24228656
       2398.7432      0.21603133
       2399.1222      0.31863821
       2399.5012      0.20217960
       2399.8803      0.25032857
       2400.2593      0.25652839
       2400.6384      0.25993139
       2401.0174      0.31266267
       2401.3964      0.32193316
       2401.7755      0.35626482
       2402.1545      0.38021122
       2402.5336      0.29098562
       2402.9126      0.27468620
       2403.2916      0.31608257
       2403.6707      0.31721556
       2404.0497      0.27113351
       2404.4288      0.24591507
       2404.8078      0.20475785
       2405.1868      0.27829801
       2405.5659      0.32082621
       2405.9449      0.37267741
       2406.3240      0.36985911
       2406.7030      0.34423944
       2407.0820      0.43124622
       2407.4611      0.47564300
       2407.8401      0.35261200
       2408.2192      0.28404429
       2408.5982      0.35806770
       2408.9772      0.34523895
       2409.3563      0.21405904
       2409.7353      0.30294118
       2410.1144      0.31958640
       2410.4934      0.31850221
       2410.8725      0.28451900
       2411.2515      0.25679980
       2411.6305      0.18436217
       2412.0096      0.29773947
       2412.3886      0.28309259
       2412.7677      0.17904936
       2413.1467      0.26351024
       2413.5257      0.35897224
       2413.9048      0.24296341
       2414.2838      0.26770134
       2414.6629      0.36811427
       2415.0419      0.32604685
       2415.4209      0.27250636
       2415.8000      0.18183690
       2416.1790      0.38979243
       2416.5581      0.29737558
       2416.9371      0.25830352
       2417.3161      0.25328435
       2417.6952      0.23936380
       2418.0742      0.31926965
       2418.4533      0.33014303
       2418.8323      0.23290785
       2419.2113      0.37418997
       2419.5904      0.35732866
       2419.9694      0.35104795
       2420.3485      0.41766284
       2420.7275      0.46837433
       2421.1065      0.40884942
       2421.4856      0.39340752
       2421.8646      0.24947058
       2422.2437      0.36569601
       2422.6227      0.34799141
       2423.0017      0.38785382
       2423.3808      0.43863626
       2423.7598      0.44052140
       2424.1389      0.34562917
       2424.5179      0.20614419
       2424.8970      0.21253376
       2425.2760      0.28169466
       2425.6550      0.28442891
       2426.0341      0.36933222
       2426.4131      0.29688181
       2426.7922      0.28553434
       2427.1712      0.32301359
       2427.5502      0.29057957
       2427.9293      0.18611129
       2428.3083      0.35950814
       2428.6874      0.32279138
       2429.0664      0.33128704
       2429.4454      0.25553486
       2429.8245      0.29109026
       2430.2035      0.29156152
       2430.5826      0.30164306
       2430.9616      0.22994531
       2431.3406      0.19743485
       2431.7197      0.40733706
       2432.0987      0.43093190
       2432.4778      0.41491312
       2432.8568      0.31054381
       2433.2358      0.25660762
       2433.6149      0.33101958
       2433.9939      0.35104281
       2434.3730      0.31390292
       2434.7520      0.34369386
       2435.1310      0.30376617
       2435.5101      0.43419405
       2435.8891      0.33179447
       2436.2682      0.29065649
       2436.6472      0.22280340
       2437.0263      0.33942496
       2437.4053      0.33885922
       2437.7843      0.30147385
       2438.1634      0.27084115
       2438.5424      0.50373843
       2438.9215      0.46649869
       2439.3005      0.54504990
       2439.6795      0.28878603
       2440.0586      0.41143988
       2440.4376      0.45935238
       2440.8167      0.32975112
       2441.1957      0.22460451
       2441.5747      0.23217366
       2441.9538      0.13580032
       2442.3328      0.30018817
       2442.7119      0.49529494
       2443.0909      0.44290002
       2443.4699      0.43589275
       2443.8490      0.38635847
       2444.2280      0.32935052
       2444.6071      0.26716654
       2444.9861      0.35911887
       2445.3651      0.31658592
       2445.7442     0.095531635
       2446.1232      0.16482194
       2446.5023      0.20781077
       2446.8813      0.33903435
       2447.2603      0.29077312
       2447.6394      0.20087339
       2448.0184      0.22463420
       2448.3975             NaN
       2448.7765             NaN
       2449.1555             NaN
       2449.5346             NaN
       2449.9136             NaN
       2450.2927             NaN
       2450.6717             NaN
       2451.0508             NaN
       2451.4298             NaN
       2451.8088             NaN
       2452.1879             NaN
       2452.5669             NaN
       2452.9460             NaN
       2453.3250             NaN
       2453.7040             NaN
       2454.0831             NaN
       2454.4621             NaN
       2454.8412             NaN
       2455.2202             NaN
       2455.5992             NaN
       2455.9783             NaN
       2456.3573             NaN
       2456.7364             NaN
       2457.1154             NaN
       2457.4944             NaN
       2457.8735             NaN
       2458.2525             NaN
       2458.6316             NaN
       2459.0106             NaN
       2459.3896             NaN
       2459.7687             NaN
       2460.1477             NaN
       2460.5268             NaN
       2460.9058             NaN
       2461.2848             NaN
       2461.6639             NaN
       2462.0429             NaN
       2462.4220             NaN
       2462.8010             NaN
       2463.1800             NaN
       2463.5591             NaN
       2463.9381             NaN
       2464.3172             NaN
       2464.6962             NaN
       2465.0753             NaN
       2465.4543             NaN
       2465.8333             NaN
       2466.2124             NaN
       2466.5914             NaN
       2466.9705             NaN
       2467.3495             NaN
       2467.7285             NaN
       2468.1076             NaN
       2468.4866             NaN
       2468.8657             NaN
       2469.2447             NaN
       2469.6237             NaN
       2470.0028             NaN
       2470.3818             NaN
       2470.7609             NaN
       2471.1399             NaN
       2471.5189             NaN
       2471.8980             NaN
       2472.2770             NaN
       2472.6561             NaN
       2473.0351             NaN
       2473.4141             NaN
       2473.7932             NaN
       2474.1722             NaN
       2474.5513             NaN
       2474.9303             NaN
       2475.3093             NaN
       2475.6884             NaN
       2476.0674             NaN
       2476.4465             NaN
       2476.8255             NaN
       2477.2045             NaN
       2477.5836             NaN
       2477.9626             NaN
       2478.3417             NaN
       2478.7207             NaN
       2479.0998             NaN
       2479.4788             NaN
       2479.8578             NaN
       2480.2369             NaN
       2480.6159             NaN
       2480.9950             NaN
       2481.3740             NaN
       2481.7530             NaN
       2482.1321             NaN
       2482.5111      0.27757462
       2482.8902      0.31892502
       2483.2692      0.29910757
       2483.6482      0.27534171
       2484.0273      0.32786589
       2484.4063      0.35500578
       2484.7854      0.14120344
       2485.1644      0.52027295
       2485.5434      0.40820329
       2485.9225      0.56865051
       2486.3015      0.77879371
       2486.6806      0.65080096
       2487.0596      0.27245142
       2487.4386      0.32008090
       2487.8177      0.41204444
       2488.1967    0.0092831006
       2488.5758     0.053445600
       2488.9548      0.20071450
       2489.3338    -0.043750828
       2489.7129      0.25195077
       2490.0919      0.35459899
       2490.4710      0.33041436
       2490.8500      0.34792526
       2491.2290      0.33113045
       2491.6081      0.36925181
       2491.9871      0.31906401
       2492.3662      0.30393949
       2492.7452      0.32022321
       2493.1243      0.37444292
       2493.5033      0.30876374
       2493.8823      0.36383913
       2494.2614      0.20128307
       2494.6404      0.28258603
       2495.0195      0.30428598
       2495.3985      0.18577233
       2495.7775      0.19020098
       2496.1566      0.37068816
       2496.5356      0.27729281
       2496.9147      0.48241576
       2497.2937      0.57682558
       2497.6727      0.34160799
       2498.0518      0.56859909
       2498.4308      0.50574764
       2498.8099      0.26776208
       2499.1889    -0.052267152
       2499.5679    -0.084153386
       2499.9470     -0.13604261
       2500.3260     0.024042272
       2500.7051      0.23079289
       2501.0841      0.27989554
       2501.4631      0.10048890
       2501.8422      0.18101498
       2502.2212      0.25589241
       2502.6003      0.33839703
       2502.9793      0.20121063
       2503.3583      0.19924346
       2503.7374      0.36215420
       2504.1164      0.37869711
       2504.4955      0.37267279
       2504.8745      0.33146953
       2505.2535      0.32778658
       2505.6326      0.47151478
       2506.0116      0.24460541
       2506.3907      0.21647497
       2506.7697      0.41916554
       2507.1488      0.47617911
       2507.5278      0.28378957
       2507.9068      0.29663931
       2508.2859      0.50292087
       2508.6649      0.33366583
       2509.0440      0.23731690
       2509.4230      0.33674144
       2509.8020      0.36484364
       2510.1811      0.26228350
       2510.5601      0.25873844
       2510.9392      0.22604465
       2511.3182      0.48887959
       2511.6972      0.34436441
       2512.0763      0.30131364
       2512.4553      0.44680580
       2512.8344      0.42044412
       2513.2134      0.50283459
       2513.5924      0.14409214
       2513.9715     0.092126991
       2514.3505      0.16753717
       2514.7296     0.081358867
       2515.1086      0.19009687
       2515.4876      0.28098392
       2515.8667      0.33761658
       2516.2457      0.30230460
       2516.6248      0.43050313
       2517.0038      0.30111650
       2517.3828      0.33494388
       2517.7619      0.21637934
       2518.1409      0.21137770
       2518.5200      0.22678036
       2518.8990      0.25233389
       2519.2781      0.29714021
       2519.6571      0.30235021
       2520.0361      0.47150339
       2520.4152      0.43499337
       2520.7942      0.54857850
       2521.1733      0.44593159
       2521.5523      0.29287266
       2521.9313      0.19040252
       2522.3104   -0.0032536813
       2522.6894      0.31256224
       2523.0685     0.092971356
       2523.4475    -0.022189498
       2523.8265      0.15310496
       2524.2056      0.22076157
       2524.5846      0.25755310
       2524.9637      0.23304016
       2525.3427      0.28744524
       2525.7217      0.27170896
       2526.1008      0.25520855
       2526.4798      0.32395105
       2526.8589      0.43019323
       2527.2379      0.43196583
       2527.6169      0.36438398
       2527.9960      0.28024384
       2528.3750      0.26701009
       2528.7541      0.36380019
       2529.1331      0.44619077
       2529.5121      0.25265142
       2529.8912      0.37440629
       2530.2702      0.28332047
       2530.6493      0.25562224
       2531.0283      0.39139819
       2531.4073      0.48717509
       2531.7864      0.66392729
       2532.1654      0.43799751
       2532.5445      0.22018272
       2532.9235      0.16216749
       2533.3026      0.13639773
       2533.6816      0.26794596
       2534.0606      0.42187120
       2534.4397      0.37377394
       2534.8187      0.52594817
       2535.1978      0.31899221
       2535.5768      0.46294621
       2535.9558      0.20588522
       2536.3349      0.40804197
       2536.7139      0.53721842
       2537.0930      0.53161177
       2537.4720      0.17788211
       2537.8510      0.23960332
       2538.2301      0.35552772
       2538.6091      0.42367248
       2538.9882      0.26630555
       2539.3672      0.20593020
       2539.7462      0.22402594
       2540.1253      0.32493565
       2540.5043      0.45528788
       2540.8834      0.34632593
       2541.2624      0.15128715
       2541.6414      0.34723541
       2542.0205      0.35970957
       2542.3995      0.37557111
       2542.7786      0.49015406
       2543.1576      0.23501692
       2543.5366      0.43729289
       2543.9157      0.26214206
       2544.2947     0.098427030
       2544.6738      0.21696190
       2545.0528      0.24491632
       2545.4318      0.35403234
       2545.8109      0.37783345
       2546.1899      0.28921998
       2546.5690      0.26320870
       2546.9480      0.21244067
       2547.3271      0.33455211
       2547.7061      0.40174286
       2548.0851      0.33957245
       2548.4642      0.20858988
       2548.8432      0.21090763
       2549.2223      0.24880589
       2549.6013      0.30098785
       2549.9803      0.46328322
       2550.3594      0.62007473
       2550.7384      0.88497944
       2551.1175      0.52399491
       2551.4965      0.46665589
       2551.8755      0.44900064
       2552.2546      0.37290252
       2552.6336     0.090242039
       2553.0127      0.22776058
       2553.3917      0.26354038
       2553.7707      0.22734580
       2554.1498      0.31222927
       2554.5288      0.29059002
       2554.9079      0.30772998
       2555.2869     0.083085750
       2555.6659      0.21058310
       2556.0450      0.28675124
       2556.4240      0.28321815
       2556.8031      0.30774343
       2557.1821      0.43070886
       2557.5611      0.36839853
       2557.9402      0.32352729
       2558.3192      0.23790470
       2558.6983      0.20120083
       2559.0773      0.33189213
       2559.4563      0.42101580
       2559.8354      0.24818534
       2560.2144      0.29550472
       2560.5935      0.29419540
       2560.9725      0.28438108
       2561.3516      0.28814856
       2561.7306      0.36215656
       2562.1096      0.45709211
       2562.4887      0.36022273
       2562.8677      0.26730801
       2563.2468      0.22520310
       2563.6258      0.34040145
       2564.0048      0.37416034
       2564.3839      0.25512347
       2564.7629      0.21752086
       2565.1420      0.32713576
       2565.5210      0.32738719
       2565.9000      0.19438427
       2566.2791      0.22722148
       2566.6581      0.42785908
       2567.0372      0.44944381
       2567.4162      0.59549628
       2567.7952      0.65660512
       2568.1743      0.34974884
       2568.5533      0.27095748
       2568.9324     -0.11725144
       2569.3114     0.043089895
       2569.6904    -0.069523824
       2570.0695     -0.27254166
       2570.4485     -0.18065761
       2570.8276    0.0094086887
       2571.2066     0.042919377
       2571.5856     0.076267722
       2571.9647      0.23044810
       2572.3437      0.34332310
       2572.7228      0.48509187
       2573.1018      0.37055223
       2573.4808      0.20661535
       2573.8599      0.28693352
       2574.2389      0.37006045
       2574.6180      0.28402463
       2574.9970      0.36746332
       2575.3761      0.33516151
       2575.7551      0.21537209
       2576.1341      0.29306321
       2576.5132      0.11454766
       2576.8922      0.25501471
       2577.2713      0.19111648
       2577.6503      0.40209337
       2578.0293      0.33949729
       2578.4084      0.32662299
       2578.7874    -0.021128313
       2579.1665     -0.33355436
       2579.5455     -0.12008853
       2579.9245      0.16756139
       2580.3036      0.20987313
       2580.6826      0.17842290
       2581.0617      0.29710899
       2581.4407      0.32147577
       2581.8197      0.33981152
       2582.1988      0.30570579
       2582.5778      0.36360932
       2582.9569      0.44844079
       2583.3359      0.31167563
       2583.7149      0.25767805
       2584.0940     0.059977158
       2584.4730      0.28988709
       2584.8521      0.45846307
       2585.2311      0.36724665
       2585.6101      0.41268557
       2585.9892      0.30721788
       2586.3682      0.27834948
       2586.7473      0.39342143
       2587.1263      0.64013551
       2587.5053      0.67288910
       2587.8844      0.52308356
       2588.2634      0.28935562
       2588.6425      0.33664657
       2589.0215     0.078496465
       2589.4006     0.099305306
       2589.7796      0.13737459
       2590.1586      0.30948051
       2590.5377      0.34038090
       2590.9167      0.34764495
       2591.2958      0.29058144
       2591.6748      0.31962565
       2592.0538      0.22872142
       2592.4329      0.25752130
       2592.8119      0.35916273
       2593.1910      0.35784482
       2593.5700      0.32194230
       2593.9490      0.30423155
       2594.3281      0.32201619
       2594.7071      0.35552403
       2595.0862      0.36731708
       2595.4652      0.45143439
       2595.8442      0.38058362
       2596.2233      0.32409266
       2596.6023      0.32078699
       2596.9814      0.31562216
       2597.3604      0.18603786
       2597.7394      0.30304351
       2598.1185      0.31475952
       2598.4975      0.20490488
       2598.8766      0.34245493
       2599.2556      0.45221139
       2599.6346      0.38810909
       2600.0137      0.39841847
       2600.3927      0.30486930
       2600.7718      0.21290151
       2601.1508      0.26705432
       2601.5299      0.25918812
       2601.9089      0.20931307
       2602.2879      0.30314728
       2602.6670      0.36731257
       2603.0460      0.35511192
       2603.4251      0.29795659
       2603.8041      0.21292643
       2604.1831      0.25483086
       2604.5622      0.30324633
       2604.9412      0.31558919
       2605.3203      0.34241016
       2605.6993      0.35882959
       2606.0783      0.35172682
       2606.4574      0.37154286
       2606.8364      0.36402189
       2607.2155      0.31885559
       2607.5945      0.33046428
       2607.9735      0.20436547
       2608.3526      0.30520373
       2608.7316      0.36216884
       2609.1107      0.27490010
       2609.4897      0.34109324
       2609.8687      0.22507623
       2610.2478      0.29754600
       2610.6268      0.19263081
       2611.0059      0.25100756
       2611.3849      0.40125352
       2611.7639      0.37013558
       2612.1430      0.36185168
       2612.5220      0.24971848
       2612.9011      0.35961115
       2613.2801      0.23309109
       2613.6591      0.24335806
       2614.0382      0.37429325
       2614.4172      0.32769842
       2614.7963      0.31811820
       2615.1753      0.29308121
       2615.5544      0.28839710
       2615.9334      0.29790648
       2616.3124      0.32141140
       2616.6915      0.36314236
       2617.0705      0.35557619
       2617.4496      0.37827865
       2617.8286      0.32073548
       2618.2076      0.31717305
       2618.5867      0.29110269
       2618.9657      0.31014059
       2619.3448      0.32188426
       2619.7238      0.47626867
       2620.1028      0.32017226
       2620.4819      0.25850965
       2620.8609      0.29461789
       2621.2400      0.21526142
       2621.6190      0.21617529
       2621.9980      0.26323169
       2622.3771      0.20944542
       2622.7561      0.23266817
       2623.1352      0.32264544
       2623.5142      0.32211654
       2623.8932      0.24911601
       2624.2723      0.29841542
       2624.6513      0.30843238
       2625.0304      0.34105449
       2625.4094      0.36969114
       2625.7884      0.29599599
       2626.1675      0.26990961
       2626.5465      0.38016112
       2626.9256      0.34116552
       2627.3046      0.28628688
       2627.6836      0.25883032
       2628.0627      0.39107040
       2628.4417      0.34856029
       2628.8208      0.35699447
       2629.1998      0.39565446
       2629.5789      0.33189305
       2629.9579      0.30875063
       2630.3369      0.36428296
       2630.7160      0.31981192
       2631.0950      0.30636970
       2631.4741      0.36051557
       2631.8531      0.38910371
       2632.2321      0.39533623
       2632.6112      0.33100625
       2632.9902      0.32738359
       2633.3693      0.38074832
       2633.7483      0.29045362
       2634.1273      0.27421789
       2634.5064      0.30125488
       2634.8854      0.30310244
       2635.2645      0.31548338
       2635.6435      0.21111486
       2636.0225      0.21239493
       2636.4016      0.36366662
       2636.7806      0.35720159
       2637.1597      0.34361867
       2637.5387      0.27824181
       2637.9177      0.25552116
       2638.2968      0.29024429
       2638.6758      0.44341127
       2639.0549      0.41625084
       2639.4339      0.34933674
       2639.8129      0.42907429
       2640.1920      0.22941953
       2640.5710      0.40394292
       2640.9501      0.46847902
       2641.3291      0.30934732
       2641.7081      0.31625134
       2642.0872      0.28549614
       2642.4662      0.41786665
       2642.8453      0.42453299
       2643.2243      0.43545944
       2643.6034      0.39927763
       2643.9824      0.30981402
       2644.3614      0.36298783
       2644.7405      0.23755614
       2645.1195      0.33970834
       2645.4986      0.43805206
       2645.8776      0.33341623
       2646.2566      0.34815976
       2646.6357      0.36608050
       2647.0147      0.27240231
       2647.3938      0.29009791
       2647.7728      0.42921350
       2648.1518      0.30928629
       2648.5309      0.26816068
       2648.9099      0.22189455
       2649.2890      0.23918748
       2649.6680      0.29279700
       2650.0470      0.35755050
       2650.4261      0.34904155
       2650.8051      0.28688595
       2651.1842      0.19544615
       2651.5632      0.33790591
       2651.9422      0.27316812
       2652.3213      0.26875057
       2652.7003      0.25782535
       2653.0794      0.29701540
       2653.4584      0.39414597
       2653.8374      0.24633002
       2654.2165      0.34215696
       2654.5955      0.35752599
       2654.9746      0.35966870
       2655.3536      0.34181698
       2655.7326      0.31940962
       2656.1117      0.26716303
       2656.4907      0.26900419
       2656.8698      0.43260991
       2657.2488      0.34886953
       2657.6279      0.33007467
       2658.0069      0.32667408
       2658.3859      0.32689584
       2658.7650      0.30516853
       2659.1440      0.36791367
       2659.5231      0.26834987
       2659.9021      0.24155987
       2660.2811      0.38321599
       2660.6602      0.28271112
       2661.0392      0.32314347
       2661.4183      0.36526986
       2661.7973      0.32190249
       2662.1763      0.31167470
       2662.5554      0.24251896
       2662.9344      0.29114791
       2663.3135      0.28632552
       2663.6925      0.29189881
       2664.0715      0.29803444
       2664.4506      0.33878530
       2664.8296      0.33407175
       2665.2087      0.44652679
       2665.5877      0.40683834
       2665.9667      0.28951147
       2666.3458      0.37471758
       2666.7248      0.44243392
       2667.1039      0.26527011
       2667.4829      0.36223853
       2667.8619      0.34990035
       2668.2410      0.26932330
       2668.6200      0.36512270
       2668.9991      0.46188388
       2669.3781      0.30864434
       2669.7571      0.43118833
       2670.1362      0.51061568
       2670.5152      0.34214619
       2670.8943      0.36556854
       2671.2733      0.35725289
       2671.6524      0.48775270
       2672.0314      0.41004531
       2672.4104      0.15806571
       2672.7895      0.47383891
       2673.1685      0.34680764
       2673.5476     -0.12174416
       2673.9266      0.16887681
       2674.3056      0.15451441
       2674.6847      0.31293426
       2675.0637      0.32714091
       2675.4428      0.47356169
       2675.8218      0.51890719
       2676.2008      0.39001141
       2676.5799      0.22596593
       2676.9589      0.18188178
       2677.3380     0.032619374
       2677.7170    -0.047740177
       2678.0960     0.024327700
       2678.4751      0.13544653
       2678.8541      0.15345631
       2679.2332      0.23092838
       2679.6122      0.27509785
       2679.9912      0.48734807
       2680.3703      0.40940111
       2680.7493      0.26032053
       2681.1284      0.13394094
       2681.5074     0.032268098
       2681.8864      0.18339915
       2682.2655      0.24080578
       2682.6445      0.16313372
       2683.0236      0.15116185
       2683.4026      0.36037902
       2683.7817      0.28481344
       2684.1607      0.24536620
       2684.5397      0.27227232
       2684.9188      0.31947821
       2685.2978      0.38724115
       2685.6769      0.34318943
       2686.0559      0.30089314
       2686.4349      0.35131188
       2686.8140      0.31422041
       2687.1930      0.26586443
       2687.5721      0.18686999
       2687.9511      0.31069135
       2688.3301      0.37716931
       2688.7092      0.23697788
       2689.0882      0.43734906
       2689.4673      0.68214028
       2689.8463      0.69310322
       2690.2253      0.94145155
       2690.6044      0.86206258
       2690.9834      0.76417277
       2691.3625      0.86128656
       2691.7415      0.10088243
       2692.1205    -0.038524548
       2692.4996     -0.15340229
       2692.8786     0.077476299
       2693.2577      0.28315513
       2693.6367     0.094149725
       2694.0157      0.30693024
       2694.3948      0.14540711
       2694.7738    0.0084491732
       2695.1529     0.042740815
       2695.5319    0.0017997446
       2695.9109     0.080904066
       2696.2900      0.46667453
       2696.6690      0.41100973
       2697.0481      0.29124701
       2697.4271      0.26434668
       2697.8062      0.16265944
       2698.1852      0.15836341
       2698.5642      0.27037647
       2698.9433      0.31391789
       2699.3223      0.22814526
       2699.7014      0.30939510
       2700.0804      0.45465182
       2700.4594      0.36990912
       2700.8385      0.30135995
       2701.2175      0.38492229
       2701.5966      0.38624684
       2701.9756      0.52648574
       2702.3546      0.50169073
       2702.7337      0.37877824
       2703.1127      0.50713904
       2703.4918      0.40748439
       2703.8708      0.23421557
       2704.2498      0.20974517
       2704.6289      0.36178118
       2705.0079      0.31247565
       2705.3870      0.29414120
       2705.7660      0.28490903
       2706.1450      0.27448196
       2706.5241      0.27660031
       2706.9031      0.31730730
       2707.2822      0.38202627
       2707.6612      0.68194554
       2708.0402      0.47970329
       2708.4193      0.37694444
       2708.7983      0.55747948
       2709.1774     0.072598523
       2709.5564    -0.069057806
       2709.9354     -0.38151043
       2710.3145     -0.16600183
       2710.6935    -0.024876639
       2711.0726     0.025746543
       2711.4516      0.22103974
       2711.8307      0.22539291
       2712.2097      0.41365885
       2712.5887      0.36195318
       2712.9678      0.32147021
       2713.3468      0.31061354
       2713.7259      0.20060044
       2714.1049      0.25781175
       2714.4839      0.21766566
       2714.8630      0.24042548
       2715.2420      0.27886099
       2715.6211      0.28126697
       2716.0001      0.29723579
       2716.3791      0.29782029
       2716.7582      0.27437889
       2717.1372      0.58861824
       2717.5163      0.78193335
       2717.8953      0.83011108
       2718.2743      0.57941518
       2718.6534      0.88936280
       2719.0324      0.32234776
       2719.4115    -0.047000256
       2719.7905     -0.36808037
       2720.1695      0.22286369
       2720.5486     0.020078397
       2720.9276     0.059674517
       2721.3067      0.15807510
       2721.6857      0.12301735
       2722.0647      0.30560093
       2722.4438      0.27913378
       2722.8228      0.42650164
       2723.2019      0.33942556
       2723.5809      0.32654382
       2723.9599      0.36598172
       2724.3390      0.36171537
       2724.7180      0.45843544
       2725.0971      0.36456747
       2725.4761      0.38927223
       2725.8552      0.35727384
       2726.2342      0.20616150
       2726.6132      0.18796707
       2726.9923      0.20439896
       2727.3713      0.32358186
       2727.7504      0.22967308
       2728.1294      0.31648142
       2728.5084      0.63950202
       2728.8875      0.62935548
       2729.2665      0.55649098
       2729.6456      0.46662177
       2730.0246      0.38024134
       2730.4036      0.42603643
       2730.7827     0.084473163
       2731.1617     0.045432127
       2731.5408      0.21439368
       2731.9198      0.25937595
       2732.2988      0.38729339
       2732.6779      0.18673578
       2733.0569      0.20053199
       2733.4360      0.33512103
       2733.8150      0.36794130
       2734.1940      0.36551826
       2734.5731      0.39639156
       2734.9521      0.48938000
       2735.3312      0.38883170
       2735.7102      0.32034204
       2736.0892      0.31522198
       2736.4683      0.42148490
       2736.8473      0.34634774
       2737.2264      0.25408145
       2737.6054      0.32636640
       2737.9844      0.33101817
       2738.3635      0.50090831
       2738.7425      0.34801903
       2739.1216      0.48073894
       2739.5006      0.49494631
       2739.8797      0.25723921
       2740.2587      0.31588049
       2740.6377      0.28505761
       2741.0168      0.28211711
       2741.3958      0.39904126
       2741.7749      0.43449937
       2742.1539      0.47086625
       2742.5329      0.30158710
       2742.9120      0.33678451
       2743.2910     0.028039223
       2743.6701      0.15122562
       2744.0491      0.10644735
       2744.4281      0.22251235
       2744.8072      0.29876726
       2745.1862      0.31317271
       2745.5653      0.27263227
       2745.9443      0.30201801
       2746.3233      0.27829090
       2746.7024      0.35984200
       2747.0814      0.30321560
       2747.4605      0.36087625
       2747.8395      0.43740755
       2748.2185      0.24832749
       2748.5976      0.30252160
       2748.9766      0.27155766
       2749.3557      0.28844815
       2749.7347      0.45168018
       2750.1137      0.33493252
       2750.4928      0.37059161
       2750.8718      0.32791939
       2751.2509      0.43017624
       2751.6299      0.40388311
       2752.0089      0.26792340
       2752.3880      0.38543802
       2752.7670      0.36359031
       2753.1461      0.29275961
       2753.5251      0.47120538
       2753.9042      0.31381837
       2754.2832      0.35423376
       2754.6622      0.40251528
       2755.0413      0.46855202
       2755.4203      0.51948112
       2755.7994      0.44253242
       2756.1784      0.26684842
       2756.5574      0.46520806
       2756.9365      0.52081924
       2757.3155      0.37887568
       2757.6946      0.24624673
       2758.0736      0.35559055
       2758.4526      0.22665940
       2758.8317      0.24171202
       2759.2107      0.29988062
       2759.5898      0.37938450
       2759.9688      0.28779352
       2760.3478      0.40547933
       2760.7269      0.30128340
       2761.1059      0.37160454
       2761.4850      0.36171179
       2761.8640      0.40176084
       2762.2430      0.40274755
       2762.6221      0.40827787
       2763.0011      0.37647628
       2763.3802      0.42795198
       2763.7592      0.30101936
       2764.1382      0.35008753
       2764.5173      0.45891625
       2764.8963      0.51351152
       2765.2754      0.32361979
       2765.6544      0.24592566
       2766.0335      0.39391902
       2766.4125      0.42467821
       2766.7915      0.36259021
       2767.1706      0.27698059
       2767.5496      0.40079074
       2767.9287      0.37346028
       2768.3077      0.63792610
       2768.6867      0.52209398
       2769.0658      0.47011710
       2769.4448      0.54591404
       2769.8239      0.50410909
       2770.2029      0.50489684
       2770.5819      0.33611382
       2770.9610      0.32485451
       2771.3400      0.49246284
       2771.7191      0.42030397
       2772.0981      0.54852704
       2772.4771      0.39978163
       2772.8562      0.47811018
       2773.2352      0.46279132
       2773.6143      0.35782446
       2773.9933      0.54482090
       2774.3723      0.47294788
       2774.7514      0.40785190
       2775.1304      0.58303727
       2775.5095      0.42610306
       2775.8885      0.47992872
       2776.2675      0.45995453
       2776.6466      0.52148753
       2777.0256      0.49885959
       2777.4047      0.60729885
       2777.7837      0.61362368
       2778.1627      0.63120721
       2778.5418      0.55153649
       2778.9208      0.50424132
       2779.2999      0.21196631
       2779.6789      0.45429153
       2780.0580      0.20785466
       2780.4370      0.48051291
       2780.8160      0.60389424
       2781.1951      0.41888541
       2781.5741      0.62537875
       2781.9532      0.59115447
       2782.3322      0.58411434
       2782.7112     0.015951508
       2783.0903      0.30363336
       2783.4693      0.30169998
       2783.8484      0.42236422
       2784.2274      0.50035097
       2784.6064      0.50109975
       2784.9855      0.62317936
       2785.3645      0.68604619
       2785.7436      0.41746017
       2786.1226      0.37173899
       2786.5016      0.43861304
       2786.8807      0.47051919
       2787.2597      0.59515281
       2787.6388      0.72336092
       2788.0178      0.59514880
       2788.3968      0.65787742
       2788.7759      0.80609698
       2789.1549      0.62192676
       2789.5340      0.66193840
       2789.9130      0.71463646
       2790.2920      0.46615975
       2790.6711      0.72489795
       2791.0501      0.40746210
       2791.4292      0.50483590
       2791.8082      0.31360257
       2792.1872      0.37774615
       2792.5663      0.51362836
       2792.9453      0.40676011
       2793.3244      0.24924600
       2793.7034      0.38990677
       2794.0825      0.45453723
       2794.4615      0.35390121
       2794.8405      0.42617249
       2795.2196      0.51563976
       2795.5986      0.46886741
       2795.9777      0.55534364
       2796.3567      0.24296686
       2796.7357      0.42088660
       2797.1148      0.48063105
       2797.4938      0.53631908
       2797.8729      0.63895467
       2798.2519      0.38078822
       2798.6309      0.37054385
       2799.0100      0.30940201
       2799.3890      0.27655589
       2799.7681      0.39090510
       2800.1471      0.63618534
       2800.5261      0.68574761
       2800.9052      0.52814675
       2801.2842      0.45265551
       2801.6633      0.59103599
       2802.0423      0.47676925
       2802.4213      0.54802885
       2802.8004      0.49404572
       2803.1794      0.49983475
       2803.5585      0.38737305
       2803.9375      0.60422644
       2804.3165      0.58383883
       2804.6956      0.66830984
       2805.0746      0.67780404
       2805.4537      0.58511682
       2805.8327      0.57365101
       2806.2117      0.55627518
       2806.5908      0.48351530
       2806.9698      0.49111094
       2807.3489      0.52730964
       2807.7279      0.51682595
       2808.1070      0.47095790
       2808.4860      0.53649659
       2808.8650      0.57028240
       2809.2441      0.53498653
       2809.6231      0.46970097
       2810.0022      0.54964642
       2810.3812      0.50415195
       2810.7602      0.55802841
       2811.1393      0.56540607
       2811.5183      0.55146431
       2811.8974      0.59166067
       2812.2764      0.47836865
       2812.6554      0.54800909
       2813.0345      0.52023521
       2813.4135      0.64569885
       2813.7926      0.61290087
       2814.1716      0.61696578
       2814.5506      0.51213623
       2814.9297      0.58929419
       2815.3087      0.51196776
       2815.6878      0.39517041
       2816.0668      0.58568167
       2816.4458      0.58969295
       2816.8249      0.48489045
       2817.2039      0.32946980
       2817.5830      0.51995003
       2817.9620      0.55413948
       2818.3410      0.45853094
       2818.7201      0.43422914
       2819.0991      0.46956517
       2819.4782      0.57062266
       2819.8572      0.45630930
       2820.2362      0.54776932
       2820.6153      0.44359200
       2820.9943      0.57705841
       2821.3734      0.57220893
       2821.7524      0.50935507
       2822.1315      0.52182759
       2822.5105      0.49185962
       2822.8895      0.58125969
       2823.2686      0.72894984
       2823.6476       1.0988082
       2824.0267      0.48306329
       2824.4057      0.63287376
       2824.7847      0.58448667
       2825.1638      0.77413683
       2825.5428      0.75766629
       2825.9219      0.24849075
       2826.3009      0.51556389
       2826.6799      0.42119331
       2827.0590      0.57048428
       2827.4380      0.50195105
       2827.8171      0.18519316
       2828.1961      0.27098863
       2828.5751      0.36686546
       2828.9542      0.69729876
       2829.3332      0.54012630
       2829.7123      0.85366439
       2830.0913      0.86743064
       2830.4703      0.28409250
       2830.8494      0.28235486
       2831.2284      0.12736368
       2831.6075      0.26901833
       2831.9865      0.14918192
       2832.3655      0.30479597
       2832.7446      0.44031516
       2833.1236      0.40892048
       2833.5027      0.70773786
       2833.8817      0.51422090
       2834.2608      0.54222506
       2834.6398      0.45458352
       2835.0188      0.51022788
       2835.3979      0.35442229
       2835.7769      0.23436031
       2836.1560      0.21352154
       2836.5350      0.48102138
       2836.9140      0.42411007
       2837.2931      0.59141319
       2837.6721      0.52894403
       2838.0512      0.36583322
       2838.4302      0.37212501
       2838.8092      0.38106905
       2839.1883      0.47940688
       2839.5673      0.59969824
       2839.9464      0.61223713
       2840.3254      0.34218959
       2840.7044      0.37750182
       2841.0835      0.46762216
       2841.4625      0.28064999
       2841.8416      0.34639525
       2842.2206      0.50225838
       2842.5996      0.39075680
       2842.9787      0.49639882
       2843.3577      0.52305378
       2843.7368      0.65345382
       2844.1158      0.93876368
       2844.4948       1.3439673
       2844.8739      0.98290223
       2845.2529       1.1290440
       2845.6320       1.4189461
       2846.0110      0.91276075
       2846.3900     -0.22072491
       2846.7691    -0.089509181
       2847.1481     -0.14390743
       2847.5272      0.41784733
       2847.9062    -0.052698432
       2848.2853      0.48842830
       2848.6643      0.58444404
       2849.0433      0.45027554
       2849.4224      0.32856691
       2849.8014     0.072416836
       2850.1805      0.62986348
       2850.5595      0.37710174
       2850.9385      0.38883445
       2851.3176      0.47551937
       2851.6966      0.38663915
       2852.0757      0.59033825
       2852.4547      0.48675429
       2852.8337      0.51985318
       2853.2128      0.31929299
       2853.5918      0.29715856
       2853.9709      0.23959368
       2854.3499      0.27134476
       2854.7289      0.30378811
       2855.1080      0.37093746
       2855.4870      0.47508160
       2855.8661      0.42656969
       2856.2451      0.48641935
       2856.6241      0.38960901
       2857.0032      0.44706056
       2857.3822      0.66182801
       2857.7613      0.40394056
       2858.1403      0.59768228
       2858.5193      0.63503880
       2858.8984      0.66125859
       2859.2774      0.41447202
       2859.6565      0.44335660
       2860.0355      0.18062822
       2860.4145      0.40643837
       2860.7936      0.35594471
       2861.1726      0.22025580
       2861.5517      0.43490900
       2861.9307      0.39938556
       2862.3098      0.38165100
       2862.6888      0.49095798
       2863.0678      0.73205248
       2863.4469       1.0300518
       2863.8259      0.69045621
       2864.2050      0.49893486
       2864.5840      0.55069986
       2864.9630      0.53168555
       2865.3421      0.14211822
       2865.7211      0.41049194
       2866.1002      0.49755994
       2866.4792      0.30197336
       2866.8582      0.23136889
       2867.2373      0.42424397
       2867.6163      0.40609690
       2867.9954      0.47716364
       2868.3744      0.53473585
       2868.7534      0.68252791
       2869.1325      0.66367032
       2869.5115      0.66955736
       2869.8906      0.73363583
       2870.2696      0.56660217
       2870.6486      0.43228945
       2871.0277   -0.0013594393
       2871.4067     0.051111244
       2871.7858      0.32271710
       2872.1648      0.27044899
       2872.5438      0.35993001
       2872.9229      0.44981730
       2873.3019      0.53002430
       2873.6810      0.56144276
       2874.0600       1.1389979
       2874.4390      0.99845354
       2874.8181      0.88136802
       2875.1971      0.45367576
       2875.5762      0.66350153
       2875.9552    -0.085291851
       2876.3343     -0.93501309
       2876.7133     -0.15662954
       2877.0923      0.26703642
       2877.4714      0.31379755
       2877.8504      0.18618565
       2878.2295      0.37437812
       2878.6085      0.38822267
       2878.9875      0.43656494
       2879.3666      0.35327720
       2879.7456      0.34242299
       2880.1247      0.42272743
       2880.5037      0.42522558
       2880.8827      0.35367719
       2881.2618      0.36799829
       2881.6408      0.72513317
       2882.0199      0.48853511
       2882.3989      0.54937729
       2882.7779      0.42307180
       2883.1570      0.25898046
       2883.5360      0.33582619
       2883.9151      0.17880212
       2884.2941     0.075172543
       2884.6731      0.14682416
       2885.0522      0.26290547
       2885.4312      0.41190344
       2885.8103      0.50313959
       2886.1893      0.81712149
       2886.5683      0.68431332
       2886.9474       1.1439697
       2887.3264      0.58436247
       2887.7055      0.51434051
       2888.0845    -0.091803943
       2888.4635      0.22182277
       2888.8426     -0.38229581
       2889.2216      0.16887407
       2889.6007      0.20747956
       2889.9797      0.20054065
       2890.3588      0.39939855
       2890.7378      0.35265847
       2891.1168      0.36764414
       2891.4959      0.46709869
       2891.8749      0.35280903
       2892.2540      0.28326659
       2892.6330      0.34425304
       2893.0120      0.30173581
       2893.3911      0.40889059
       2893.7701      0.38333889
       2894.1492      0.33831080
       2894.5282      0.19916602
       2894.9072      0.17483385
       2895.2863      0.40323587
       2895.6653      0.14173834
       2896.0444      0.29459727
       2896.4234      0.42311311
       2896.8024      0.27014754
       2897.1815      0.21785049
       2897.5605      0.28928760
       2897.9396      0.33488787
       2898.3186    0.0061315713
       2898.6976      0.21593091
       2899.0767      0.32262234
       2899.4557      0.24903275
       2899.8348      0.55329114
       2900.2138      0.80594346
       2900.5928      0.68377354
       2900.9719      0.43578366
       2901.3509      0.26337902
       2901.7300      0.20753085
       2902.1090      0.16722415
       2902.4880     0.087633587
       2902.8671      0.23960515
       2903.2461      0.22100622
       2903.6252      0.37776072
       2904.0042      0.29941657
       2904.3833      0.43799232
       2904.7623      0.42359554
       2905.1413      0.29065152
       2905.5204      0.33762645
       2905.8994      0.35517617
       2906.2785      0.25305972
       2906.6575      0.38075457
       2907.0365      0.41558272
       2907.4156      0.36500611
       2907.7946      0.34537071
       2908.1737      0.29358477
       2908.5527      0.27511896
       2908.9317      0.30340657
       2909.3108      0.32700488
       2909.6898      0.29922182
       2910.0689      0.48554309
       2910.4479      0.52161980
       2910.8269      0.40837580
       2911.2060      0.33772795
       2911.5850      0.37782103
       2911.9641      0.38800080
       2912.3431      0.51599870
       2912.7221      0.43224596
       2913.1012      0.40568946
       2913.4802      0.27541420
       2913.8593     0.047633577
       2914.2383      0.38844471
       2914.6173      0.28213818
       2914.9964      0.48113001
       2915.3754      0.58773878
       2915.7545      0.48802807
       2916.1335      0.58238606
       2916.5126      0.31897950
       2916.8916      0.17106972
       2917.2706      0.23225136
       2917.6497      0.29068825
       2918.0287      0.13946046
       2918.4078      0.31957244
       2918.7868      0.18616680
       2919.1658      0.35073140
       2919.5449      0.20838695
       2919.9239      0.31389110
       2920.3030      0.44470057
       2920.6820      0.33287803
       2921.0610      0.42494399
       2921.4401      0.34688436
       2921.8191      0.28776208
       2922.1982      0.40708162
       2922.5772      0.32929620
       2922.9562      0.18778758
       2923.3353      0.48015427
       2923.7143      0.48648621
       2924.0934      0.49777240
       2924.4724      0.33246187
       2924.8514      0.38998036
       2925.2305      0.42104541
       2925.6095      0.26532587
       2925.9886      0.42059296
       2926.3676      0.23917285
       2926.7466      0.38979369
       2927.1257      0.41319733
       2927.5047      0.24812925
       2927.8838      0.40593182
       2928.2628      0.47869216
       2928.6418      0.40869952
       2929.0209      0.34461735
       2929.3999      0.50239625
       2929.7790      0.37286611
       2930.1580      0.28414020
       2930.5371      0.43240296
       2930.9161      0.26645385
       2931.2951      0.51490091
       2931.6742      0.22537017
       2932.0532      0.37173194
       2932.4323      0.49198287
       2932.8113      0.56457849
       2933.1903      0.48999818
       2933.5694      0.30370874
       2933.9484      0.44591947
       2934.3275      0.48011876
       2934.7065      0.36882280
       2935.0855      0.28605498
       2935.4646      0.17873675
       2935.8436      0.30536927
       2936.2227      0.32724512
       2936.6017      0.55363778
       2936.9807      0.57476916
       2937.3598      0.42960065
       2937.7388      0.18666187
       2938.1179      0.41721721
       2938.4969      0.30919927
       2938.8759      0.20932121
       2939.2550      0.30655106
       2939.6340      0.27255847
       2940.0131      0.35973139
       2940.3921      0.30715922
       2940.7711      0.22752081
       2941.1502      0.38402475
       2941.5292      0.35007230
       2941.9083      0.19753225
       2942.2873      0.25745280
       2942.6663      0.23235498
       2943.0454      0.40139173
       2943.4244      0.19886028
       2943.8035      0.21527370
       2944.1825      0.36518427
       2944.5616      0.44909133
       2944.9406      0.36247167
       2945.3196      0.39905308
       2945.6987      0.36305850
       2946.0777      0.32067949
       2946.4568      0.47157874
       2946.8358      0.42899199
       2947.2148      0.31917563
       2947.5939      0.54459621
       2947.9729      0.32418394
       2948.3520      0.26489460
       2948.7310      0.36772011
       2949.1100      0.53849094
       2949.4891      0.40691070
       2949.8681      0.25732387
       2950.2472      0.24658919
       2950.6262      0.38093851
       2951.0052      0.48219776
       2951.3843      0.46341314
       2951.7633      0.38721823
       2952.1424      0.47744032
       2952.5214      0.41654715
       2952.9004      0.27896871
       2953.2795      0.44870949
       2953.6585      0.52196014
       2954.0376      0.52139669
       2954.4166      0.29278034
       2954.7956      0.28450898
       2955.1747      0.39469349
       2955.5537      0.50659665
       2955.9328      0.45505448
       2956.3118      0.34659436
       2956.6908      0.36873842
       2957.0699      0.25492233
       2957.4489      0.40748534
       2957.8280      0.39981231
       2958.2070      0.31813997
       2958.5861      0.42887212
       2958.9651      0.38001015
       2959.3441      0.40492299
       2959.7232      0.31109493
       2960.1022      0.29160058
       2960.4813      0.30722363
       2960.8603      0.37485404
       2961.2393      0.38138252
       2961.6184      0.53270427
       2961.9974      0.39960713
       2962.3765      0.30359747
       2962.7555      0.19643852
       2963.1345      0.38081175
       2963.5136      0.38495571
       2963.8926      0.39219070
       2964.2717      0.43412964
       2964.6507      0.49038793
       2965.0297      0.33321730
       2965.4088      0.50843939
       2965.7878      0.42754023
       2966.1669      0.39696439
       2966.5459      0.33000898
       2966.9249      0.30957868
       2967.3040      0.35136197
       2967.6830      0.58054508
       2968.0621      0.33264315
       2968.4411      0.38553086
       2968.8201      0.26837218
       2969.1992      0.47288723
       2969.5782      0.44910443
       2969.9573      0.38295906
       2970.3363      0.29476326
       2970.7153      0.45991941
       2971.0944      0.36891141
       2971.4734      0.37053006
       2971.8525      0.23118219
       2972.2315      0.39792954
       2972.6106      0.44827120
       2972.9896      0.32545741
       2973.3686      0.51028447
       2973.7477      0.41125412
       2974.1267      0.32638827
       2974.5058      0.46183878
       2974.8848      0.34464499
       2975.2638      0.45628810
       2975.6429      0.42172448
       2976.0219      0.58364015
       2976.4010      0.39262152
       2976.7800      0.41148968
       2977.1590      0.29254269
       2977.5381      0.40044130
       2977.9171      0.46846432
       2978.2962      0.38308873
       2978.6752      0.45690359
       2979.0542      0.34220891
       2979.4333      0.27298752
       2979.8123      0.49732899
       2980.1914      0.35614789
       2980.5704      0.37397030
       2980.9494      0.64970498
       2981.3285      0.41981395
       2981.7075      0.45988645
       2982.0866      0.37664162
       2982.4656      0.32251687
       2982.8446      0.25329289
       2983.2237      0.53187296
       2983.6027      0.41919579
       2983.9818      0.36611875
       2984.3608      0.45615148
       2984.7398      0.54956080
       2985.1189      0.39341403
       2985.4979      0.40496704
       2985.8770      0.35085922
       2986.2560      0.42770171
       2986.6351      0.37601429
       2987.0141      0.24710271
       2987.3931      0.31265478
       2987.7722      0.38169743
       2988.1512      0.35279262
       2988.5303      0.38181872
       2988.9093      0.32608429
       2989.2883      0.23483359
       2989.6674      0.30988150
       2990.0464      0.49922932
       2990.4255      0.31769196
       2990.8045      0.44820517
       2991.1835      0.50216043
       2991.5626      0.42293660
       2991.9416      0.38489415
       2992.3207      0.47291747
       2992.6997      0.51476738
       2993.0787      0.19610224
       2993.4578      0.50216724
       2993.8368      0.31510037
       2994.2159      0.44006312
       2994.5949      0.31693488
       2994.9739      0.38249033
       2995.3530      0.45539553
       2995.7320      0.32048936
       2996.1111      0.48708135
       2996.4901      0.45766584
       2996.8691      0.58996168
       2997.2482      0.72236608
       2997.6272       1.1871435
       2998.0063      0.67982340
       2998.3853      0.52490518
       2998.7644      0.44875093
       2999.1434      0.70852378
       2999.5224      0.61783158
       2999.9015      0.75469004
       3000.2805      0.28978970
       3000.6596     -0.18491243
       3001.0386    -0.010440892
       3001.4176      -1.2326584
       3001.7967     -0.58881297
       3002.1757      0.59991349
       3002.5548       1.1495403
       3002.9338      0.53531294
       3003.3128      0.36021001
       3003.6919      0.76868986
       3004.0709      0.72205185
       3004.4500     -0.35210052
       3004.8290      -2.0119852
       3005.2080     -0.62814730
       3005.5871      0.34505890
       3005.9661      0.51608933
       3006.3452      0.73921180
       3006.7242      0.39946096
       3007.1032      0.22019927
       3007.4823      0.61673719
       3007.8613      0.50718799
       3008.2404      0.37722412
       3008.6194      0.58869755
       3008.9984    -0.070569134
       3009.3775     0.075249177
       3009.7565    -0.064834853
       3010.1356      0.31495964
       3010.5146      0.19028708
       3010.8936      0.26234361
       3011.2727      0.52464894
       3011.6517      0.28451555
       3012.0308      0.25010903
       3012.4098      0.34149007
       3012.7889      0.21820191
       3013.1679      0.40062311
       3013.5469      0.36666292
       3013.9260      0.22527427
       3014.3050      0.34808605
       3014.6841      0.34553251
       3015.0631      0.20313768
       3015.4421      0.33687685
       3015.8212      0.20787883
       3016.2002      0.30119919
       3016.5793      0.33243480
       3016.9583      0.47645568
       3017.3373      0.34807728
       3017.7164      0.45149358
       3018.0954      0.39063255
       3018.4745      0.68302725
       3018.8535       1.3882634
       3019.2325       2.2650038
       3019.6116       1.1400319
       3019.9906       1.6736369
       3020.3697      0.55466938
       3020.7487     -0.67990502
       3021.1277      -1.9456236
       3021.5068      -3.6969101
       3021.8858      -1.7081662
       3022.2649     -0.51485143
       3022.6439     0.026195418
       3023.0229      0.14827065
       3023.4020      0.54257581
       3023.7810     -0.17517820
       3024.1601      0.49426425
       3024.5391      0.25404480
       3024.9181     -0.22211995
       3025.2972      0.39034673
       3025.6762      0.29486378
       3026.0553      0.24027345
       3026.4343      0.36782721
       3026.8134      0.25984437
       3027.1924      0.36461223
       3027.5714      0.57780297
       3027.9505      0.62113279
       3028.3295      0.57977477
       3028.7086      0.37184352
       3029.0876      0.28879953
       3029.4666      0.15397512
       3029.8457      0.36435593
       3030.2247     0.015902798
       3030.6038      0.17034259
       3030.9828      0.40474724
       3031.3618      0.47118897
       3031.7409      0.32428566
       3032.1199      0.27674996
       3032.4990      0.39059264
       3032.8780      0.84627664
       3033.2570      0.50035194
       3033.6361      0.61200401
       3034.0151      0.41070011
       3034.3942      0.85103539
       3034.7732      0.77368505
       3035.1522     -0.41892603
       3035.5313     -0.32787607
       3035.9103     0.019236653
       3036.2894    0.0043395387
       3036.6684      0.37893366
       3037.0474      0.28298702
       3037.4265      0.29782098
       3037.8055      0.38505111
       3038.1846      0.25807965
       3038.5636      0.46373926
       3038.9426      0.73817424
       3039.3217       1.4422491
       3039.7007       1.5206241
       3040.0798       1.2751169
       3040.4588     -0.26501353
       3040.8379     -0.55596502
       3041.2169      0.15500492
       3041.5959      -1.2239163
       3041.9750     -0.17506519
       3042.3540      0.89348511
       3042.7331      0.41886083
       3043.1121      0.39840299
       3043.4911      0.37711177
       3043.8702      0.35877225
       3044.2492      0.40556085
       3044.6283      0.31041857
       3045.0073      0.26486995
       3045.3863      0.91282153
       3045.7654      0.13251894
       3046.1444      0.70635711
       3046.5235      0.69703746
       3046.9025      0.74326418
       3047.2815     -0.30656881
       3047.6606     0.051575159
       3048.0396     -0.47562619
       3048.4187      0.10602913
       3048.7977      0.40668322
       3049.1767      0.43133712
       3049.5558      0.18579170
       3049.9348      0.39140635
       3050.3139      0.47434555
       3050.6929      0.54525285
       3051.0719       1.1672432
       3051.4510       1.5601301
       3051.8300       1.6229411
       3052.2091      0.53926658
       3052.5881       1.4254331
       3052.9671     -0.94677384
       3053.3462      -1.4644760
       3053.7252      -1.0952221
       3054.1043      0.12877733
       3054.4833    -0.039981495
       3054.8624      0.40229708
       3055.2414      0.38652646
       3055.6204      0.40282684
       3055.9995      0.40744499
       3056.3785      0.31598283
       3056.7576      0.48760241
       3057.1366      0.39402217
       3057.5156      0.41893402
       3057.8947      0.28813784
       3058.2737      0.32686016
       3058.6528      0.33311998
       3059.0318      0.36796475
       3059.4108      0.74653855
       3059.7899       1.2207096
       3060.1689      0.76466584
       3060.5480      0.64091728
       3060.9270      0.36970140
       3061.3060     -0.26192920
       3061.6851     -0.24997800
       3062.0641      0.19578220
       3062.4432     0.045896808
       3062.8222    -0.072805684
       3063.2012      0.10292784
       3063.5803      0.35216791
       3063.9593      0.43614089
       3064.3384      0.78017650
       3064.7174       1.3753670
       3065.0964       1.3079148
       3065.4755       1.1388528
       3065.8545      0.59456224
       3066.2336      0.36231678
       3066.6126      -1.0031649
       3066.9916     -0.74730644
       3067.3707     -0.63930699
       3067.7497      0.67318249
       3068.1288      0.14974106
       3068.5078      0.27726894
       3068.8869      0.20182911
       3069.2659      0.47224333
       3069.6449      0.35637745
       3070.0240      0.28922108
       3070.4030      0.26785688
       3070.7821      0.32498408
       3071.1611      0.34928597
       3071.5401      0.47553307
       3071.9192      0.34804523
       3072.2982      0.48923178
       3072.6773      0.15113362
       3073.0563      0.25041149
       3073.4353      0.47663037
       3073.8144      0.12474764
       3074.1934      0.42682300
       3074.5725      0.51104406
       3074.9515      0.69749611
       3075.3305      0.62436883
       3075.7096      0.62941908
       3076.0886      0.49728425
       3076.4677      0.34426995
       3076.8467      0.51934962
       3077.2257      0.11769915
       3077.6048     0.073795013
       3077.9838      0.45287278
       3078.3629     0.035461335
       3078.7419      0.25058818
       3079.1209      0.36832401
       3079.5000      0.51822072
       3079.8790      0.84474717
       3080.2581      0.51174373
       3080.6371      0.67455144
       3081.0162       1.0106311
       3081.3952      0.43894093
       3081.7742     -0.31799038
       3082.1533     -0.85111689
       3082.5323     -0.16148304
       3082.9114      0.32706909
       3083.2904      0.39275067
       3083.6694      0.53727762
       3084.0485      0.39136404
       3084.4275      0.49356596
       3084.8066      0.37000095
       3085.1856      0.29124679
       3085.5646      0.39626579
       3085.9437      0.45413645
       3086.3227      0.35275590
       3086.7018      0.38732239
       3087.0808      0.24623142
       3087.4598      0.22551029
       3087.8389      0.45282878
       3088.2179      0.44610548
       3088.5970      0.15550190
       3088.9760      0.45100195
       3089.3550      0.24726457
       3089.7341      0.55618763
       3090.1131      0.26718072
       3090.4922      0.44191067
       3090.8712      0.47211224
       3091.2502      0.40011426
       3091.6293      0.41780631
       3092.0083      0.29038870
       3092.3874      0.41391580
       3092.7664      0.41575428
       3093.1454      0.66521976
       3093.5245      0.46182221
       3093.9035      0.46393924
       3094.2826      0.33551305
       3094.6616      0.19271488
       3095.0407      0.23846256
       3095.4197     0.081050483
       3095.7987      0.25122396
       3096.1778      0.49609711
       3096.5568      0.59879733
       3096.9359      0.66536172
       3097.3149      0.69369231
       3097.6939      0.42272073
       3098.0730      0.43757590
       3098.4520     0.046161835
       3098.8311      0.25688337
       3099.2101      0.23273994
       3099.5891      0.59575340
       3099.9682      0.36526896
       3100.3472      0.44375267
       3100.7263      0.28059314
       3101.1053      0.27710983
       3101.4843      0.46920126
       3101.8634      0.53642636
       3102.2424      0.30117481
       3102.6215      0.51531452
       3103.0005      0.41896137
       3103.3795      0.25821669
       3103.7586      0.49636582
       3104.1376      0.27575445
       3104.5167      0.20090854
       3104.8957      0.31929583
       3105.2747      0.31405426
       3105.6538      0.41925685
       3106.0328      0.43104624
       3106.4119      0.55152857
       3106.7909      0.35964741
       3107.1699      0.48012837
       3107.5490      0.26816606
       3107.9280      0.47740585
       3108.3071      0.70297336
       3108.6861      0.36553340
       3109.0652      0.47726119
       3109.4442      0.22051345
       3109.8232      0.32302706
       3110.2023      0.56195543
       3110.5813      0.39007020
       3110.9604      0.12095864
       3111.3394      0.43828047
       3111.7184      0.35903871
       3112.0975      0.99367886
       3112.4765      0.31286739
       3112.8556      0.25462700
       3113.2346      0.70939301
       3113.6136      0.28040545
       3113.9927      0.37345263
       3114.3717      0.29055114
       3114.7508      0.35243016
       3115.1298      0.23321505
       3115.5088      0.55565791
       3115.8879      0.32849003
       3116.2669      0.85290945
       3116.6460      0.35784601
       3117.0250      0.65554115
       3117.4040      0.38265375
       3117.7831      0.37437463
       3118.1621      0.10343120
       3118.5412      0.24056828
       3118.9202      0.26017956
       3119.2992      0.22874426
       3119.6783      0.62682963
       3120.0573      0.60678136
       3120.4364      0.32857963
       3120.8154      0.50310518
       3121.1944   -0.0035746718
       3121.5735      0.69416946
       3121.9525       1.2705386
       3122.3316       1.1601302
       3122.7106      0.87336561
       3123.0897      0.65992561
       3123.4687    -0.092699264
       3123.8477     -0.65452515
       3124.2268     -0.12314661
       3124.6058    -0.011756073
       3124.9849      0.40006423
       3125.3639      0.41742231
       3125.7429      0.70764647
       3126.1220      0.37254518
       3126.5010      0.16438777
       3126.8801     0.076083094
       3127.2591      0.64808437
       3127.6381      0.19535968
       3128.0172      0.53737740
       3128.3962      0.56620438
       3128.7753      0.48179032
       3129.1543      0.92846386
       3129.5333      0.29846184
       3129.9124      0.29349137
       3130.2914     -0.74311273
       3130.6705     -0.48729345
       3131.0495     0.087550785
       3131.4285      0.19929508
       3131.8076      0.12484177
       3132.1866      0.48471672
       3132.5657      0.52748775
       3132.9447      0.63734640
       3133.3237      0.42750562
       3133.7028      0.33436883
       3134.0818      0.64538763
       3134.4609      0.56758139
       3134.8399      0.15985048
       3135.2189      0.11917672
       3135.5980      0.17188760
       3135.9770     -0.24087896
       3136.3561      0.19721452
       3136.7351      0.29297766
       3137.1142      0.42231078
       3137.4932      0.29077743
       3137.8722      0.24831034
       3138.2513      0.32490048
       3138.6303    -0.023101585
       3139.0094      0.57624957
       3139.3884      0.30030448
       3139.7674      0.29245798
       3140.1465      0.46556276
       3140.5255      0.45187048
       3140.9046      0.31356610
       3141.2836      0.48687266
       3141.6626      0.37995852
       3142.0417      0.29523784
       3142.4207      0.33891174
       3142.7998      0.50292099
       3143.1788      0.49453627
       3143.5578      0.44472097
       3143.9369      0.51356634
       3144.3159      0.42129053
       3144.6950      0.39082709
       3145.0740      0.27027341
       3145.4530      0.41419210
       3145.8321      0.52883227
       3146.2111      0.40772063
       3146.5902      0.35501461
       3146.9692      0.15138593
       3147.3482      0.55127638
       3147.7273      0.46794244
       3148.1063      0.34293291
       3148.4854      0.32441312
       3148.8644      0.53051308
       3149.2434      0.43187318
       3149.6225      0.53631654
       3150.0015      0.71058594
       3150.3806      0.82229818
       3150.7596       2.2339621
       3151.1387       2.0481204
       3151.5177       1.6913379
       3151.8967       1.7740060
       3152.2758      0.86625241
       3152.6548     -0.75061712
       3153.0339      -2.2912326
       3153.4129     -0.98706084
       3153.7919      0.16440199
       3154.1710     -0.16968383
       3154.5500      0.31458196
       3154.9291     0.013440481
       3155.3081     0.018595643
       3155.6871    -0.047587072
       3156.0662     -0.30640789
       3156.4452      0.36719923
       3156.8243      0.48827705
       3157.2033      0.58061375
       3157.5823      0.41020443
       3157.9614      0.48089996
       3158.3404      0.58127209
       3158.7195      0.92388496
       3159.0985      0.38537890
       3159.4775      0.44858140
       3159.8566      0.63520089
       3160.2356    -0.016732033
       3160.6147      0.59769769
       3160.9937      0.47541475
       3161.3727      0.32462509
       3161.7518      0.20964241
       3162.1308      0.36180570
       3162.5099      0.39827536
       3162.8889      0.45540039
       3163.2680      0.53441775
       3163.6470      0.50258444
       3164.0260      0.36983124
       3164.4051     0.083656958
       3164.7841      0.30994151
       3165.1632      0.42437644
       3165.5422      0.41512583
       3165.9212      0.40431148
       3166.3003      0.26226556
       3166.6793      0.47907120
       3167.0584      0.43474351
       3167.4374      0.55485819
       3167.8164      0.68963442
       3168.1955      0.41889711
       3168.5745      0.46758766
       3168.9536      0.77961086
       3169.3326      0.85252046
       3169.7116      0.87138359
       3170.0907      0.41926843
       3170.4697       1.0010088
       3170.8488      0.29391356
       3171.2278     0.082391153
       3171.6068     -0.10213030
       3171.9859      0.34221436
       3172.3649      0.37817599
       3172.7440      0.36569535
       3173.1230      0.33914794
       3173.5020      0.33908764
       3173.8811      0.40904047
       3174.2601      0.35738878
       3174.6392      0.52599269
       3175.0182      0.38591459
       3175.3972      0.38379839
       3175.7763      0.44534977
       3176.1553      0.89305390
       3176.5344       1.9708080
       3176.9134       3.2159794
       3177.2925       1.4884233
       3177.6715      0.69770771
       3178.0505    -0.081536377
       3178.4296      -2.1150658
       3178.8086      -2.5605126
       3179.1877     -0.48606644
       3179.5667      0.20291703
       3179.9457      0.22852327
       3180.3248      0.41558393
       3180.7038      0.72967691
       3181.0829      0.52411257
       3181.4619      0.33734371
       3181.8409      0.28646772
       3182.2200      0.38667103
       3182.5990      0.40736866
       3182.9781      0.27868376
       3183.3571      0.59029021
       3183.7361      0.67958235
       3184.1152      0.81014139
       3184.4942      0.75767289
       3184.8733      0.26575828
       3185.2523      0.35469949
       3185.6313     -0.31430679
       3186.0104    -0.083848898
       3186.3894      0.59299684
       3186.7685      0.15619449
       3187.1475      0.53764786
       3187.5265      0.37700553
       3187.9056      0.33031354
       3188.2846      0.37324044
       3188.6637      0.38954754
       3189.0427      0.46927314
       3189.4217      0.63159475
       3189.8008       1.2897908
       3190.1798       2.0766033
       3190.5589       1.9925222
       3190.9379      0.57198745
       3191.3170      0.69285564
       3191.6960     -0.60917008
       3192.0750     -0.86665662
       3192.4541     -0.61154075
       3192.8331      0.22287814
       3193.2122      0.15295403
       3193.5912      0.18052146
       3193.9702      0.42471427
       3194.3493      0.64281313
       3194.7283      0.45314407
       3195.1074      0.32804093
       3195.4864      0.45058056
       3195.8654      0.33929409
       3196.2445      0.40011074
       3196.6235      0.46088686
       3197.0026      0.33541095
       3197.3816      0.46689546
       3197.7606      0.63171059
       3198.1397      0.70153098
       3198.5187      0.87173040
       3198.8978       1.2096583
       3199.2768       1.7318139
       3199.6558       1.6128678
       3200.0349       1.9487799
       3200.4139       2.4393802
       3200.7930      0.57487982
       3201.1720    -0.092697735
       3201.5510     -0.10243284
       3201.9301     -0.46866014
       3202.3091      -1.5419537
       3202.6882     -0.49042481
       3203.0672      0.19000464
       3203.4462      0.81945935
       3203.8253      0.93810577
       3204.2043       1.0724760
       3204.5834       1.1232155
       3204.9624      0.88162282
       3205.3415     -0.19195310
       3205.7205     -0.40193328
       3206.0995     -0.56492713
       3206.4786     -0.17165022
       3206.8576     0.033201412
       3207.2367     -0.75177730
       3207.6157    -0.016627479
       3207.9947      0.46359644
       3208.3738      0.62469630
       3208.7528      0.17469809
       3209.1319      0.33481374
       3209.5109     -0.13108937
       3209.8899      0.75225125
       3210.2690     0.010217261
       3210.6480     0.063748524
       3211.0271      0.28421708
       3211.4061      0.29434631
       3211.7851      0.34937075
       3212.1642      0.20873585
       3212.5432      0.62696679
       3212.9223      0.46662589
       3213.3013      0.54668676
       3213.6803      0.15046925
       3214.0594      0.39335584
       3214.4384      0.48531625
       3214.8175      0.52827310
       3215.1965      0.50801505
       3215.5755      0.40685581
       3215.9546      0.38365500
       3216.3336      0.68905717
       3216.7127      0.58115610
       3217.0917      0.49381206
       3217.4707      0.71507657
       3217.8498      0.34886230
       3218.2288      0.59577083
       3218.6079      0.46765878
       3218.9869      0.56246587
       3219.3660     0.049087441
       3219.7450     0.080528988
       3220.1240      0.31615152
       3220.5031      0.82222370
       3220.8821       2.2747656
       3221.2612       1.8032634
       3221.6402       1.7350457
       3222.0192       2.6404109
       3222.3983     -0.25566992
       3222.7773      0.65788650
       3223.1564      -1.8737226
       3223.5354     -0.44114559
       3223.9144      0.10273560
       3224.2935      0.65455068
       3224.6725      0.48373469
       3225.0516       1.0100229
       3225.4306      0.45003941
       3225.8096      0.89794813
       3226.1887      0.62341726
       3226.5677     0.050338840
       3226.9468     -0.43026843
       3227.3258     -0.53905553
       3227.7048      0.20817848
       3228.0839    -0.041717050
       3228.4629      0.43115907
       3228.8420      0.47313700
       3229.2210      0.47442964
       3229.6000      0.38962089
       3229.9791      0.53791844
       3230.3581      0.28813685
       3230.7372      0.35808217
       3231.1162      0.18482403
       3231.4952      0.44284120
       3231.8743      0.36640027
       3232.2533      0.37916644
       3232.6324      0.52801322
       3233.0114    -0.032304444
       3233.3905      0.32932196
       3233.7695      0.35753683
       3234.1485      0.42008553
       3234.5276      0.50194804
       3234.9066      0.15867963
       3235.2857      0.25106358
       3235.6647      0.35160196
       3236.0437      0.58948103
       3236.4228      0.35688338
       3236.8018      0.77174050
       3237.1809     -0.10158904
       3237.5599      0.29583543
       3237.9389      0.54313744
       3238.3180     -0.15977975
       3238.6970     -0.35529316
       3239.0761      0.61695679
       3239.4551      0.51761648
       3239.8341      0.43817826
       3240.2132      0.72770778
       3240.5922      0.57194571
       3240.9713      0.23623513
       3241.3503      0.12282634
       3241.7293      0.17673186
       3242.1084      0.48031337
       3242.4874      0.40947354
       3242.8665      0.81719731
       3243.2455       1.5751901
       3243.6245       1.1189456
       3244.0036      0.16252944
       3244.3826      0.98594764
       3244.7617       1.3327123
       3245.1407      -1.3952450
       3245.5198     -0.36644762
       3245.8988      0.18487418
       3246.2778      0.26248302
       3246.6569      0.52593341
       3247.0359      0.32917863
       3247.4150      0.31767074
       3247.7940      0.37759846
       3248.1730      0.27664193
       3248.5521      0.60952099
       3248.9311      0.35862007
       3249.3102      0.94983527
       3249.6892       1.1396451
       3250.0682     0.045310710
       3250.4473      0.29617527
       3250.8263      0.99548034
       3251.2054      0.34604606
       3251.5844       1.6017751
       3251.9634     -0.14078861
       3252.3425    -0.019561038
       3252.7215      0.37129805
       3253.1006     0.048267237
       3253.4796      0.29366474
       3253.8586      0.47107774
       3254.2377      0.10134583
       3254.6167      0.44721519
       3254.9958      0.52074971
       3255.3748      0.38980388
       3255.7538      0.33352852
       3256.1329      0.16303234
       3256.5119      0.44756908
       3256.8910       1.3853149
       3257.2700     -0.52324384
       3257.6490      0.80764507
       3258.0281     -0.72537360
       3258.4071     -0.87687825
       3258.7862      0.33204131
       3259.1652      0.77931198
       3259.5443      0.29991012
       3259.9233      0.19479691
       3260.3023      0.45264457
       3260.6814      0.40150882
       3261.0604      0.34665136
       3261.4395      0.46285284
       3261.8185      0.44387309
       3262.1975      0.69963182
       3262.5766      0.73881929
       3262.9556      0.53679325
       3263.3347      0.49921619
       3263.7137    -0.036748842
       3264.0927      0.21112575
       3264.4718      0.23522230
       3264.8508      0.54067273
       3265.2299      0.12974935
       3265.6089      0.79288004
       3265.9879      0.92782557
       3266.3670    -0.042770806
       3266.7460      0.41556487
       3267.1251      0.65551859
       3267.5041      0.60551002
       3267.8831     0.079398953
       3268.2622      0.67636337
       3268.6412      0.48657317
       3269.0203      0.56538592
       3269.3993      0.14923362
       3269.7783     -0.33048784
       3270.1574      0.34461904
       3270.5364      0.18412560
       3270.9155      0.93399428
       3271.2945       1.0272525
       3271.6735       3.6301362
       3272.0526       1.9103312
       3272.4316      0.22284430
       3272.8107     -0.40206673
       3273.1897      0.39803166
       3273.5688      0.57916390
       3273.9478      0.96028555
       3274.3268      0.38232079
       3274.7059      0.30523884
       3275.0849      0.97009233
       3275.4640      0.70564739
       3275.8430     -0.27984666
       3276.2220     -0.22991460
       3276.6011      0.30121450
       3276.9801       1.8238128
       3277.3592       1.1386706
       3277.7382      0.58276951
       3278.1172      0.10229352
       3278.4963     0.019669842
       3278.8753      0.34641904
       3279.2544      0.24025290
       3279.6334     -0.42559841
       3280.0124      0.36120535
       3280.3915    -0.073724154
       3280.7705      0.28248453
       3281.1496       1.3152034
       3281.5286      0.40582327
       3281.9076      0.15386692
       3282.2867     -0.32791194
       3282.6657      0.11242330
       3283.0448      0.14856998
       3283.4238      0.65197063
       3283.8028       1.1791889
       3284.1819       1.5137986
       3284.5609     0.050020014
       3284.9400       1.8727093
       3285.3190      0.74348386
       3285.6980     -0.56367172
       3286.0771      0.90110121
       3286.4561      -1.1951510
       3286.8352      0.28698812
       3287.2142      0.30081093
       3287.5933      0.52010468
       3287.9723     0.067772659
       3288.3513       1.0231481
       3288.7304      0.32776773
       3289.1094      0.73535278
       3289.4885     -0.11301271
       3289.8675     -0.59317226
       3290.2465     -0.14736979
       3290.6256      0.43214959
       3291.0046     -0.65638019
       3291.3837      0.10671618
       3291.7627     -0.51438341
       3292.1417     -0.66520948
       3292.5208     0.032058371
       3292.8998    -0.051517034
       3293.2789      0.37832628
       3293.6579      0.43366610
