# wavelength flux
       2651.8578    -0.016111626
       2652.7362     0.063137090
       2653.6145    -0.010914219
       2654.4929    -0.016259365
       2655.3713    -0.018446920
       2656.2496     0.012777985
       2657.1280     0.035749091
       2658.0063     0.012002203
       2658.8847   0.00097904877
       2659.7631    -0.020509677
       2660.6414    -0.042488443
       2661.5198    -0.048422592
       2662.3982   -0.0084950915
       2663.2765   -0.0038236125
       2664.1549     0.029186211
       2665.0332    -0.033892978
       2665.9116     0.026381195
       2666.7900   -0.0014218975
       2667.6683   -0.0030028443
       2668.5467     0.032644153
       2669.4250     0.027163051
       2670.3034    -0.036261929
       2671.1818    -0.053946433
       2672.0601    -0.022786859
       2672.9385    -0.025308584
       2673.8168    -0.024866859
       2674.6952    -0.014849818
       2675.5736    0.0094792558
       2676.4519     0.025307466
       2677.3303    -0.011179397
       2678.2087    -0.044835522
       2679.0870    -0.035994259
       2679.9654    -0.023283058
       2680.8437    0.0061265951
       2681.7221    -0.046835740
       2682.6005     0.055325422
       2683.4788    -0.011561877
       2684.3572  -0.00091449290
       2685.2355     0.024408836
       2686.1139     0.040649207
       2686.9923    -0.020009483
       2687.8706    -0.044761107
       2688.7490    -0.026019512
       2689.6273    -0.037394991
       2690.5057    -0.023929869
       2691.3841     0.045560510
       2692.2624     0.019691216
       2693.1408     0.033566868
       2694.0192     0.081474867
       2694.8975     0.016265529
       2695.7759    -0.030436430
       2696.6542     0.023622554
       2697.5326    -0.020154701
       2698.4110     0.036100882
       2699.2893   -0.0080658431
       2700.1677     0.014195133
       2701.0460    0.0087162109
       2701.9244     0.019245034
       2702.8028    -0.074224999
       2703.6811    -0.024658611
       2704.5595    -0.015929496
       2705.4378    -0.030022048
       2706.3162     0.015446343
       2707.1946   -0.0053711734
       2708.0729    -0.023084818
       2708.9513     0.014045143
       2709.8296     0.023582621
       2710.7080    -0.013134851
       2711.5864     0.028416445
       2712.4647     0.028832670
       2713.3431    -0.017741801
       2714.2215    -0.014882574
       2715.0998   0.00016628041
       2715.9782    -0.034018255
       2716.8565    -0.020235217
       2717.7349    0.0033068314
       2718.6133    0.0090625864
       2719.4916   -0.0077242919
       2720.3700     0.031720988
       2721.2483    -0.015943263
       2722.1267    -0.010391714
       2723.0051     0.062173233
       2723.8834     0.033941079
       2724.7618    0.0026347377
       2725.6401    -0.042437365
       2726.5185    -0.016955671
       2727.3969    -0.019569804
       2728.2752    -0.028258295
       2729.1536    -0.029387342
       2730.0320     0.047581349
       2730.9103    0.0053271896
       2731.7887     0.020551696
       2732.6670    -0.019056650
       2733.5454     0.045745230
       2734.4238     0.028000667
       2735.3021   -0.0087849868
       2736.1805     0.041404415
       2737.0588   -0.0051215906
       2737.9372    -0.010077880
       2738.8156    0.0038443172
       2739.6939    0.0052566149
       2740.5723     0.017855990
       2741.4506     0.033002510
       2742.3290     0.027663939
       2743.2074     0.030302194
       2744.0857  -0.00091966094
       2744.9641     0.025347637
       2745.8425    -0.043953370
       2746.7208    -0.032542715
       2747.5992     0.021819369
       2748.4775   -0.0017123667
       2749.3559    -0.035445138
       2750.2343     0.039556580
       2751.1126     0.034298808
       2751.9910     0.042702092
       2752.8693     0.044148028
       2753.7477     0.053619768
       2754.6261     0.016585594
       2755.5044     0.012786289
       2756.3828    -0.013934655
       2757.2611     0.040717907
       2758.1395     0.049242806
       2759.0179   -0.0053925122
       2759.8962     0.014048757
       2760.7746     0.018978308
       2761.6529     0.044884522
       2762.5313    0.0025576118
       2763.4097    0.0086654929
       2764.2880    0.0027223341
       2765.1664    -0.015560801
       2766.0448    -0.015174382
       2766.9231   -0.0090803395
       2767.8015    0.0059836322
       2768.6798     0.028868363
       2769.5582    -0.023749592
       2770.4366     0.018288802
       2771.3149   -0.0090421268
       2772.1933   0.00079604868
       2773.0716   -0.0075539822
       2773.9500    -0.013073409
       2774.8284   -0.0084986733
       2775.7067    -0.027509901
       2776.5851    -0.014435079
       2777.4634     0.013013265
       2778.3418     0.012009973
       2779.2202  -0.00035761395
       2780.0985     0.029381821
       2780.9769     0.026110506
       2781.8553   -0.0090334673
       2782.7336     0.017636829
       2783.6120     0.016753846
       2784.4903     0.020009473
       2785.3687     0.028370405
       2786.2471    0.0043064430
       2787.1254    -0.017779650
       2788.0038   -0.0054982539
       2788.8821     0.023481511
       2789.7605    0.0037247154
       2790.6389     0.012541778
       2791.5172  -0.00079297902
       2792.3956    -0.033293113
       2793.2739     0.024088166
       2794.1523     0.027253476
       2795.0307    0.0030474822
       2795.9090   -0.0033934492
       2796.7874    0.0039146175
       2797.6658     0.026521998
       2798.5441   -0.0013816203
       2799.4225    0.0018343278
       2800.3008     0.019003388
       2801.1792   -0.0048008590
       2802.0576     0.015673021
       2802.9359     0.032425368
       2803.8143     0.032893576
       2804.6926     0.020026992
       2805.5710    0.0083742206
       2806.4494    -0.021577571
       2807.3277    -0.015093258
       2808.2061     0.042827061
       2809.0844     0.013010603
       2809.9628    -0.010553218
       2810.8412     0.014435457
       2811.7195     0.013831486
       2812.5979     0.025437181
       2813.4762    0.0091670673
       2814.3546     0.018989679
       2815.2330    -0.021325146
       2816.1113   -0.0040976977
       2816.9897    -0.022782705
       2817.8681    -0.016173420
       2818.7464    -0.018208607
       2819.6248   -0.0098499991
       2820.5031    0.0072190032
       2821.3815   -0.0083946618
       2822.2599     0.015726566
       2823.1382     0.026567614
       2824.0166    0.0056660023
       2824.8949     0.022493675
       2825.7733     0.011313065
       2826.6517   -0.0045504979
       2827.5300    -0.020036876
       2828.4084     0.012387448
       2829.2867    0.0020634838
       2830.1651    -0.023653509
       2831.0435    -0.010523124
       2831.9218     0.014653032
       2832.8002   0.00091111024
       2833.6786   -0.0061358270
       2834.5569   -0.0035069500
       2835.4353   -0.0042847378
       2836.3136     0.038869318
       2837.1920     0.018746432
       2838.0704    -0.029761822
       2838.9487     0.041115453
       2839.8271     0.043305439
       2840.7054     0.011297017
       2841.5838   -0.0039136702
       2842.4622     0.029346636
       2843.3405    0.0084605978
       2844.2189   -0.0087503776
       2845.0972    -0.010428200
       2845.9756     0.029433861
       2846.8540    -0.018131704
       2847.7323    0.0078809151
       2848.6107    0.0064314022
       2849.4891     0.022442556
       2850.3674     0.011529245
       2851.2458    -0.019646867
       2852.1241   -0.0050123427
       2853.0025    -0.048292776
       2853.8809    0.0038758633
       2854.7592     0.015319644
       2855.6376     0.012112848
       2856.5159    -0.026458079
       2857.3943    -0.039336861
       2858.2727    0.0027300764
       2859.1510   -0.0033579160
       2860.0294    0.0036751647
       2860.9077     0.018086866
       2861.7861   -0.0048528005
       2862.6645    -0.024773885
       2863.5428    0.0074631167
       2864.4212    0.0068541193
       2865.2995    0.0066283697
       2866.1779    0.0070462772
       2867.0563     0.020007188
       2867.9346   -0.0023090962
       2868.8130    0.0039587678
       2869.6914     0.019506126
       2870.5697     0.025936714
       2871.4481     0.015023055
       2872.3264     0.024174877
       2873.2048     0.024222486
       2874.0832     0.023110288
       2874.9615    0.0010165181
       2875.8399     0.012237620
       2876.7182    -0.014433931
       2877.5966    0.0072764754
       2878.4750    0.0017495904
       2879.3533     0.019998462
       2880.2317     0.023369440
       2881.1100     0.010673606
       2881.9884     0.017646342
       2882.8668     0.022459365
       2883.7451  -0.00074712999
       2884.6235    0.0011544589
       2885.5019   -0.0012074139
       2886.3802     0.013455096
       2887.2586   -0.0029316756
       2888.1369     0.018936725
       2889.0153     0.043098990
       2889.8937    0.0018665332
       2890.7720     0.045192385
       2891.6504     0.041237588
       2892.5287     0.013826780
       2893.4071    -0.023250160
       2894.2855    -0.027567600
       2895.1638    -0.013119158
       2896.0422     0.024566531
       2896.9205     0.025914860
       2897.7989     0.056043873
       2898.6773    -0.013721918
       2899.5556    0.0017297132
       2900.4340    -0.021814116
       2901.3124  -0.00099620928
       2902.1907     0.029686797
       2903.0691    0.0097753220
       2903.9474     0.020521268
       2904.8258    0.0029473248
       2905.7042     0.010017681
       2906.5825     0.025922785
       2907.4609     0.016177868
       2908.3392    -0.010203766
       2909.2176     0.033992469
       2910.0960     0.015110010
       2910.9743    0.0084457433
       2911.8527     0.021878322
       2912.7310     0.039548717
       2913.6094     0.048874539
       2914.4878     0.038222074
       2915.3661   -0.0028150707
       2916.2445    -0.019680546
       2917.1228   -0.0080722619
       2918.0012     0.024622273
       2918.8796   -0.0069841046
       2919.7579     0.017458185
       2920.6363     0.023091718
       2921.5147     0.012363339
       2922.3930   -0.0077081756
       2923.2714   0.00067665245
       2924.1497    0.0072020179
       2925.0281     0.035696320
       2925.9065    0.0072112126
       2926.7848    -0.015587324
       2927.6632    0.0024555985
       2928.5415     0.014607414
       2929.4199     0.010043194
       2930.2983     0.032537611
       2931.1766     0.031777213
       2932.0550   -0.0012040172
       2932.9333     0.010981924
       2933.8117   -0.0095096393
       2934.6901   -0.0020092901
       2935.5684    0.0050414337
       2936.4468   -0.0094931713
       2937.3252    0.0052247012
       2938.2035    0.0077739473
       2939.0819     0.014554514
       2939.9602     0.014780347
       2940.8386  -0.00040317897
       2941.7170     0.024183558
       2942.5953   -0.0059994550
       2943.4737    0.0053325671
       2944.3520    0.0041617558
       2945.2304    0.0057973857
       2946.1088    0.0022254744
       2946.9871     0.019546503
       2947.8655    0.0066011668
       2948.7438     0.010461366
       2949.6222     0.014711926
       2950.5006     0.025087473
       2951.3789     0.034643561
       2952.2573    0.0095010104
       2953.1357    0.0086407759
       2954.0140     0.016496471
       2954.8924    -0.014047405
       2955.7707     0.042384813
       2956.6491     0.016540778
       2957.5275    -0.020732765
       2958.4058     0.018629840
       2959.2842     0.025881486
       2960.1625     0.020402694
       2961.0409    -0.013509555
       2961.9193     0.018392403
       2962.7976     0.053272157
       2963.6760   0.00062661247
       2964.5543    -0.016207443
       2965.4327   -0.0043576743
       2966.3111     0.017644671
       2967.1894     0.027345379
       2968.0678     0.011038901
       2968.9461     0.010128273
       2969.8245     0.037664162
       2970.7029    -0.022308977
       2971.5812     0.019294160
       2972.4596    0.0011760070
       2973.3380     0.012676582
       2974.2163    0.0022591838
       2975.0947    -0.011090493
       2975.9730   -0.0052735950
       2976.8514     0.026483652
       2977.7298     0.026750539
       2978.6081     0.036275073
       2979.4865     0.014726043
       2980.3648    0.0044270908
       2981.2432     0.013793606
       2982.1216     0.011683071
       2982.9999    0.0087725398
       2983.8783     0.021711215
       2984.7566    0.0099900176
       2985.6350     0.018430673
       2986.5134     0.024652760
       2987.3917    0.0062468816
       2988.2701   -0.0066704068
       2989.1485   -0.0047713050
       2990.0268   -0.0011041433
       2990.9052     0.021626104
       2991.7835   -0.0070464353
       2992.6619     0.018537949
       2993.5403   -0.0032460446
       2994.4186    0.0088927080
       2995.2970     0.026882287
       2996.1753    0.0016407373
       2997.0537     0.013444961
       2997.9321     0.023507466
       2998.8104     0.014095199
       2999.6888     0.026448936
       3000.5671    -0.020320933
       3001.4455     0.010168678
       3002.3239     0.038353663
       3003.2022    0.0044015559
       3004.0806     0.025494450
       3004.9590     0.019405122
       3005.8373     0.024949988
       3006.7157    0.0090084560
       3007.5940     0.036873931
       3008.4724     0.024681603
       3009.3508    0.0039037613
       3010.2291   -0.0026871955
       3011.1075   -0.0054695786
       3011.9858     0.019775416
       3012.8642    0.0043711804
       3013.7426   -0.0011064256
       3014.6209     0.014530540
       3015.4993   -0.0049264216
       3016.3776   0.00015331866
       3017.2560    0.0039544507
       3018.1344   3.2083131e-05
       3019.0127     0.019227400
       3019.8911     0.016926921
       3020.7694   -0.0035855075
       3021.6478  -8.4851942e-05
       3022.5262    -0.019813161
       3023.4045   -0.0066051759
       3024.2829   -0.0025065083
       3025.1613    0.0068319003
       3026.0396    0.0010015661
       3026.9180     0.012223348
       3027.7963     0.019099841
       3028.6747     0.022005222
       3029.5531     0.030587881
       3030.4314     0.012950133
       3031.3098     0.019565426
       3032.1881     0.042089657
       3033.0665     0.024488183
       3033.9449    -0.016700317
       3034.8232     0.028649230
       3035.7016    0.0071952810
       3036.5799     0.034322743
       3037.4583     0.046432241
       3038.3367     0.017702880
       3039.2150   -0.0044830895
       3040.0934   -0.0065492127
       3040.9718    0.0051582706
       3041.8501    0.0078231008
       3042.7285   -0.0058180770
       3043.6068    0.0081543997
       3044.4852   -0.0073480547
       3045.3636     0.015026780
       3046.2419     0.027270169
       3047.1203     0.021531220
       3047.9986     0.016675820
       3048.8770     0.014558963
       3049.7554     0.017218648
       3050.6337    -0.010553236
       3051.5121     0.042208621
       3052.3904     0.029271906
       3053.2688    0.0091218827
       3054.1472    0.0042890890
       3055.0255    -0.017523988
       3055.9039    -0.013551703
       3056.7823  -0.00093182854
       3057.6606    0.0035137736
       3058.5390    0.0029872044
       3059.4173     0.013335621
       3060.2957     0.018370428
       3061.1741     0.018738944
       3062.0524     0.049115133
       3062.9308     0.025367787
       3063.8091     0.023522836
       3064.6875    0.0091993659
       3065.5659    -0.013098729
       3066.4442    -0.016783827
       3067.3226    -0.016611708
       3068.2009     0.043558301
       3069.0793     0.043383066
       3069.9577     0.030617102
       3070.8360     0.018081973
       3071.7144     0.037286134
       3072.5927     0.027136649
       3073.4711     0.017368704
       3074.3495    0.0058801188
       3075.2278   -0.0017501226
       3076.1062   -0.0010956642
       3076.9846    0.0056270015
       3077.8629     0.012232174
       3078.7413    0.0071386499
       3079.6196     0.027427163
       3080.4980   -0.0019770740
       3081.3764     0.019435342
       3082.2547     0.027321871
       3083.1331   -0.0099678816
       3084.0114   -0.0090791086
       3084.8898    -0.013758417
       3085.7682    0.0014322887
       3086.6465    0.0074232353
       3087.5249     0.029176539
       3088.4032    0.0061357171
       3089.2816   0.00017922186
       3090.1600    0.0031663017
       3091.0383   -0.0057718390
       3091.9167   -0.0055172257
       3092.7951     0.030082146
       3093.6734     0.010457789
       3094.5518     0.020830681
       3095.4301   -0.0059365963
       3096.3085     0.012334116
       3097.1869    -0.010871296
       3098.0652    0.0087980633
       3098.9436    -0.014314315
       3099.8219     0.013701814
       3100.7003   0.00076688827
       3101.5787    0.0026475181
       3102.4570    0.0072000707
       3103.3354    -0.012772233
       3104.2137     0.017203059
       3105.0921    0.0095052518
       3105.9705     0.016108022
       3106.8488     0.010877762
       3107.7272   -0.0033321914
       3108.6056    -0.021935824
       3109.4839     0.023270365
       3110.3623     0.023301623
       3111.2406   -0.0094139536
       3112.1190     0.015842429
       3112.9974    0.0091811839
       3113.8757     0.035130157
       3114.7541     0.021625840
       3115.6324    0.0087838732
       3116.5108     0.012963905
       3117.3892    0.0065621619
       3118.2675     0.010535688
       3119.1459  -0.00034376484
       3120.0242     0.012615682
       3120.9026    0.0069154289
       3121.7810     0.014653260
       3122.6593    0.0093205148
       3123.5377   0.00010760340
       3124.4160     0.010613284
       3125.2944    0.0011312155
       3126.1728     0.027044978
       3127.0511     0.024611601
       3127.9295     0.011823120
       3128.8079    0.0033837435
       3129.6862   -0.0090661085
       3130.5646  -3.8948045e-05
       3131.4429    -0.014779293
       3132.3213    -0.021698760
       3133.1997    0.0093780328
       3134.0780     0.016304673
       3134.9564   -0.0019983953
       3135.8347    -0.017955807
       3136.7131    -0.023093050
       3137.5915   -0.0047948109
       3138.4698     0.045861833
       3139.3482     0.042953180
       3140.2265     0.031243296
       3141.1049     0.034732247
       3141.9833     0.011912445
       3142.8616     0.013644013
       3143.7400   0.00011651100
       3144.6184     0.049847518
       3145.4967     0.025795217
       3146.3751     0.017660422
       3147.2534   -0.0014646162
       3148.1318     0.038867887
       3149.0102     0.025572471
       3149.8885     0.024647084
       3150.7669    0.0018551374
       3151.6452     0.020601342
       3152.5236   -0.0091391803
       3153.4020   -0.0061392606
       3154.2803    0.0037471087
       3155.1587    -0.018217360
       3156.0370     0.013712792
       3156.9154    0.0065780939
       3157.7938     0.012336056
       3158.6721     0.027198874
       3159.5505    0.0085875738
       3160.4289    0.0034805457
       3161.3072   -0.0029221364
       3162.1856    0.0076155792
       3163.0639     0.016114849
       3163.9423     0.015803339
       3164.8207    0.0046116596
       3165.6990     0.024584743
       3166.5774     0.012627876
       3167.4557   -0.0020650748
       3168.3341     0.023761414
       3169.2125    0.0062432977
       3170.0908    0.0020311691
       3170.9692    0.0022799547
       3171.8475     0.010892839
       3172.7259    0.0015424834
       3173.6043    0.0080857794
       3174.4826    0.0049064317
       3175.3610     0.033466999
       3176.2393    0.0072096322
       3177.1177     0.030643521
       3177.9961     0.024646642
       3178.8744     0.011444039
       3179.7528     0.013741283
       3180.6312     0.017339845
       3181.5095     0.031365759
       3182.3879     0.019255901
       3183.2662     0.011568458
       3184.1446     0.021751274
       3185.0230     0.012624912
       3185.9013    0.0054212458
       3186.7797    0.0045507992
       3187.6580     0.016628230
       3188.5364    0.0038109824
       3189.4148    0.0044424157
       3190.2931    0.0015510526
       3191.1715   -0.0084567926
       3192.0498     0.012558481
       3192.9282     0.020865368
       3193.8066   -0.0030405909
       3194.6849     0.018439596
       3195.5633    0.0015950173
       3196.4417    0.0095116638
       3197.3200     0.016908830
       3198.1984     0.020555427
       3199.0767     0.030684397
       3199.9551     0.027602481
       3200.8335    0.0085308530
       3201.7118     0.030047741
       3202.5902     0.045489786
       3203.4685     0.027471369
       3204.3469     0.011087025
       3205.2253     0.022718980
       3206.1036   -0.0028482811
       3206.9820    0.0088632074
       3207.8603    -0.014792412
       3208.7387     0.013564700
       3209.6171   -0.0028757066
       3210.4954   -0.0055713045
       3211.3738    0.0090422769
       3212.2522     0.016419513
       3213.1305     0.012787514
       3214.0089    0.0042931929
       3214.8872   -0.0022079117
       3215.7656     0.017937093
       3216.6440     0.016797057
       3217.5223     0.019839987
       3218.4007     0.012574964
       3219.2790    0.0098002841
       3220.1574   -0.0011827609
       3221.0358     0.015897801
       3221.9141     0.012206352
       3222.7925    0.0077346520
       3223.6708  -0.00029217858
       3224.5492     0.014081885
       3225.4276     0.013850190
       3226.3059     0.029959086
       3227.1843    0.0079095400
       3228.0626    0.0058174993
       3228.9410     0.023828162
       3229.8194   -0.0042115149
       3230.6977     0.015064117
       3231.5761     0.020051028
       3232.4545     0.022819152
       3233.3328     0.010611722
       3234.2112     0.011542261
       3235.0895     0.026532501
       3235.9679    0.0086829038
       3236.8463     0.025308208
       3237.7246    -0.013836607
       3238.6030    0.0078785899
       3239.4813    0.0063962506
       3240.3597    0.0098343006
       3241.2381     0.011931881
       3242.1164     0.021807642
       3242.9948     0.011731836
       3243.8731     0.016404881
       3244.7515     0.017872655
       3245.6299     0.019434198
       3246.5082     0.011863807
       3247.3866     0.010372286
       3248.2650    0.0087853676
       3249.1433     0.014121540
       3250.0217     0.013907456
       3250.9000     0.034052767
       3251.7784     0.024150360
       3252.6568     0.024787908
       3253.5351    0.0052867252
       3254.4135  -0.00078557255
       3255.2918    0.0088997513
       3256.1702     0.025366125
       3257.0486  -0.00039704395
       3257.9269    0.0064756431
       3258.8053     0.012511048
       3259.6836     0.034649045
       3260.5620     0.043855074
       3261.4404    0.0014508738
       3262.3187     0.018183752
       3263.1971     0.024160173
       3264.0755    -0.012614195
       3264.9538     0.022261241
       3265.8322     0.022436605
       3266.7105     0.021663620
       3267.5889     0.021304534
       3268.4673     0.016282147
       3269.3456     0.037809274
       3270.2240    0.0078727865
       3271.1023   0.00053478537
       3271.9807     0.019195918
       3272.8591     0.018258026
       3273.7374     0.020652122
       3274.6158     0.040103537
       3275.4941    0.0082349291
       3276.3725     0.020805740
       3277.2509     0.023297470
       3278.1292    0.0039145943
       3279.0076    0.0010423701
       3279.8859     0.038638413
       3280.7643     0.023371450
       3281.6427     0.031657130
       3282.5210     0.038211419
       3283.3994     0.025242130
       3284.2778    0.0058200503
       3285.1561   -0.0087187893
       3286.0345    -0.012019564
       3286.9128     0.019508622
       3287.7912   0.00031435402
       3288.6696     0.026807981
       3289.5479     0.020515485
       3290.4263     0.027352135
       3291.3046     0.011323105
       3292.1830   -0.0035377439
       3293.0614     0.025109489
       3293.9397     0.027268518
       3294.8181     0.010525896
       3295.6964     0.013269433
       3296.5748    0.0037276453
       3297.4532     0.011189697
       3298.3315    0.0084116703
       3299.2099     0.033093373
       3300.0883     0.021102391
       3300.9666     0.031448177
       3301.8450     0.026615879
       3302.7233    0.0011137779
       3303.6017   -0.0022215640
       3304.4801     0.011149036
       3305.3584     0.030597807
       3306.2368     0.015494782
       3307.1151     0.016493912
       3307.9935     0.018422474
       3308.8719     0.022095722
       3309.7502   -0.0060974443
       3310.6286     0.040459504
       3311.5069     0.013057816
       3312.3853     0.011993494
       3313.2637    0.0066229161
       3314.1420   -0.0035886264
       3315.0204     0.022980160
       3315.8988     0.030325296
       3316.7771    0.0028986255
       3317.6555     0.011875734
       3318.5338    -0.014238951
       3319.4122   -0.0026697597
       3320.2906    0.0085573767
       3321.1689     0.022691979
       3322.0473     0.010987082
       3322.9256     0.012897997
       3323.8040     0.018024807
       3324.6824     0.036269971
       3325.5607     0.034068454
       3326.4391     0.017220602
       3327.3174     0.024623479
       3328.1958     0.020509114
       3329.0742     0.010207860
       3329.9525    0.0019727618
       3330.8309     0.010214071
       3331.7092    0.0044938817
       3332.5876   -0.0091757969
       3333.4660    0.0043157129
       3334.3443     0.013640114
       3335.2227     0.016768162
       3336.1011     0.012077863
       3336.9794     0.025080147
       3337.8578     0.029579118
       3338.7361     0.015140619
       3339.6145     0.019334524
       3340.4929     0.038974389
       3341.3712     0.014469454
       3342.2496     0.031719040
       3343.1279     0.017058361
       3344.0063     0.014754228
       3344.8847     0.027113511
       3345.7630  -0.00054731259
       3346.6414     0.039055143
       3347.5197     0.044509349
       3348.3981     0.025267617
       3349.2765     0.016796416
       3350.1548     0.012234776
       3351.0332    -0.013962917
       3351.9116   -0.0015205880
       3352.7899     0.012235934
       3353.6683  -0.00075939727
       3354.5466   -0.0035437491
       3355.4250     0.015433998
       3356.3034     0.039799237
       3357.1817    0.0056737077
       3358.0601    0.0077685505
       3358.9384    0.0062623449
       3359.8168     0.023717337
       3360.6952    0.0067773468
       3361.5735     0.023553439
       3362.4519     0.014195881
       3363.3302    0.0077025903
       3364.2086     0.020807414
       3365.0870    0.0089744291
       3365.9653     0.026847472
       3366.8437     0.034323971
       3367.7221    0.0098266965
       3368.6004     0.022037168
       3369.4788     0.011029984
       3370.3571    0.0022477458
       3371.2355     0.036648840
       3372.1139     0.046576785
       3372.9922     0.010140543
       3373.8706     0.017906542
       3374.7489   0.00081389729
       3375.6273    -0.010644765
       3376.5057     0.025206543
       3377.3840    0.0044976918
       3378.2624     0.040823139
       3379.1407     0.029380780
       3380.0191     0.023271442
       3380.8975     0.045479058
       3381.7758  -0.00022893497
       3382.6542     0.011102931
       3383.5325   -0.0090283370
       3384.4109   0.00079846104
       3385.2893     0.027278050
       3386.1676   -0.0070210471
       3387.0460     0.036474615
       3387.9244     0.015105211
       3388.8027     0.037168464
       3389.6811     0.020559688
       3390.5594     0.053443196
       3391.4378     0.057731190
       3392.3162     0.027767214
       3393.1945  -0.00030010882
       3394.0729   -0.0056351183
       3394.9512     0.016979165
       3395.8296     0.013271161
       3396.7080     0.011455690
       3397.5863     0.027245528
       3398.4647     0.029718741
       3399.3430     0.011155665
       3400.2214     0.011680782
       3401.0998     0.024743103
       3401.9781     0.016765903
       3402.8565     0.018544111
       3403.7349     0.020990195
       3404.6132    0.0043587525
       3405.4916     0.027687511
       3406.3699     0.049947156
       3407.2483     0.027867372
       3408.1267     0.048428274
       3409.0050     0.030118683
       3409.8834     0.016753695
       3410.7617     0.014675067
       3411.6401   -0.0025709001
       3412.5185     0.017259402
       3413.3968     0.018622176
       3414.2752     0.017638780
       3415.1535    0.0045218998
       3416.0319     0.033505111
       3416.9103     0.021998606
       3417.7886     0.021847904
       3418.6670     0.026590522
       3419.5454    0.0076967660
       3420.4237     0.029220407
       3421.3021     0.033638215
       3422.1804     0.017586684
       3423.0588    0.0086751736
       3423.9372    0.0088520294
       3424.8155     0.012977377
       3425.6939    0.0089841590
       3426.5722     0.012046147
       3427.4506     0.021316309
       3428.3290     0.017106529
       3429.2073     0.025173126
       3430.0857     0.029672902
       3430.9640     0.011343588
       3431.8424     0.015113084
       3432.7208     0.020561073
       3433.5991     0.037882905
       3434.4775    0.0079706506
       3435.3558   0.00047116147
       3436.2342     0.012980391
       3437.1126     0.024696801
       3437.9909    0.0095731884
       3438.8693     0.022647106
       3439.7477     0.016328962
       3440.6260     0.022425269
       3441.5044     0.020930156
       3442.3827     0.011192394
       3443.2611     0.024373431
       3444.1395     0.017154342
       3445.0178    0.0045174871
       3445.8962     0.032806990
       3446.7745    0.0010659177
       3447.6529    0.0078470084
       3448.5313     0.021639844
       3449.4096     0.025241254
       3450.2880    0.0086100166
       3451.1663    0.0086933928
       3452.0447    0.0074315305
       3452.9231     0.010752256
       3453.8014     0.023666992
       3454.6798     0.011369968
       3455.5582     0.020469218
       3456.4365    0.0012314622
       3457.3149   -0.0085422445
       3458.1932    0.0053383994
       3459.0716     0.016383255
       3459.9500    0.0079005324
       3460.8283   -0.0049052378
       3461.7067     0.031282622
       3462.5850     0.028104509
       3463.4634     0.020091638
       3464.3418    0.0089762465
       3465.2201    0.0079944786
       3466.0985    0.0067071613
       3466.9768     0.039173984
       3467.8552     0.032911285
       3468.7336     0.023675753
       3469.6119     0.016946415
       3470.4903    0.0090170650
       3471.3687     0.026794607
       3472.2470     0.026713488
       3473.1254    0.0073282766
       3474.0037     0.016246700
       3474.8821     0.023424432
       3475.7605     0.021120882
       3476.6388     0.010401372
       3477.5172     0.027707152
       3478.3955     0.019859661
       3479.2739     0.020894891
       3480.1523     0.017156995
       3481.0306     0.031859000
       3481.9090     0.019400533
       3482.7873    -0.011209881
       3483.6657     0.020372148
       3484.5441     0.028034995
       3485.4224     0.044231324
       3486.3008     0.025518678
       3487.1791     0.045540812
       3488.0575   -0.0011574732
       3488.9359     0.018621168
       3489.8142     0.037154069
       3490.6926     0.034632259
       3491.5710     0.013553110
       3492.4493     0.023844840
       3493.3277     0.030715355
       3494.2060     0.012285980
       3495.0844     0.011255561
       3495.9628     0.014394522
       3496.8411   -0.0047937082
       3497.7195     0.016292566
       3498.5978     0.014174867
       3499.4762     0.037654970
       3500.3546    0.0090165658
       3501.2329    0.0025917915
       3502.1113     0.022864644
       3502.9896     0.019921881
       3503.8680     0.017513612
       3504.7464   -0.0082619876
       3505.6247   -0.0051375715
       3506.5031     0.021244987
       3507.3815     0.025712244
       3508.2598     0.029176023
       3509.1382     0.015382897
       3510.0165     0.012528829
       3510.8949    0.0034967049
       3511.7733     0.024371599
       3512.6516     0.037198366
       3513.5300     0.028822485
       3514.4083     0.031831670
       3515.2867    0.0011395309
       3516.1651     0.035706383
       3517.0434     0.035610284
       3517.9218   -0.0048594250
       3518.8001     0.026546483
       3519.6785     0.045463588
       3520.5569   0.00081095206
       3521.4352     0.012760268
       3522.3136     0.015870297
       3523.1920     0.029191061
       3524.0703     0.018324836
       3524.9487     0.035334866
       3525.8270     0.040868468
       3526.7054     0.022104067
       3527.5838     0.027287011
       3528.4621     0.034848282
       3529.3405     0.011912535
       3530.2188     0.012833638
       3531.0972     0.022573484
       3531.9756     0.019336442
       3532.8539    -0.013312231
       3533.7323   -0.0010457681
       3534.6106     0.017282712
       3535.4890    0.0084302902
       3536.3674   0.00031926546
       3537.2457    0.0060214915
       3538.1241    0.0026296494
       3539.0024    0.0017570770
       3539.8808   -0.0025863591
       3540.7592     0.028743585
       3541.6375    0.0059900200
       3542.5159   -0.0036071886
       3543.3943    -0.012903987
       3544.2726     0.010590314
       3545.1510     0.040974587
       3546.0293     0.024790770
       3546.9077     0.017165539
       3547.7861     0.021786580
       3548.6644    0.0066648725
       3549.5428     0.037375332
       3550.4211     0.029601078
       3551.2995     0.032146744
       3552.1779     0.019883674
       3553.0562     0.022120030
       3553.9346     0.025004804
       3554.8129     0.010675407
       3555.6913     0.018742559
       3556.5697     0.017461934
       3557.4480     0.028093692
       3558.3264     0.011043050
       3559.2048     0.025258667
       3560.0831     0.019594968
       3560.9615     0.025664126
       3561.8398    0.0081503039
       3562.7182     0.039608419
       3563.5966     0.040757436
       3564.4749     0.039273571
       3565.3533     0.019952353
       3566.2316     0.017562685
       3567.1100     0.025224509
       3567.9884   -0.0032427892
       3568.8667     0.023869426
       3569.7451     0.037210515
       3570.6234     0.021089685
       3571.5018     0.031544935
       3572.3802     0.030781077
       3573.2585     0.022532966
       3574.1369   -0.0027319720
       3575.0153     0.013208499
       3575.8936     0.021128701
       3576.7720    0.0093797978
       3577.6503     0.012622422
       3578.5287     0.016802334
       3579.4071     0.031391717
       3580.2854     0.026247383
       3581.1638    0.0063305856
       3582.0421     0.015248067
       3582.9205    0.0094669142
       3583.7989  -0.00015974043
       3584.6772     0.026077041
       3585.5556     0.023758654
       3586.4339    0.0028598759
       3587.3123   6.3752957e-05
       3588.1907     0.050623854
       3589.0690     0.042139798
       3589.9474     0.028656735
       3590.8257     0.017725820
       3591.7041     0.017481824
       3592.5825     0.043379455
       3593.4608     0.029281326
       3594.3392     0.041866255
       3595.2176     0.032306563
       3596.0959     0.024006598
       3596.9743     0.022997726
       3597.8526     0.015232900
       3598.7310     0.038492523
       3599.6094     0.014760104
       3600.4877     0.021232226
       3601.3661    0.0010911560
       3602.2444  -0.00087706977
       3603.1228    0.0066373161
       3604.0012     0.012234624
       3604.8795     0.025816725
       3605.7579     0.030797892
       3606.6362     0.025576304
       3607.5146     0.018619545
       3608.3930     0.010822927
       3609.2713     0.017046709
       3610.1497     0.013070018
       3611.0281    0.0094387015
       3611.9064     0.024509147
       3612.7848    0.0017920389
       3613.6631    0.0050377953
       3614.5415    0.0093712252
       3615.4199     0.029585308
       3616.2982   0.00019497742
       3617.1766     0.026790559
       3618.0549     0.028112502
       3618.9333     0.033575803
       3619.8117    0.0072807051
       3620.6900    0.0078721703
       3621.5684     0.015683092
       3622.4467     0.021492351
       3623.3251     0.032242155
       3624.2035     0.018305509
       3625.0818     0.029336212
       3625.9602   0.00041472622
       3626.8386     0.012645100
       3627.7169     0.026792920
       3628.5953    0.0068661365
       3629.4736     0.022729740
       3630.3520     0.010770767
       3631.2304    0.0020770323
       3632.1087    0.0020797436
       3632.9871     0.017086477
       3633.8654    0.0067860780
       3634.7438     0.026141386
       3635.6222     0.033604094
       3636.5005     0.017859025
       3637.3789     0.034008581
       3638.2572     0.051224431
       3639.1356     0.043011108
       3640.0140     0.025747568
       3640.8923     0.012987687
       3641.7707     0.013009895
       3642.6490     0.014221261
       3643.5274    0.0085642087
       3644.4058     0.031616178
       3645.2841     0.030155473
       3646.1625     0.011589318
       3647.0409     0.017718340
       3647.9192   -0.0041504419
       3648.7976     0.017547911
       3649.6759     0.011383169
       3650.5543     0.036299552
       3651.4327    0.0019251827
       3652.3110    0.0024286260
       3653.1894     0.028673384
       3654.0677     0.038112078
       3654.9461     0.029836522
       3655.8245     0.014229083
       3656.7028   -0.0053193569
       3657.5812     0.010454137
       3658.4595     0.012263381
       3659.3379     0.037862599
       3660.2163     0.035723959
       3661.0946     0.022852116
       3661.9730     0.023976553
       3662.8514     0.011517680
       3663.7297     0.027088502
       3664.6081     0.010592472
       3665.4864     0.034427161
       3666.3648     0.028543057
       3667.2432     0.017874317
       3668.1215     0.015872551
       3668.9999     0.017082738
       3669.8782     0.013445925
       3670.7566     0.035587543
       3671.6350     0.012913943
       3672.5133     0.012581794
       3673.3917     0.021745108
       3674.2700     0.044905870
       3675.1484     0.016567557
       3676.0268     0.028014514
       3676.9051     0.013656728
       3677.7835     0.037091499
       3678.6619    0.0070451483
       3679.5402    0.0084961238
       3680.4186    0.0044151570
       3681.2969    -0.013879990
       3682.1753     0.026521585
       3683.0537     0.035228768
       3683.9320     0.017226263
       3684.8104     0.020795207
       3685.6887     0.021760805
       3686.5671     0.020624579
       3687.4455     0.025148207
       3688.3238     0.028165761
       3689.2022     0.024210476
       3690.0805    0.0039009223
       3690.9589     0.016103548
       3691.8373     0.023016097
       3692.7156    0.0029477067
       3693.5940     0.031181686
       3694.4723    -0.013724625
       3695.3507     0.024961344
       3696.2291   0.00028442332
       3697.1074    0.0069445873
       3697.9858     0.018238595
       3698.8642     0.038844534
       3699.7425    0.0036280719
       3700.6209    0.0080220931
       3701.4992     0.022195061
       3702.3776     0.026051591
       3703.2560     0.013355092
       3704.1343     0.015323498
       3705.0127     0.035116638
       3705.8910     0.017975608
       3706.7694     0.062940907
       3707.6478     0.030447287
       3708.5261     0.017723639
       3709.4045     0.055626790
       3710.2828     0.038507322
       3711.1612     0.015561316
       3712.0396     0.023236223
       3712.9179     0.033896765
       3713.7963     0.048404649
       3714.6747     0.020651398
       3715.5530    0.0077587202
       3716.4314    0.0079089876
       3717.3097     0.047103813
       3718.1881     0.013274257
       3719.0665   -0.0086650609
       3719.9448    -0.013365244
       3720.8232    -0.013860762
       3721.7015     0.022286857
       3722.5799     0.031910098
       3723.4583     0.050717346
       3724.3366     0.065872662
       3725.2150     0.067652357
       3726.0933     0.054255541
       3726.9717     0.064410483
       3727.8501     0.092477751
       3728.7284     0.059622373
       3729.6068     0.081638469
       3730.4852     0.071090170
       3731.3635     0.026848378
       3732.2419     0.026120860
       3733.1202     0.022652583
       3733.9986     0.026807742
       3734.8770     0.013057012
       3735.7553    0.0066959861
       3736.6337    0.0099794160
       3737.5120     0.012028330
       3738.3904     0.026050014
       3739.2688   -0.0024197460
       3740.1471     0.050965877
       3741.0255     0.031801693
       3741.9038     0.027872159
       3742.7822     0.019345341
       3743.6606     0.017792827
       3744.5389     0.053576544
       3745.4173     0.037678512
       3746.2956   -0.0015026782
       3747.1740   -0.0046160770
       3748.0524     0.018473265
       3748.9307     0.028787668
       3749.8091     0.032736902
       3750.6875    0.0035476283
       3751.5658    0.0083881917
       3752.4442    -0.015852643
       3753.3225     0.029906250
       3754.2009     0.042816781
       3755.0793     0.039814956
       3755.9576     0.039382717
       3756.8360     0.036592358
       3757.7143     0.010675853
       3758.5927     0.017009649
       3759.4711     0.029187999
       3760.3494     0.015102842
       3761.2278     0.047716305
       3762.1061   -0.0027032669
       3762.9845     0.043872543
       3763.8629     0.021791245
       3764.7412     0.052060778
       3765.6196     0.022911967
       3766.4980     0.024245858
       3767.3763     0.029502826
       3768.2547    0.0046032753
       3769.1330   -0.0034593742
       3770.0114     0.050610437
       3770.8898     0.016902930
       3771.7681     0.068597193
       3772.6465     0.057621853
       3773.5248     0.018103923
       3774.4032     0.046123790
       3775.2816     0.054212325
       3776.1599     0.048086752
       3777.0383     0.013499873
       3777.9166     0.035852870
       3778.7950     0.034443207
       3779.6734     0.059083201
       3780.5517     0.037654876
       3781.4301     0.046788431
       3782.3085     0.024777331
       3783.1868     0.056235458
       3784.0652     0.042269492
       3784.9435   -0.0024331681
       3785.8219    0.0014129795
       3786.7003    0.0076507431
       3787.5786     0.048558472
       3788.4570     0.021522071
       3789.3353     0.050976320
       3790.2137     0.047837348
       3791.0921    0.0078942429
       3791.9704    0.0054296459
       3792.8488     0.012430577
       3793.7271     0.033680475
       3794.6055     0.049811871
       3795.4839     0.026903406
       3796.3622     0.010477568
       3797.2406    0.0056136673
       3798.1189     0.032005214
       3798.9973     0.036947350
       3799.8757     0.035089965
       3800.7540     0.047806141
       3801.6324     0.018251228
       3802.5108     0.014068583
       3803.3891     0.028972298
       3804.2675     0.045119502
       3805.1458     0.042453278
       3806.0242     0.041707086
       3806.9026     0.012424560
       3807.7809     0.029938741
       3808.6593     0.036078724
       3809.5376     0.055195714
       3810.4160     0.038102991
       3811.2944     0.042578701
       3812.1727    -0.015620416
       3813.0511     0.029777509
       3813.9294     0.031650402
       3814.8078     0.025551035
       3815.6862     0.010726193
       3816.5645     0.043280268
       3817.4429     0.026035691
       3818.3213     0.043543439
       3819.1996    0.0029069965
       3820.0780     0.015591510
       3820.9563     0.017774708
       3821.8347     0.018691264
       3822.7131     0.025736551
       3823.5914     0.035436563
       3824.4698     0.032775846
       3825.3481     0.073384056
       3826.2265     0.057679210
       3827.1049     0.038042492
       3827.9832     0.017584769
       3828.8616     0.027214714
       3829.7399     0.022172873
       3830.6183     0.033731536
       3831.4967     0.032644843
       3832.3750     0.014926826
       3833.2534    0.0062669962
       3834.1318  -0.00098574803
       3835.0101     0.015737037
       3835.8885     0.030207976
       3836.7668     0.038130274
       3837.6452     0.031773904
       3838.5236     0.039725344
       3839.4019   -0.0027386427
       3840.2803     0.069037397
       3841.1586     0.026361637
       3842.0370     0.034064652
       3842.9154     0.059655266
       3843.7937     0.037636803
       3844.6721     0.043119212
       3845.5504     0.030175897
       3846.4288     0.016406046
       3847.3072     0.064529178
       3848.1855     0.066572728
       3849.0639     0.029469613
       3849.9422     0.057987724
       3850.8206     0.064231572
       3851.6990     0.046008457
       3852.5773     0.035584201
       3853.4557     0.049131336
       3854.3341     0.025410593
       3855.2124     0.019735611
       3856.0908     0.026722810
       3856.9691     0.042545123
       3857.8475     0.041080817
       3858.7259     0.048659373
       3859.6042     0.049410136
       3860.4826     0.024733564
       3861.3609     0.024894633
       3862.2393     0.041037223
       3863.1177     0.025114816
       3863.9960     0.014837376
       3864.8744     0.024782397
       3865.7527     0.041158498
       3866.6311     0.028215645
       3867.5095     0.048693978
       3868.3878     0.014249309
       3869.2662     0.046741556
       3870.1446     0.026075767
       3871.0229     0.042796191
       3871.9013     0.064892831
       3872.7796     0.039323369
       3873.6580     0.063719248
       3874.5364     0.029193403
       3875.4147     0.044820834
       3876.2931     0.022931086
       3877.1714     0.064078292
       3878.0498     0.035388536
       3878.9282     0.034436732
       3879.8065     0.029418671
       3880.6849    0.0045444540
       3881.5632    0.0053654926
       3882.4416     0.028515014
       3883.3200     0.044623351
       3884.1983     0.047692920
       3885.0767     0.049151485
       3885.9551     0.026343590
       3886.8334     0.016780861
       3887.7118     0.027541141
       3888.5901     0.027914752
       3889.4685    0.0021403391
       3890.3469     0.031348000
       3891.2252     0.013979080
       3892.1036     0.044390463
       3892.9819     0.045355223
       3893.8603     0.043256619
       3894.7387     0.038267796
       3895.6170     0.037028560
       3896.4954     0.028956985
       3897.3737     0.023474361
       3898.2521     0.046624366
       3899.1305     0.030645403
       3900.0088     0.021294016
       3900.8872     0.040998982
       3901.7655     0.073961586
       3902.6439     0.070603124
       3903.5223     0.035626972
       3904.4006     0.018239690
       3905.2790     0.019556422
       3906.1574     0.049748952
       3907.0357     0.037252960
       3907.9141     0.072011853
       3908.7924     0.040530565
       3909.6708     0.028153381
       3910.5492     0.030577411
       3911.4275     0.064481779
       3912.3059     0.041183422
       3913.1842     0.047136973
       3914.0626     0.010575687
       3914.9410   -0.0054523245
       3915.8193     0.027674695
       3916.6977     0.048315304
       3917.5760    0.0097004919
       3918.4544     0.056799648
       3919.3328     0.066617923
       3920.2111     0.035773016
       3921.0895     0.035570814
       3921.9679     0.034914139
       3922.8462     0.036885416
       3923.7246    0.0047359155
       3924.6029     0.018266384
       3925.4813     0.035869469
       3926.3597   -0.0045701540
       3927.2380    0.0099565230
       3928.1164     0.036135813
       3928.9947     0.038230895
       3929.8731     0.019530013
       3930.7515    0.0063182065
       3931.6298    0.0060212868
       3932.5082     0.058137584
       3933.3865    0.0093457650
       3934.2649     0.032209385
       3935.1433     0.027099024
       3936.0216    0.0074340474
       3936.9000     0.024566089
       3937.7784     0.060188214
       3938.6567     0.050882233
       3939.5351     0.041381545
       3940.4134     0.052004202
       3941.2918     0.046036334
       3942.1702   -0.0027431027
       3943.0485    -0.010076960
       3943.9269     0.028368895
       3944.8052     0.051478853
       3945.6836     0.027720011
       3946.5620     0.044573029
       3947.4403     0.050993821
       3948.3187     0.038548044
       3949.1970     0.035184415
       3950.0754     0.043331209
       3950.9538     0.064206065
       3951.8321     0.047344193
       3952.7105     0.048780006
       3953.5888    0.0083202934
       3954.4672     0.052146725
       3955.3456    0.0053858739
       3956.2239  -0.00032888566
       3957.1023     0.019031564
       3957.9807     0.023479413
       3958.8590     0.051593190
       3959.7374    0.0092446561
       3960.6157     0.028294998
       3961.4941     0.018539852
       3962.3725     0.030675725
       3963.2508    -0.010145081
       3964.1292    0.0099852010
       3965.0075    -0.014399764
       3965.8859    0.0091159702
       3966.7643     0.023225740
       3967.6426    0.0063232296
       3968.5210    0.0075759594
       3969.3993     0.015189231
       3970.2777   -0.0038051281
       3971.1561     0.036459377
       3972.0344     0.022723781
       3972.9128     0.046860490
       3973.7912     0.047845009
       3974.6695     0.019696626
       3975.5479     0.041555882
       3976.4262     0.047004427
       3977.3046     0.035301917
       3978.1830     0.028003231
       3979.0613     0.015259616
       3979.9397     0.051799143
       3980.8180     0.040497103
       3981.6964     0.087434240
       3982.5748     0.068086906
       3983.4531      0.10254260
       3984.3315      0.11998037
       3985.2098     0.092684870
       3986.0882     0.044350714
       3986.9666     0.017941770
       3987.8449     0.036565520
       3988.7233     0.050153227
       3989.6017     0.074626532
       3990.4800     0.038000463
       3991.3584     0.036276856
       3992.2367     0.042497727
       3993.1151     0.050433459
       3993.9935     0.055019099
       3994.8718     0.032606937
       3995.7502     0.032946283
       3996.6285     0.047004075
       3997.5069     0.044598413
       3998.3853     0.051329125
       3999.2636     0.027700301
       4000.1420     0.010757199
       4001.0203     0.031585831
       4001.8987     0.045050782
       4002.7771     0.018695154
       4003.6554     0.059354039
       4004.5338     0.058206792
       4005.4121     0.043749956
       4006.2905     0.025039339
       4007.1689     0.047271125
       4008.0472     0.050025783
       4008.9256     0.045136743
       4009.8040     0.059479132
       4010.6823     0.035018164
       4011.5607     0.024496367
       4012.4390     0.035479912
       4013.3174     0.050025574
       4014.1958     0.057192290
       4015.0741     0.035730194
       4015.9525     0.052200910
       4016.8308     0.020101893
       4017.7092     0.027963997
       4018.5876     0.041600585
       4019.4659     0.038251852
       4020.3443     0.044497583
       4021.2226     0.052399204
       4022.1010     0.043584138
       4022.9794     0.044271189
       4023.8577     0.069789366
       4024.7361     0.016860423
       4025.6145     0.018112370
       4026.4928     0.056360981
       4027.3712     0.053490208
       4028.2495     0.036553801
       4029.1279     0.034548518
       4030.0063     0.063876796
       4030.8846     0.066227963
       4031.7630     0.070744052
       4032.6413     0.048041411
       4033.5197     0.034021772
       4034.3981     0.016506161
       4035.2764     0.058665258
       4036.1548     0.081133543
       4037.0331     0.043873893
       4037.9115     0.023685199
       4038.7899     0.036961445
       4039.6682     0.032520648
       4040.5466     0.033912748
       4041.4250     0.055437826
       4042.3033     0.031678491
       4043.1817     0.027964469
       4044.0600     0.041652227
       4044.9384     0.036730058
       4045.8168     0.047467378
       4046.6951     0.053513411
       4047.5735     0.059345200
       4048.4518     0.033524857
       4049.3302     0.032506878
       4050.2086     0.054641104
       4051.0869     0.051030145
       4051.9653     0.031428013
       4052.8436     0.029005308
       4053.7220     0.059187715
       4054.6004     0.024378249
       4055.4787     0.055926778
       4056.3571     0.018192695
       4057.2354     0.053192733
       4058.1138     0.050297805
       4058.9922     0.045846772
       4059.8705     0.087916343
       4060.7489     0.055584585
       4061.6273     0.056635536
       4062.5056     0.065975446
       4063.3840     0.035155114
       4064.2623     0.035245282
       4065.1407     0.028198460
       4066.0191     0.033291927
       4066.8974     0.035024938
       4067.7758     0.062431303
       4068.6541     0.038875742
       4069.5325     0.063646684
       4070.4109     0.048498548
       4071.2892     0.047840225
       4072.1676     0.050623862
       4073.0459     0.038865976
       4073.9243     0.044547077
       4074.8027     0.054428831
       4075.6810     0.026701986
       4076.5594     0.043686451
       4077.4378     0.070582038
       4078.3161     0.027795442
       4079.1945     0.062986715
       4080.0728     0.070413581
       4080.9512     0.050734808
       4081.8296     0.042804646
       4082.7079     0.045626302
       4083.5863     0.062909175
       4084.4646     0.037674686
       4085.3430     0.057731944
       4086.2214     0.058325440
       4087.0997     0.035963448
       4087.9781     0.029002598
       4088.8564     0.056292916
       4089.7348     0.045554264
       4090.6132     0.035299581
       4091.4915     0.023446985
       4092.3699    0.0086883714
       4093.2483     0.045545184
       4094.1266     0.025278405
       4095.0050     0.026484779
       4095.8833     0.032878668
       4096.7617     0.028033776
       4097.6401     0.029353990
       4098.5184     0.042623279
       4099.3968     0.054530646
       4100.2751     0.066536609
       4101.1535     0.012843423
       4102.0319     0.040559998
       4102.9102     0.039410085
       4103.7886     0.037334404
       4104.6669     0.037277862
       4105.5453     0.052857692
       4106.4237     0.073848505
       4107.3020     0.033609404
       4108.1804     0.039626302
       4109.0587     0.027810173
       4109.9371     0.044230148
       4110.8155     0.059340800
       4111.6938     0.045397743
       4112.5722     0.060561271
       4113.4506     0.061409053
       4114.3289     0.053068201
       4115.2073     0.059419286
       4116.0856     0.038692085
       4116.9640    0.0053614335
       4117.8424     0.010057258
       4118.7207     0.066909659
       4119.5991     0.051220632
       4120.4774     0.031567003
       4121.3558     0.051453239
       4122.2342     0.041228827
       4123.1125     0.078583877
       4123.9909     0.013655623
       4124.8692     0.024106013
       4125.7476     0.026872117
       4126.6260     0.038888025
       4127.5043     0.049751465
       4128.3827     0.038472175
       4129.2611     0.046858889
       4130.1394     0.051392520
       4131.0178     0.048700921
       4131.8961     0.074636728
       4132.7745     0.035854718
       4133.6529     0.055173399
       4134.5312     0.078813475
       4135.4096     0.050500403
       4136.2879     0.064286239
       4137.1663     0.064756733
       4138.0447     0.029721317
       4138.9230    0.0050722021
       4139.8014   -0.0042314884
       4140.6797     0.035792723
       4141.5581     0.046492013
       4142.4365     0.070784257
       4143.3148     0.031539305
       4144.1932     0.049996726
       4145.0716     0.049572840
       4145.9499    0.0096793660
       4146.8283     0.040383719
       4147.7066     0.021893134
       4148.5850     0.068070521
       4149.4634     0.040499322
       4150.3417     0.051318981
       4151.2201     0.022553522
       4152.0984     0.053829197
       4152.9768     0.064828128
       4153.8552     0.027897896
       4154.7335     0.061366863
       4155.6119     0.040225962
       4156.4902     0.081556799
       4157.3686     0.052201206
       4158.2470     0.070117093
       4159.1253     0.072213114
       4160.0037     0.071557888
       4160.8820     0.058917429
       4161.7604     0.052712759
       4162.6388     0.059574761
       4163.5171     0.057813662
       4164.3955     0.011035606
       4165.2739     0.038170614
       4166.1522     0.043742318
       4167.0306     0.023268433
       4167.9089     0.030510795
       4168.7873     0.044621899
       4169.6657     0.038153585
       4170.5440     0.063820316
       4171.4224     0.082427297
       4172.3007     0.040766472
       4173.1791     0.093813155
       4174.0575     0.051442334
       4174.9358     0.074308326
       4175.8142     0.062608926
       4176.6925     0.071009499
       4177.5709     0.048920217
       4178.4493     0.052350477
       4179.3276     0.086718003
       4180.2060     0.035041019
       4181.0844    0.0023133924
       4181.9627     0.037424385
       4182.8411     0.066657311
       4183.7194     0.068534636
       4184.5978     0.067703898
       4185.4762     0.072376001
       4186.3545     0.042595051
       4187.2329     0.075320314
       4188.1112     0.044111854
       4188.9896     0.040464465
       4189.8680     0.047364981
       4190.7463     0.034968191
       4191.6247     0.035794757
       4192.5030     0.016695585
       4193.3814     0.064906530
       4194.2598     0.074347089
       4195.1381     0.033926703
       4196.0165     0.059748335
       4196.8949     0.027589056
       4197.7732     0.053536655
       4198.6516     0.066205792
       4199.5299     0.056061103
       4200.4083     0.068204603
       4201.2867     0.041628041
       4202.1650     0.062133267
       4203.0434     0.043773653
       4203.9217     0.044133498
       4204.8001     0.065665091
       4205.6785     0.062762836
       4206.5568     0.090316533
       4207.4352     0.095519613
       4208.3135     0.067669385
       4209.1919     0.065211334
       4210.0703     0.053021006
       4210.9486     0.062128560
       4211.8270     0.039550902
       4212.7053     0.062066517
       4213.5837     0.046545712
       4214.4621     0.041930123
       4215.3404     0.063495528
       4216.2188     0.025842834
       4217.0972    0.0072878468
       4217.9755     0.024524911
       4218.8539     0.033159994
       4219.7322     0.089838785
       4220.6106      0.11133270
       4221.4890     0.073736220
       4222.3673     0.024264129
       4223.2457     0.039929608
       4224.1240     0.037390621
       4225.0024     0.046184836
       4225.8808     0.069859835
       4226.7591     0.081503674
       4227.6375     0.071021477
       4228.5158     0.071134377
       4229.3942     0.093508996
       4230.2726     0.065504211
       4231.1509     0.071377007
       4232.0293     0.046435677
       4232.9077     0.058426716
       4233.7860     0.038410050
       4234.6644     0.026491227
       4235.5427    0.0062448014
       4236.4211    0.0089143184
       4237.2995     0.018076327
       4238.1778     0.070707242
       4239.0562     0.040716805
       4239.9345     0.064773949
       4240.8129     0.069880753
       4241.6913     0.039924073
       4242.5696     0.081400050
       4243.4480     0.038460852
       4244.3263      0.10060115
       4245.2047     0.069331646
       4246.0831     0.042477288
       4246.9614     0.030178736
       4247.8398     0.031903053
       4248.7182     0.042469098
       4249.5965     0.088132054
       4250.4749     0.062475003
       4251.3532     0.073198350
       4252.2316     0.057952971
       4253.1100     0.019661317
       4253.9883     0.011695736
       4254.8667     0.068050918
       4255.7450     0.036895003
       4256.6234     0.040862331
       4257.5018     0.067467771
       4258.3801     0.052512054
       4259.2585     0.025014050
       4260.1368     0.058114799
       4261.0152     0.035709867
       4261.8936     0.028139951
       4262.7719     0.049108892
       4263.6503    0.0072463172
       4264.5286     0.039552551
       4265.4070     0.059761772
       4266.2854     0.061431188
       4267.1637     0.046555665
       4268.0421     0.061211471
       4268.9205     0.064168329
       4269.7988     0.049196966
       4270.6772     0.052935145
       4271.5555     0.047605715
       4272.4339     0.056841083
       4273.3123     0.072922123
       4274.1906     0.053298125
       4275.0690     0.045802893
       4275.9473     0.049748874
       4276.8257     0.041376809
       4277.7041     0.056537186
       4278.5824     0.055732985
       4279.4608     0.049675276
       4280.3391     0.084976654
       4281.2175     0.038400313
       4282.0959     0.057103756
       4282.9742     0.061234360
       4283.8526     0.056474823
       4284.7310     0.057206959
       4285.6093     0.032830338
       4286.4877     0.037193688
       4287.3660     0.041615967
       4288.2444     0.025295115
       4289.1228     0.046110295
       4290.0011     0.040679746
       4290.8795     0.046674988
       4291.7578     0.050476276
       4292.6362     0.043920530
       4293.5146     0.053182064
       4294.3929     0.028025654
       4295.2713     0.068993312
       4296.1496     0.059764418
       4297.0280     0.030606504
       4297.9064     0.055954986
       4298.7847     0.070802829
       4299.6631     0.028141944
       4300.5415     0.066099545
       4301.4198     0.066486246
       4302.2982     0.041149362
       4303.1765     0.075216264
       4304.0549     0.029386718
       4304.9333     0.053209180
       4305.8116     0.042147974
       4306.6900     0.034209608
       4307.5683     0.055846277
       4308.4467     0.067214384
       4309.3251     0.060703718
       4310.2034     0.032993812
       4311.0818     0.068195932
       4311.9601     0.061385019
       4312.8385     0.074835920
       4313.7169     0.044922224
       4314.5952     0.053772941
       4315.4736     0.057213688
       4316.3519     0.035039308
       4317.2303     0.087925333
       4318.1087     0.061644381
       4318.9870     0.054860452
       4319.8654     0.027390714
       4320.7438     0.060777832
       4321.6221     0.069399996
       4322.5005     0.053461546
       4323.3788     0.042159908
       4324.2572     0.046476062
       4325.1356     0.067195801
       4326.0139     0.064628114
       4326.8923     0.078069721
       4327.7706     0.071848421
       4328.6490     0.066449334
       4329.5274     0.044952268
       4330.4057     0.062950567
       4331.2841     0.055179240
       4332.1624     0.058497962
       4333.0408     0.026374333
       4333.9192     0.058747999
       4334.7975     0.058064752
       4335.6759     0.081321413
       4336.5543     0.065140277
       4337.4326     0.070128824
       4338.3110     0.070078109
       4339.1893     0.078880643
       4340.0677     0.067388611
       4340.9461     0.039164236
       4341.8244     0.058792901
       4342.7028     0.032060751
       4343.5811     0.057730569
       4344.4595     0.048730778
       4345.3379     0.053271261
       4346.2162     0.051066609
       4347.0946     0.034220991
       4347.9729     0.043989014
       4348.8513     0.087883705
       4349.7297     0.099533545
       4350.6080     0.069373533
       4351.4864      0.10516730
       4352.3648     0.062314070
       4353.2431     0.036352228
       4354.1215     0.093937366
       4354.9998     0.065305203
       4355.8782     0.036994452
       4356.7566     0.089464239
       4357.6349     0.019858726
       4358.5133     0.060696679
       4359.3916     0.049823340
       4360.2700     0.037538599
       4361.1484     0.049032558
       4362.0267     0.083558850
       4362.9051     0.079960786
       4363.7834     0.077834257
       4364.6618     0.065879904
       4365.5402     0.052805480
       4366.4185  -0.00042812530
       4367.2969     0.090776960
       4368.1752     0.044835754
       4369.0536    0.0088048928
       4369.9320     0.020808815
       4370.8103     0.064710026
       4371.6887     0.055650233
       4372.5671     0.069320432
       4373.4454     0.060042767
       4374.3238     0.070547409
       4375.2021     0.070586675
       4376.0805     0.044851784
       4376.9589     0.058398066
       4377.8372     0.044986591
       4378.7156     0.051950073
       4379.5939     0.050296185
       4380.4723     0.087224710
       4381.3507     0.078933018
       4382.2290     0.040945083
       4383.1074    0.0077150805
       4383.9857     0.028753149
       4384.8641     0.037175634
       4385.7425     0.034211837
       4386.6208     0.061385099
       4387.4992     0.055654308
       4388.3776     0.054435045
       4389.2559     0.022174729
       4390.1343     0.088378499
       4391.0126     0.036004136
       4391.8910     0.025241033
       4392.7694     0.050330417
       4393.6477     0.066599579
       4394.5261     0.083198297
       4395.4044     0.019132784
       4396.2828     0.061074813
       4397.1612     0.067083333
       4398.0395     0.080705201
       4398.9179     0.038723368
       4399.7962     0.061068836
       4400.6746     0.075593356
       4401.5530     0.023422542
       4402.4313     0.039529338
       4403.3097     0.045034545
       4404.1881     0.035930819
       4405.0664     0.040325068
       4405.9448     0.075798572
       4406.8231     0.034031886
       4407.7015     0.065468218
       4408.5799     0.068617884
       4409.4582     0.052018242
       4410.3366     0.021355178
       4411.2149     0.072793156
       4412.0933     0.043531611
       4412.9717     0.069310674
       4413.8500     0.056596730
       4414.7284     0.099609276
       4415.6067     0.098377712
       4416.4851     0.062509289
       4417.3635     0.070523137
       4418.2418     0.081292526
       4419.1202     0.043847937
       4419.9985     0.031183123
       4420.8769      0.10746714
       4421.7553     0.061349687
       4422.6336     0.062344539
       4423.5120     0.033365907
       4424.3904     0.037295920
       4425.2687     0.044459896
       4426.1471     0.068400652
       4427.0254     0.065743104
       4427.9038     0.053450550
       4428.7822     0.059924073
       4429.6605     0.037274243
       4430.5389     0.071621617
       4431.4172     0.053765646
       4432.2956     0.069638204
       4433.1740     0.061722299
       4434.0523     0.065381539
       4434.9307     0.057736861
       4435.8090     0.015032870
       4436.6874     0.038285222
       4437.5658     0.055031301
       4438.4441     0.045308312
       4439.3225     0.069494857
       4440.2009     0.049364341
       4441.0792     0.092693816
       4441.9576     0.061775000
       4442.8359     0.035220846
       4443.7143     0.027175732
       4444.5927     0.041370560
       4445.4710     0.049483483
       4446.3494     0.076316245
       4447.2277     0.083222447
       4448.1061     0.029839589
       4448.9845     0.076470872
       4449.8628     0.020276917
       4450.7412     0.046386124
       4451.6195     0.066900655
       4452.4979     0.090013774
       4453.3763     0.023952626
       4454.2546     0.065115443
       4455.1330     0.063090870
       4456.0114     0.060276479
       4456.8897     0.063596673
       4457.7681     0.070822438
       4458.6464     0.082409197
       4459.5248     0.064585744
       4460.4032     0.032930972
       4461.2815     0.030381016
       4462.1599     0.078481856
       4463.0382     0.046816636
       4463.9166     0.053358472
       4464.7950     0.076796595
       4465.6733     0.053711521
       4466.5517     0.035782025
       4467.4300     0.029858311
       4468.3084     0.042094729
       4469.1868     0.064050354
       4470.0651     0.066785082
       4470.9435      0.10122842
       4471.8218     0.073341892
       4472.7002     0.077831817
       4473.5786     0.084074761
       4474.4569     0.056828581
       4475.3353     0.073657076
       4476.2137     0.067230559
       4477.0920     0.081426064
       4477.9704     0.065263143
       4478.8487     0.050544771
       4479.7271     0.065419477
       4480.6055     0.076780975
       4481.4838     0.085995034
       4482.3622     0.073119132
       4483.2405     0.033544170
       4484.1189     0.075634063
       4484.9973     0.044927373
       4485.8756     0.072443367
       4486.7540     0.033340165
       4487.6323     0.083419441
       4488.5107     0.050843525
       4489.3891     0.085054113
       4490.2674     0.055072953
       4491.1458     0.063874145
       4492.0242     0.028452605
       4492.9025     0.042967231
       4493.7809     0.072203513
       4494.6592     0.041439500
       4495.5376     0.046217918
       4496.4160     0.061426670
       4497.2943     0.050625831
       4498.1727     0.039619896
       4499.0510     0.051871919
       4499.9294     0.053826524
       4500.8078     0.078604775
       4501.6861     0.086195985
       4502.5645     0.095745150
       4503.4428     0.091152062
       4504.3212     0.049803266
       4505.1996     0.030157484
       4506.0779     0.072951782
       4506.9563     0.034506615
       4507.8347     0.064680594
       4508.7130     0.065332439
       4509.5914     0.072433978
       4510.4697     0.072032941
       4511.3481     0.039709122
       4512.2265     0.053376710
       4513.1048     0.020793684
       4513.9832     0.034827241
       4514.8615     0.028975306
       4515.7399    -0.013507674
       4516.6183     0.063458156
       4517.4966     0.039840212
       4518.3750     0.022597653
       4519.2533     0.048280582
       4520.1317     0.056047458
       4521.0101     0.050078091
       4521.8884     0.053388097
       4522.7668     0.061677482
       4523.6451     0.092022753
       4524.5235     0.051966856
       4525.4019     0.050947449
       4526.2802     0.082634371
       4759.5440      0.35408469
       4760.5268      0.33464417
       4761.5095      0.30551079
       4762.4923      0.30089309
       4763.4751      0.36786029
       4764.4578      0.36787310
       4765.4406      0.15694527
       4766.4234      0.46373979
       4767.4061      0.37628992
       4768.3889      0.26405451
       4769.3717      0.25772339
       4770.3545      0.37780204
       4771.3372      0.38846632
       4772.3200      0.48023751
       4773.3028      0.34332837
       4774.2855      0.39295948
       4775.2683      0.19028827
       4776.2511      0.29450812
       4777.2338      0.23892220
       4778.2166      0.39282392
       4779.1994      0.33832279
       4780.1822      0.32422840
       4781.1649      0.43108475
       4782.1477      0.31985580
       4783.1305      0.33451106
       4784.1132      0.16169036
       4785.0960      0.41390711
       4786.0788      0.26703949
       4787.0616      0.43432566
       4788.0443      0.31044671
       4789.0271     0.061322594
       4790.0099     0.060278089
       4790.9926      0.63593743
       4791.9754      0.52505011
       4792.9582      0.17426947
       4793.9409     0.077995210
       4794.9237      0.12812643
       4795.9065      0.34840017
       4796.8893      0.28715827
       4797.8720      0.25029064
       4798.8548      0.23799182
       4799.8376      0.34336032
       4800.8203      0.21694367
       4801.8031      0.26791571
       4802.7859      0.37172627
       4803.7686      0.27128891
       4804.7514      0.32533660
       4805.7342      0.36343141
       4806.7170      0.34065239
       4807.6997      0.19833564
       4808.6825      0.21931283
       4809.6653      0.34543251
       4810.6480      0.22437138
       4811.6308      0.46140569
       4812.6136      0.22117703
       4813.5964      0.33518736
       4814.5791      0.28769925
       4815.5619      0.28892872
       4816.5447      0.20109556
       4817.5274      0.32897536
       4818.5102      0.25855538
       4819.4930      0.36984509
       4820.4757      0.24974523
       4821.4585      0.38747149
       4822.4413      0.36348804
       4823.4241      0.32896830
       4824.4068      0.19506586
       4825.3896      0.30521910
       4826.3724      0.19096287
       4827.3551      0.31455115
       4828.3379      0.11293385
       4829.3207      0.21529272
       4830.3034      0.35801567
       4831.2862      0.35713692
       4832.2690      0.31832032
       4833.2518      0.12056023
       4834.2345      0.18919302
       4835.2173      0.34709978
       4836.2001      0.35341617
       4837.1828      0.29963452
       4838.1656      0.36749525
       4839.1484      0.35633849
       4840.1312      0.38550343
       4841.1139      0.32489889
       4842.0967      0.33895767
       4843.0795      0.29121625
       4844.0622      0.29068332
       4845.0450      0.33014659
       4846.0278      0.29733825
       4847.0105      0.28950518
       4847.9933      0.27697008
       4848.9761      0.24462181
       4849.9589      0.29831045
       4850.9416      0.29774477
       4851.9244      0.34909661
       4852.9072      0.33521176
       4853.8899      0.22866923
       4854.8727      0.19828196
       4855.8555      0.31852894
       4856.8382      0.26634124
       4857.8210      0.16124945
       4858.8038      0.24510395
       4859.7866      0.19728389
       4860.7693      0.19964599
       4861.7521      0.35060410
       4862.7349      0.20354084
       4863.7176      0.27770840
       4864.7004      0.26435681
       4865.6832      0.14961068
       4866.6659      0.16718784
       4867.6487      0.13882467
       4868.6315      0.17001501
       4869.6143      0.18008644
       4870.5970      0.22397795
       4871.5798      0.21524521
       4872.5626      0.29466573
       4873.5453      0.21991816
       4874.5281      0.42474521
       4875.5109      0.19841702
       4876.4937      0.25059866
       4877.4764      0.23070865
       4878.4592      0.26166971
       4879.4420      0.29769607
       4880.4247      0.35089266
       4881.4075      0.33769318
       4882.3903      0.41173016
       4883.3730      0.24259148
       4884.3558      0.27460639
       4885.3386      0.36504080
       4886.3214      0.19495464
       4887.3041      0.40341667
       4888.2869      0.34247484
       4889.2697      0.25275446
       4890.2524      0.29113568
       4891.2352      0.32917229
       4892.2180      0.32242913
       4893.2007      0.31615086
       4894.1835      0.44371617
       4895.1663      0.37117192
       4896.1491      0.29803279
       4897.1318      0.30066007
       4898.1146      0.29393532
       4899.0974      0.37674471
       4900.0801      0.32368835
       4901.0629      0.33687649
       4902.0457      0.36706682
       4903.0285      0.33869944
       4904.0112      0.22060860
       4904.9940      0.43799413
       4905.9768      0.25286929
       4906.9595      0.33251787
       4907.9423      0.36611221
       4908.9251      0.44535493
       4909.9078      0.40500880
       4910.8906      0.29331848
       4911.8734      0.30130249
       4912.8562      0.17749623
       4913.8389      0.27204227
       4914.8217      0.30469006
       4915.8045      0.22207778
       4916.7872      0.29883770
       4917.7700      0.28314298
       4918.7528      0.25231544
       4919.7355      0.33316534
       4920.7183      0.37132054
       4921.7011      0.34745286
       4922.6839      0.31560547
       4923.6666      0.11784894
       4924.6494      0.30641556
       4925.6322      0.30930932
       4926.6149      0.28705364
       4927.5977      0.32781227
       4928.5805      0.25771616
       4929.5633      0.32283488
       4930.5460      0.36158787
       4931.5288      0.38761876
       4932.5116      0.34084785
       4933.4943      0.25481715
       4934.4771      0.22856783
       4935.4599      0.32160923
       4936.4426      0.32390799
       4937.4254      0.40125340
       4938.4082      0.18901066
       4939.3910     0.072363886
       4940.3737      0.37752188
       4941.3565      0.27298807
       4942.3393      0.30943309
       4943.3220      0.43613119
       4944.3048      0.28715511
       4945.2876      0.26407798
       4946.2703      0.37624472
       4947.2531      0.30947679
       4948.2359      0.29600154
       4949.2187      0.33670406
       4950.2014      0.30866206
       4951.1842      0.33918349
       4952.1670      0.26317058
       4953.1497      0.25835359
       4954.1325      0.17537933
       4955.1153      0.30480136
       4956.0981      0.27853126
       4957.0808      0.22116938
       4958.0636      0.29811093
       4959.0464      0.34911319
       4960.0291      0.36210841
       4961.0119      0.34269862
       4961.9947      0.38836103
       4962.9774      0.25004752
       4963.9602      0.31349972
       4964.9430      0.34511504
       4965.9258      0.30836708
       4966.9085      0.29802457
       4967.8913      0.28611536
       4968.8741      0.33006474
       4969.8568      0.27374026
       4970.8396      0.20708000
       4971.8224      0.24377197
       4972.8051      0.34278212
       4973.7879      0.22830137
       4974.7707      0.33108918
       4975.7535      0.36276241
       4976.7362      0.31603275
       4977.7190      0.29584151
       4978.7018      0.37334263
       4979.6845      0.45770171
       4980.6673      0.46658589
       4981.6501      0.22943013
       4982.6328      0.26539862
       4983.6156      0.45253209
       4984.5984      0.42629584
       4985.5812      0.15990744
       4986.5639      0.33015406
       4987.5467      0.40780953
       4988.5295      0.43189261
       4989.5122      0.40020699
       4990.4950      0.33294682
       4991.4778      0.32978715
       4992.4606      0.24543115
       4993.4433      0.34883264
       4994.4261      0.28105324
       4995.4089      0.34601692
       4996.3916      0.45793312
       4997.3744      0.44524547
       4998.3572      0.13389947
       4999.3399      0.21088083
       5000.3227      0.29475003
       5001.3055      0.31360732
       5002.2883      0.49803175
       5003.2710      0.42140009
       5004.2538      0.35276301
       5005.2366      0.29934242
       5006.2193      0.31861823
       5007.2021      0.40450240
       5008.1849      0.46926582
       5009.1676      0.27556508
       5010.1504      0.24843154
       5011.1332      0.19642359
       5012.1160      0.38061354
       5013.0987      0.35654805
       5014.0815      0.42850009
       5015.0643      0.35214614
       5016.0470      0.40368179
       5017.0298      0.24238590
       5018.0126      0.45819135
       5018.9954      0.37905964
       5019.9781      0.27544995
       5020.9609      0.36507641
       5021.9437      0.31661277
       5022.9264      0.30155383
       5023.9092      0.36385353
       5024.8920      0.35609646
       5025.8747      0.30771315
       5026.8575      0.26461819
       5027.8403      0.40410769
       5028.8231      0.26780727
       5029.8058      0.22520243
       5030.7886      0.37024737
       5031.7714      0.44031198
       5032.7541      0.33212104
       5033.7369      0.35132038
       5034.7197      0.27689726
       5035.7024      0.39125071
       5036.6852      0.26488494
       5037.6680      0.40612758
       5038.6508      0.27432825
       5039.6335      0.31285127
       5040.6163      0.30902636
       5041.5991      0.21524354
       5042.5818      0.36618768
       5043.5646      0.21673953
       5044.5474      0.36660384
       5045.5302      0.36110307
       5046.5129      0.31429221
       5047.4957      0.25386560
       5048.4785      0.23428404
       5049.4612      0.38748542
       5050.4440      0.29538715
       5051.4268      0.36364883
       5052.4095      0.26874675
       5053.3923      0.34412833
       5054.3751      0.31423970
       5055.3579      0.40759249
       5056.3406      0.50343548
       5057.3234      0.24343657
       5058.3062      0.19297717
       5059.2889      0.28625020
       5060.2717      0.21056211
       5061.2545      0.37024660
       5062.2372      0.36805431
       5063.2200      0.44269525
       5064.2028      0.32461455
       5065.1856      0.34485287
       5066.1683      0.35099277
       5067.1511      0.38423527
       5068.1339      0.36172328
       5069.1166      0.38278872
       5070.0994      0.37043503
       5071.0822      0.44282899
       5072.0649      0.38378987
       5073.0477      0.50949678
       5074.0305      0.59361156
       5075.0133      0.20301214
       5075.9960      0.32854870
       5076.9788      0.45817447
       5077.9616      0.49762925
       5078.9443      0.40861226
       5079.9271      0.41110144
       5080.9099      0.20513761
       5081.8927      0.41950751
       5082.8754      0.39349786
       5083.8582      0.41927448
       5084.8410      0.31652422
       5085.8237      0.53952866
       5086.8065      0.35604810
       5087.7893      0.45761203
       5088.7720      0.39698971
       5089.7548      0.52342505
       5090.7376      0.32652344
       5091.7204      0.35337230
       5092.7031      0.37562066
       5093.6859      0.31043438
       5094.6687      0.37949241
       5095.6514      0.34033605
       5096.6342      0.42903219
       5097.6170      0.33547427
       5098.5997      0.40377328
       5099.5825      0.45788174
       5100.5653      0.42283735
       5101.5481      0.39791297
       5102.5308      0.46527945
       5103.5136      0.37654985
       5104.4964      0.35757511
       5105.4791      0.40413169
       5106.4619      0.20296004
       5107.4447      0.47943258
       5108.4275      0.41468539
       5109.4102      0.28523335
       5110.3930      0.22149635
       5111.3758      0.35869088
       5112.3585      0.35097744
       5113.3413      0.38486361
       5114.3241      0.35874245
       5115.3068      0.36107456
       5116.2896      0.33154701
       5117.2724      0.32020046
       5118.2552      0.38353676
       5119.2379      0.32672614
       5120.2207      0.32850214
       5121.2035      0.24701391
       5122.1862      0.24679873
       5123.1690      0.25756523
       5124.1518      0.48956552
       5125.1345      0.38671070
       5126.1173      0.48918585
       5127.1001      0.47643305
       5128.0829      0.35419090
       5129.0656      0.45182177
       5130.0484      0.39660088
       5131.0312      0.39020020
       5132.0139      0.40155778
       5132.9967      0.33441001
       5133.9795      0.35249954
       5134.9623      0.64559224
       5135.9450       1.0101694
       5136.9278      0.56580509
       5137.9106      0.61924790
       5138.8933    -0.059190209
       5139.8761      0.63073055
       5140.8589      0.43735370
       5141.8416      0.52427662
       5142.8244      0.47036702
       5143.8072      0.51740901
       5144.7900      0.45854023
       5145.7727      0.28962298
       5146.7555      0.37877591
       5147.7383      0.37523655
       5148.7210      0.35767849
       5149.7038      0.38506053
       5150.6866      0.35925986
       5151.6693      0.28287054
       5152.6521      0.19778628
       5153.6349      0.27871536
       5154.6177     0.099253136
       5155.6004      0.21705185
       5156.5832      0.26667893
       5157.5660      0.34196362
       5158.5487      0.24778326
       5159.5315      0.26818854
       5160.5143      0.29650438
       5161.4971      0.33051398
       5162.4798      0.38160091
       5163.4626      0.29004015
       5164.4454      0.27810148
       5165.4281      0.13490651
       5166.4109      0.26947627
       5167.3937      0.27348286
       5168.3764      0.51058476
       5169.3592      0.31938748
       5170.3420      0.27098233
       5171.3248      0.44903063
       5172.3075      0.23626914
       5173.2903      0.39094532
       5174.2731      0.43169821
       5175.2558      0.32200212
       5176.2386      0.46597777
       5177.2214      0.40957556
       5178.2041      0.34256666
       5179.1869      0.33437243
       5180.1697      0.40412351
       5181.1525      0.25057466
       5182.1352      0.37570814
       5183.1180      0.25784545
       5184.1008      0.15055189
       5185.0835      0.38588704
       5186.0663      0.41059002
       5187.0491      0.25273629
       5188.0318      0.31926538
       5189.0146      0.11068680
       5189.9974      0.19116539
       5190.9802      0.47590234
       5191.9629      0.38959103
       5192.9457      0.18746589
       5193.9285      0.40593615
       5194.9112      0.43306223
       5195.8940      0.18473516
       5196.8768      0.23190479
       5197.8596      0.32796309
       5198.8423      0.39825353
       5199.8251      0.28526643
       5200.8079      0.40621440
       5201.7906      0.42815711
       5202.7734      0.31218884
       5203.7562      0.49932687
       5204.7389      0.32081289
       5205.7217      0.35002090
       5206.7045      0.38005614
       5207.6873      0.48300181
       5208.6700      0.30881842
       5209.6528      0.42830453
       5210.6356      0.36750015
       5211.6183      0.39932480
       5212.6011      0.36049483
       5213.5839      0.44076239
       5214.5666      0.37659420
       5215.5494      0.38846026
       5216.5322      0.23511755
       5217.5150      0.25819790
       5218.4977      0.18960481
       5219.4805      0.39128752
       5220.4633      0.37812553
       5221.4460      0.37790494
       5222.4288      0.35634759
       5223.4116      0.27672337
       5224.3944      0.49317656
       5225.3771      0.33164031
       5226.3599      0.33108774
       5227.3427      0.31313332
       5228.3254      0.35812738
       5229.3082      0.31949882
       5230.2910      0.37901131
       5231.2737      0.47123415
       5232.2565      0.46866627
       5233.2393      0.37240673
       5234.2221      0.35182316
       5235.2048      0.40687406
       5236.1876      0.36153483
       5237.1704      0.29898471
       5238.1531      0.31842410
       5239.1359      0.37194644
       5240.1187      0.45001213
       5241.1014      0.24431813
       5242.0842      0.36094066
       5243.0670      0.30269381
       5244.0498      0.32451378
       5245.0325      0.39038761
       5246.0153      0.24632199
       5246.9981      0.35418161
       5247.9808      0.34808212
       5248.9636      0.38979287
       5249.9464      0.31616771
       5250.9292      0.34476576
       5251.9119      0.38327492
       5252.8947      0.30273639
       5253.8775      0.29978001
       5254.8602      0.37980805
       5255.8430      0.48214846
       5256.8258      0.37626640
       5257.8085      0.42251906
       5258.7913      0.30600850
       5259.7741      0.37934528
       5260.7569      0.24271779
       5261.7396      0.31525345
       5262.7224      0.21612994
       5263.7052      0.30378554
       5264.6879      0.53527822
       5265.6707      0.38747412
       5266.6535      0.36254368
       5267.6362      0.42595888
       5268.6190      0.46294446
       5269.6018      0.42581860
       5270.5846      0.17213740
       5271.5673      0.28104771
       5272.5501      0.30104480
       5273.5329      0.56659318
       5274.5156      0.34902764
       5275.4984      0.35590989
       5276.4812      0.23948239
       5277.4640      0.46102413
       5278.4467      0.33715283
       5279.4295      0.42728124
       5280.4123      0.42122709
       5281.3950      0.40738298
       5282.3778      0.38634456
       5283.3606      0.19139148
       5284.3433      0.38763736
       5285.3261      0.31067978
       5286.3089      0.35438663
       5287.2917      0.22998536
       5288.2744      0.24599195
       5289.2572      0.24951831
       5290.2400      0.36164576
       5291.2227      0.28186953
       5292.2055      0.35063673
       5293.1883      0.47645563
       5294.1710      0.39287908
       5295.1538      0.36268691
       5296.1366      0.37308168
       5297.1194      0.34517109
       5298.1021      0.31450892
       5299.0849      0.25518245
       5300.0677      0.32925958
       5301.0504      0.25333414
       5302.0332      0.30614138
       5303.0160      0.46596981
       5303.9987      0.44868745
       5304.9815      0.38567738
       5305.9643      0.40425195
       5306.9471      0.32537424
       5307.9298      0.46649154
       5308.9126      0.46782007
       5309.8954      0.38119762
       5310.8781      0.37119356
       5311.8609      0.45295543
       5312.8437      0.42181344
       5313.8265      0.28333142
       5314.8092      0.27801249
       5315.7920      0.34869867
       5316.7748      0.33072549
       5317.7575      0.31561372
       5318.7403      0.21254622
       5319.7231      0.27808338
       5320.7058      0.45083896
       5321.6886      0.36144730
       5322.6714      0.55768089
       5323.6542      0.46527255
       5324.6369      0.38315116
       5325.6197      0.41913489
       5326.6025      0.34780235
       5327.5852      0.34052406
       5328.5680      0.43784985
       5329.5508      0.32254029
       5330.5335      0.26690216
       5331.5163      0.52091596
       5332.4991      0.35309461
       5333.4819      0.39567664
       5334.4646      0.20928507
       5335.4474      0.43310940
       5336.4302      0.34269798
       5337.4129      0.34644116
       5338.3957      0.44172228
       5339.3785      0.38163507
       5340.3613      0.27783220
       5341.3440      0.41851962
       5342.3268      0.33964476
       5343.3096      0.20299651
       5344.2923      0.43052851
       5345.2751      0.32231573
       5346.2579      0.29599021
       5347.2406      0.31120497
       5348.2234      0.30132036
       5349.2062      0.38901138
       5350.1890      0.33387165
       5351.1717      0.40287518
       5352.1545      0.34154022
       5353.1373      0.32887318
       5354.1200      0.29519680
       5355.1028      0.36669935
       5356.0856      0.33002791
       5357.0683      0.38305292
       5358.0511      0.31781500
       5359.0339      0.38962788
       5360.0167      0.37651749
       5360.9994      0.36832780
       5361.9822      0.46136953
       5362.9650      0.42332903
       5363.9477      0.31382373
       5364.9305      0.34421713
       5365.9133      0.41703207
       5366.8961      0.43733254
       5367.8788      0.32282496
       5368.8616      0.50963428
       5369.8444      0.36125211
       5370.8271      0.42151422
       5371.8099      0.32758352
       5372.7927      0.36440923
       5373.7754      0.19093081
       5374.7582      0.28202416
       5375.7410      0.36860174
       5376.7238      0.43669522
       5377.7065      0.35390172
       5378.6893      0.35364731
       5379.6721      0.38829967
       5380.6548      0.50285668
       5381.6376      0.30757151
       5382.6204      0.34931402
       5383.6031      0.34522227
       5384.5859      0.21405828
       5385.5687      0.32408258
       5386.5515      0.28758074
       5387.5342      0.19832821
       5388.5170      0.30598211
       5389.4998      0.34453542
       5390.4825      0.38803856
       5391.4653      0.42281428
       5392.4481      0.43554922
       5393.4309      0.28164500
       5394.4136      0.32510790
       5395.3964      0.40111876
       5396.3792      0.34156262
       5397.3619      0.34009700
       5398.3447      0.25833378
       5399.3275      0.36690693
       5400.3102      0.36157873
       5401.2930      0.31516005
       5402.2758      0.39072619
       5403.2586      0.43554109
       5404.2413      0.29906775
       5405.2241      0.48315728
       5406.2069      0.41068502
       5407.1896      0.42548342
       5408.1724      0.38893578
       5409.1552      0.36599698
       5410.1379      0.39133283
       5411.1207      0.32873688
       5412.1035      0.33546555
       5413.0863      0.28885543
       5414.0690      0.33062849
       5415.0518      0.34240027
       5416.0346      0.32758253
       5417.0173      0.34431912
       5418.0001      0.36628164
       5418.9829      0.36869076
       5419.9656      0.37190274
       5420.9484      0.42928829
       5421.9312      0.40962408
       5422.9140      0.33420870
       5423.8967      0.30996178
       5424.8795      0.26508969
       5425.8623      0.30240032
       5426.8450      0.29194844
       5427.8278      0.31284510
       5428.8106      0.41485305
       5429.7934      0.29665213
       5430.7761      0.31918569
       5431.7589      0.26193964
       5432.7417      0.33141522
       5433.7244      0.31802550
       5434.7072      0.51512513
       5435.6900      0.27585554
       5436.6727      0.38960706
       5437.6555      0.34747302
       5438.6383      0.30453346
       5439.6211      0.38972442
       5440.6038      0.35908334
       5441.5866      0.43157884
       5442.5694      0.43775717
       5443.5521      0.34974791
       5444.5349      0.24610786
       5445.5177      0.36633295
       5446.5004      0.50287362
       5447.4832      0.38268256
       5448.4660      0.32632341
       5449.4488      0.40289346
       5450.4315      0.34169143
       5451.4143      0.36990092
       5452.3971      0.47098236
       5453.3798      0.29961111
       5454.3626      0.33207718
       5455.3454      0.39722052
       5456.3282      0.35084805
       5457.3109      0.37831289
       5458.2937      0.34886179
       5459.2765      0.45886065
       5460.2592      0.47498484
       5461.2420      0.42591227
       5462.2248      0.43677868
       5463.2075      0.39937747
       5464.1903      0.46437734
       5465.1731      0.30711560
       5466.1559      0.40111177
       5467.1386      0.38470256
       5468.1214      0.31683956
       5469.1042      0.42592578
       5470.0869      0.29288025
       5471.0697      0.28058871
       5472.0525      0.46163715
       5473.0352      0.48055437
       5474.0180      0.51443024
       5475.0008      0.41369753
       5475.9836      0.36444552
       5476.9663      0.37033045
       5477.9491      0.30932972
       5478.9319      0.34493266
       5479.9146      0.34841883
       5480.8974      0.33175046
       5481.8802      0.21574463
       5482.8630      0.42854925
       5483.8457      0.37302687
       5484.8285      0.39621204
       5485.8113      0.45098392
       5486.7940      0.45416461
       5487.7768      0.43163766
       5488.7596      0.50275922
       5489.7423      0.52172873
       5490.7251      0.32578567
       5491.7079      0.41220517
       5492.6907      0.40185442
       5493.6734      0.38842031
       5494.6562      0.36156672
       5495.6390      0.53240152
       5496.6217      0.44869219
       5497.6045      0.39814897
       5498.5873      0.38907191
       5499.5700      0.46957971
       5500.5528      0.44053576
       5501.5356      0.33241895
       5502.5184      0.30667666
       5503.5011      0.40234353
       5504.4839      0.35864097
       5505.4667      0.32207125
       5506.4494      0.30998991
       5507.4322      0.30441041
       5508.4150      0.35633490
       5509.3978      0.27009140
       5510.3805      0.33851083
       5511.3633      0.38991974
       5512.3461      0.27971901
       5513.3288      0.40300776
       5514.3116      0.25650794
       5515.2944      0.32240072
       5516.2771      0.33497544
       5517.2599      0.35501374
       5518.2427      0.38140721
       5519.2255      0.40967810
       5520.2082      0.35890853
       5521.1910      0.36906172
       5522.1738      0.35357370
       5523.1565      0.34776799
       5524.1393      0.26278535
       5525.1221      0.52063914
       5526.1048      0.38828686
       5527.0876      0.24017097
       5528.0704      0.35799294
       5529.0532      0.35043882
       5530.0359      0.40759732
       5531.0187      0.40671794
       5532.0015      0.40471475
       5532.9842      0.39785035
       5533.9670      0.32894134
       5534.9498      0.35888985
       5535.9325      0.33271743
       5536.9153      0.33515269
       5537.8981      0.29517121
       5538.8809      0.25646213
       5539.8636      0.42427648
       5540.8464      0.36385479
       5541.8292      0.30192265
       5542.8119      0.34062055
       5543.7947      0.35286399
       5544.7775      0.49625725
       5545.7603      0.42957660
       5546.7430      0.42772837
       5547.7258      0.22302082
       5548.7086      0.35266174
       5549.6913      0.41143239
       5550.6741      0.41636832
       5551.6569      0.42470775
       5552.6396      0.40021156
       5553.6224      0.38417968
       5554.6052      0.40070514
       5555.5880      0.30102408
       5556.5707      0.28475187
       5557.5535      0.41266270
       5558.5363      0.23108430
       5559.5190      0.23916347
       5560.5018      0.24726456
       5561.4846      0.21994942
       5562.4673      0.30144106
       5563.4501      0.48336056
       5564.4329      0.49898980
       5565.4157      0.38120334
       5566.3984      0.39518347
       5567.3812      0.36684147
       5568.3640      0.23012977
       5569.3467      0.32148843
       5570.3295      0.31712714
       5571.3123      0.44054517
       5572.2951      0.45974037
       5573.2778      0.41403295
       5574.2606      0.46787089
       5575.2434      0.40866906
       5576.2261      0.39316172
       5577.2089      0.29053275
       5578.1917      0.21194017
       5579.1744      0.37594706
       5580.1572      0.28559581
       5581.1400      0.41068589
       5582.1228      0.40936590
       5583.1055      0.28345280
       5584.0883      0.20527347
       5585.0711      0.40744929
       5586.0538      0.35898533
       5587.0366      0.37649495
       5588.0194      0.46691542
       5589.0021      0.40625112
       5589.9849      0.27710456
       5590.9677      0.27190324
       5591.9505      0.29955631
       5592.9332      0.40746060
       5593.9160      0.32568015
       5594.8988      0.21361623
       5595.8815      0.27966515
       5596.8643      0.34231531
       5597.8471      0.41762537
       5598.8299      0.31788994
       5599.8126      0.34346771
       5600.7954      0.29813781
       5601.7782      0.43877125
       5602.7609      0.38235727
       5603.7437      0.44866191
       5604.7265      0.39664810
       5605.7092      0.32973333
       5606.6920      0.33235592
       5607.6748      0.42029709
       5608.6576      0.26559865
       5609.6403      0.25177409
       5610.6231      0.20868545
       5611.6059      0.40722344
       5612.5886      0.30637457
       5613.5714      0.34598571
       5614.5542      0.29434735
       5615.5369      0.30969000
       5616.5197      0.25275301
       5617.5025      0.21914860
       5618.4853      0.26262483
       5619.4680      0.33339318
       5620.4508      0.34711508
       5621.4336      0.39539029
       5622.4163      0.33416824
       5623.3991      0.34105930
       5624.3819      0.37633986
       5625.3647      0.44561165
       5626.3474      0.41215379
       5627.3302      0.41892941
       5628.3130      0.38922361
       5629.2957      0.45967586
       5630.2785      0.40824766
       5631.2613      0.31391625
       5632.2440      0.41035237
       5633.2268      0.36511377
       5634.2096      0.37376290
       5635.1924      0.31875694
       5636.1751      0.37408739
       5637.1579      0.35935131
       5638.1407      0.45296522
       5639.1234      0.45806295
       5640.1062      0.36443408
       5641.0890      0.30964115
       5642.0717      0.37328040
       5643.0545      0.27543102
       5644.0373      0.32748504
       5645.0201      0.36955759
       5646.0028      0.33950599
       5646.9856      0.34994382
       5647.9684      0.43508962
       5648.9511      0.34454701
       5649.9339      0.41142397
       5650.9167      0.37580315
       5651.8994      0.35880259
       5652.8822      0.36602677
       5653.8650      0.34221497
       5654.8478      0.28348485
       5655.8305      0.29855187
       5656.8133      0.35184781
       5657.7961      0.35260687
       5658.7788      0.30804660
       5659.7616      0.34721873
       5660.7444      0.36831509
       5661.7272      0.35407893
       5662.7099      0.48122303
       5663.6927      0.39320995
       5664.6755      0.33667571
       5665.6582      0.35322019
       5666.6410      0.48814414
       5667.6238      0.33562319
       5668.6065      0.31735351
       5669.5893      0.43965776
       5670.5721      0.42379502
       5671.5549      0.37913471
       5672.5376      0.36104386
       5673.5204      0.46018931
       5674.5032      0.37950441
       5675.4859      0.35320492
       5676.4687      0.38157140
       5677.4515      0.42463657
       5678.4342      0.36523337
       5679.4170      0.35669955
       5680.3998      0.47568285
       5681.3826      0.41794545
       5682.3653      0.26555507
       5683.3481      0.46156128
       5684.3309      0.36908055
       5685.3136      0.41986270
       5686.2964      0.45889559
       5687.2792      0.33493532
       5688.2620      0.40250493
       5689.2447      0.51945034
       5690.2275      0.39382961
       5691.2103      0.42855568
       5692.1930      0.31901322
       5693.1758      0.43998695
       5694.1586      0.40708459
       5695.1413      0.37314187
       5696.1241      0.47321669
       5697.1069      0.45069701
       5698.0897      0.39591834
       5699.0724      0.47722827
       5700.0552      0.42658466
       5701.0380      0.37423575
       5702.0207      0.36145924
       5703.0035      0.37248282
       5703.9863      0.46477101
       5704.9690      0.39681376
       5705.9518      0.35160477
       5706.9346      0.35612578
       5707.9174      0.50850020
       5708.9001      0.39443983
       5709.8829      0.37154795
       5710.8657      0.44639476
       5711.8484      0.38219328
       5712.8312      0.38904400
       5713.8140      0.38492767
       5714.7968      0.27179811
       5715.7795      0.42936137
       5716.7623      0.38601897
       5717.7451      0.35564651
       5718.7278      0.37708423
       5719.7106      0.29510529
       5720.6934      0.39284663
       5721.6761      0.33695345
       5722.6589      0.44610146
       5723.6417      0.38592882
       5724.6245      0.31913051
       5725.6072      0.39075067
       5726.5900      0.38111560
       5727.5728      0.50385877
       5728.5555      0.46922715
       5729.5383      0.44127675
       5730.5211      0.35996705
       5731.5038      0.40591149
       5732.4866      0.36123711
       5733.4694      0.31396309
       5734.4522      0.36289491
       5735.4349      0.38943739
       5736.4177      0.40157648
       5737.4005      0.43358733
       5738.3832      0.33499698
       5739.3660      0.32104812
       5740.3488      0.42048447
       5741.3316      0.44073573
       5742.3143      0.36570661
       5743.2971      0.41191850
       5744.2799      0.46825832
       5745.2626      0.40172933
       5746.2454      0.28739256
       5747.2282      0.36640151
       5748.2109      0.35912108
       5749.1937      0.36824750
       5750.1765      0.40860165
       5751.1593      0.42837984
       5752.1420      0.39664184
       5753.1248      0.38472949
       5754.1076      0.39896068
       5755.0903      0.49071384
       5756.0731      0.45131169
       5757.0559      0.39854682
       5758.0386      0.47885077
       5759.0214      0.31411994
       5760.0042      0.42252263
       5760.9870      0.38988294
       5761.9697      0.34755308
       5762.9525      0.39472128
       5763.9353      0.34682622
       5764.9180      0.41790337
       5765.9008      0.39298307
       5766.8836      0.43122391
       5767.8663      0.38505455
       5768.8491      0.50730367
       5769.8319      0.34086695
       5770.8147      0.43128259
       5771.7974      0.44130455
       5772.7802      0.28869472
       5773.7630      0.46690963
       5774.7457      0.36477786
       5775.7285      0.39307687
       5776.7113      0.35836493
       5777.6941      0.38464313
       5778.6768      0.39253284
       5779.6596      0.44154934
       5780.6424      0.39621551
       5781.6251      0.47032374
       5782.6079      0.39029818
       5783.5907      0.40638674
       5784.5734      0.37381088
       5785.5562      0.50417849
       5786.5390      0.44547447
       5787.5218      0.39697105
       5788.5045      0.47137800
       5789.4873      0.53265790
       5790.4701      0.40637116
       5791.4528      0.37591914
       5792.4356      0.37424013
       5793.4184      0.38415058
       5794.4011      0.44502302
       5795.3839      0.38519837
       5796.3667      0.34959468
       5797.3495      0.44148923
       5798.3322      0.41766998
       5799.3150      0.42224092
       5800.2978      0.40389926
       5801.2805      0.33997083
       5802.2633      0.40620823
       5803.2461      0.51599695
       5804.2289      0.42718149
       5805.2116      0.44928501
       5806.1944      0.46184058
       5807.1772      0.46278777
       5808.1599      0.52573169
       5809.1427      0.40384028
       5810.1255      0.33359560
       5811.1082      0.43707475
       5812.0910      0.50192671
       5813.0738      0.52205647
       5814.0566      0.47877786
       5815.0393      0.51685214
       5816.0221      0.48080587
       5817.0049      0.37908964
       5817.9876      0.38183376
       5818.9704      0.50903005
       5819.9532      0.39544352
       5820.9359      0.48573263
       5821.9187      0.41487674
       5822.9015      0.36497686
       5823.8843      0.42933279
       5824.8670      0.53953883
       5825.8498      0.34193242
       5826.8326      0.37871084
       5827.8153      0.51330719
       5828.7981      0.43098236
       5829.7809      0.43445415
       5830.7637      0.37314859
       5831.7464      0.39652891
       5832.7292      0.49939668
       5833.7120      0.49312907
       5834.6947      0.49644527
       5835.6775      0.34676772
       5836.6603      0.44981619
       5837.6430      0.42933689
       5838.6258      0.31511585
       5839.6086      0.44332170
       5840.5914      0.37991363
       5841.5741      0.51554653
       5842.5569      0.52022916
       5843.5397      0.47806917
       5844.5224      0.39899071
       5845.5052      0.50261013
       5846.4880      0.40705435
       5847.4707      0.41497494
       5848.4535      0.50329143
       5849.4363      0.44715063
       5850.4191      0.34953903
       5851.4018      0.47945209
       5852.3846      0.47534481
       5853.3674      0.45199751
       5854.3501      0.33068039
       5855.3329      0.43191450
       5856.3157      0.49382211
       5857.2985      0.50258728
       5858.2812      0.46572999
       5859.2640      0.41868106
       5860.2468      0.49518420
       5861.2295      0.40116760
       5862.2123      0.45356385
       5863.1951      0.49011082
       5864.1778      0.40405192
       5865.1606      0.38480218
       5866.1434      0.41286019
       5867.1262      0.43981039
       5868.1089      0.46738155
       5869.0917      0.45872194
       5870.0745      0.38788041
       5871.0572      0.35228809
       5872.0400      0.42064866
       5873.0228      0.46735054
       5874.0055      0.41673895
       5874.9883      0.44810522
       5875.9711      0.44430725
       5876.9539      0.33959844
       5877.9366      0.42785467
       5878.9194      0.42473770
       5879.9022      0.36550328
       5880.8849      0.38984393
       5881.8677      0.27600338
       5882.8505      0.33121919
       5883.8332      0.31424535
       5884.8160      0.42401689
       5885.7988      0.44868492
       5886.7816      0.43655278
       5887.7643      0.39345583
       5888.7471      0.35049753
       5889.7299      0.37200292
       5890.7126      0.31838029
       5891.6954      0.29140420
       5892.6782      0.34401102
       5893.6610      0.22960589
       5894.6437      0.24161190
       5895.6265      0.29862348
       5896.6093      0.42059348
       5897.5920      0.42019459
       5898.5748      0.42448864
       5899.5576      0.29455894
       5900.5403      0.26080441
       5901.5231      0.42905570
       5902.5059      0.46887774
       5903.4887      0.42989506
       5904.4714      0.45171859
       5905.4542      0.45667091
       5906.4370      0.44049875
       5907.4197      0.37117390
       5908.4025      0.36664681
       5909.3853      0.47017922
       5910.3680      0.40415796
       5911.3508      0.46037387
       5912.3336      0.33495299
       5913.3164      0.34848270
       5914.2991      0.38586770
       5915.2819      0.32439351
       5916.2647      0.47452609
       5917.2474      0.48775648
       5918.2302      0.35285756
       5919.2130      0.36527113
       5920.1958      0.51248478
       5921.1785      0.44101168
       5922.1613      0.40450444
       5923.1441      0.35080532
       5924.1268      0.42512913
       5925.1096      0.35368079
       5926.0924      0.38058523
       5927.0751      0.46808269
       5928.0579      0.42753201
       5929.0407      0.48934363
       5930.0235      0.44556623
       5931.0062      0.47008509
       5931.9890      0.36187569
       5932.9718      0.64410682
       5933.9545      0.53506139
       5934.9373      0.46905022
       5935.9201      0.35580149
       5936.9028      0.51787058
       5937.8856      0.59600105
       5938.8684      0.48635801
       5939.8512      0.50855379
       5940.8339      0.35996151
       5941.8167      0.29125126
       5942.7995      0.42790900
       5943.7822      0.28785051
       5944.7650      0.38874635
       5945.7478      0.42874075
       5946.7306      0.46487159
       5947.7133      0.55523116
       5948.6961      0.41404916
       5949.6789      0.51386282
       5950.6616      0.58720860
       5951.6444      0.29524056
       5952.6272      0.47461010
       5953.6099      0.47385363
       5954.5927      0.56211766
       5955.5755      0.39974099
       5956.5583      0.54814640
       5957.5410      0.50204455
       5958.5238      0.43740179
       5959.5066      0.43665451
       5960.4893      0.38431330
       5961.4721      0.36650012
       5962.4549      0.39892546
       5963.4376      0.36510741
       5964.4204      0.36095126
       5965.4032      0.45431737
       5966.3860      0.52774748
       5967.3687      0.47380950
       5968.3515      0.50586309
       5969.3343      0.50311080
       5970.3170      0.61129133
       5971.2998      0.60572037
       5972.2826      0.54084674
       5973.2654      0.55244459
       5974.2481      0.48356560
       5975.2309      0.39278355
       5976.2137      0.44074936
       5977.1964      0.43933745
       5978.1792      0.47204315
       5979.1620      0.50807844
       5980.1447      0.49911997
       5981.1275      0.51172829
       5982.1103      0.36324140
       5983.0931      0.38265419
       5984.0758      0.63174111
       5985.0586      0.50936235
       5986.0414      0.42050827
       5987.0241      0.39451581
       5988.0069      0.43459335
       5988.9897      0.41120054
       5989.9724      0.56642361
       5990.9552      0.53311044
       5991.9380      0.51284145
       5992.9208      0.49328380
       5993.9035      0.54052235
       5994.8863      0.38003030
       5995.8691      0.48761285
       5996.8518      0.42793528
       5997.8346      0.53289804
       5998.8174      0.52433205
       5999.8001      0.47874014
       6000.7829      0.58213189
       6001.7657      0.47911851
       6002.7485      0.36383631
       6003.7312      0.53656163
       6004.7140      0.57145363
       6005.6968      0.57501787
       6006.6795      0.49750208
       6007.6623      0.55827848
       6008.6451      0.50978594
       6009.6279      0.49433695
       6010.6106      0.40951876
       6011.5934      0.37861335
       6012.5762      0.39732306
       6013.5589      0.45246606
       6014.5417      0.45174093
       6015.5245      0.44283070
       6016.5072      0.48226391
       6017.4900      0.46693175
       6018.4728      0.54384829
       6019.4556      0.43568259
       6020.4383      0.48036820
       6021.4211      0.59967014
       6022.4039      0.41447893
       6023.3866      0.47850508
       6024.3694      0.39494321
       6025.3522      0.44631162
       6026.3349      0.55567044
       6027.3177      0.52255985
       6028.3005      0.65279467
       6029.2833      0.56347403
       6030.2660      0.51537549
       6031.2488      0.51223266
       6032.2316      0.43804139
       6033.2143      0.37954897
       6034.1971      0.60380019
       6035.1799      0.41735039
       6036.1627      0.41489206
       6037.1454      0.46952548
       6038.1282      0.53063221
       6039.1110      0.47888383
       6040.0937      0.48715220
       6041.0765      0.47551329
       6042.0593      0.46888778
       6043.0420      0.49668492
       6044.0248      0.47161123
       6045.0076      0.46835378
       6045.9904      0.48712656
       6046.9731      0.48378977
       6047.9559      0.49669121
       6048.9387      0.43721096
       6049.9214      0.37404143
       6050.9042      0.60765923
       6051.8870      0.44558598
       6052.8697      0.39482918
       6053.8525      0.49084668
       6054.8353      0.49882613
       6055.8181      0.51672352
       6056.8008      0.52189093
       6057.7836      0.52781711
       6058.7664      0.43978178
       6059.7491      0.51315079
       6060.7319      0.50768612
       6061.7147      0.42484442
       6062.6975      0.45539164
       6063.6802      0.49178649
       6064.6630      0.49654335
       6065.6458      0.48184467
       6066.6285      0.46724037
       6067.6113      0.43011155
       6068.5941      0.47186095
       6069.5768      0.50710616
       6070.5596      0.42298713
       6071.5424      0.47496620
       6072.5252      0.44510927
       6073.5079      0.51959180
       6074.4907      0.48824002
       6075.4735      0.52535052
       6076.4562      0.62168434
       6077.4390      0.49480281
       6078.4218      0.51805001
       6079.4045      0.57120365
       6080.3873      0.47341263
       6081.3701      0.49296865
       6082.3529      0.52716915
       6083.3356      0.47438475
       6084.3184      0.56984439
       6085.3012      0.62153099
       6086.2839      0.47556208
       6087.2667      0.51186415
       6088.2495      0.48621904
       6089.2323      0.49217121
       6090.2150      0.45469592
       6091.1978      0.53051102
       6092.1806      0.47739382
       6093.1633      0.48473988
       6094.1461      0.58309682
       6095.1289      0.54444911
       6096.1116      0.42744388
       6097.0944      0.46071307
       6098.0772      0.41245929
       6099.0600      0.46276031
       6100.0427      0.44272797
       6101.0255      0.50588319
       6102.0083      0.41772210
       6102.9910      0.43831618
       6103.9738      0.44824190
       6104.9566      0.46605908
       6105.9393      0.43386710
       6106.9221      0.42018046
       6107.9049      0.50963184
       6108.8877      0.38883599
       6109.8704      0.52270508
       6110.8532      0.60616482
       6111.8360      0.43466388
       6112.8187      0.53867276
       6113.8015      0.49773385
       6114.7843      0.45077812
       6115.7670      0.55161409
       6116.7498      0.43553419
       6117.7326      0.46783240
       6118.7154      0.34620770
       6119.6981      0.45089357
       6120.6809      0.71079877
       6121.6637      0.51836277
       6122.6464      0.40912982
       6123.6292      0.40712408
       6124.6120      0.47713455
       6125.5948      0.46732468
       6126.5775      0.48298151
       6127.5603      0.52891843
       6128.5431      0.44660515
       6129.5258      0.34484598
       6130.5086      0.38372204
       6131.4914      0.53632139
       6132.4741      0.49669393
       6133.4569      0.52311750
       6134.4397      0.43793746
       6135.4225      0.52986842
       6136.4052      0.41740404
       6137.3880      0.44284262
       6138.3708      0.38770401
       6139.3535      0.45758449
       6140.3363      0.44680117
       6141.3191      0.43829086
       6142.3018      0.45638652
       6143.2846      0.53555992
       6144.2674      0.45776091
       6145.2502      0.47656628
       6146.2329      0.45530270
       6147.2157      0.40781479
       6148.1985      0.43455548
       6149.1812      0.46524462
       6150.1640      0.46401545
       6151.1468      0.52721092
       6152.1296      0.47766303
       6153.1123      0.49953286
       6154.0951      0.64710536
       6155.0779      0.59369197
       6156.0606      0.64013232
       6157.0434      0.57000268
       6158.0262      0.36163440
       6159.0089      0.33358043
       6159.9917      0.38046957
       6160.9745      0.53570405
       6161.9573      0.49237650
       6162.9400      0.36928947
       6163.9228      0.48197610
       6164.9056      0.42625071
       6165.8883      0.44037413
       6166.8711      0.48276069
       6167.8539      0.47494810
       6168.8366      0.47237809
       6169.8194      0.45523789
       6170.8022      0.40291013
       6171.7850      0.48565950
       6172.7677      0.46142521
       6173.7505      0.50732893
       6174.7333      0.56543434
       6175.7160      0.41136369
       6176.6988      0.38680381
       6177.6816      0.40450574
       6178.6644      0.42728683
       6179.6471      0.45913462
       6180.6299      0.48310061
       6181.6127      0.60868040
       6182.5954      0.59536833
       6183.5782      0.47313671
       6184.5610      0.44462125
       6185.5437      0.42202931
       6186.5265      0.51287580
       6187.5093      0.58152100
       6188.4921      0.53944031
       6189.4748      0.43725191
       6190.4576      0.49430511
       6191.4404      0.50665390
       6192.4231      0.44417261
       6193.4059      0.39033447
       6194.3887      0.60925830
       6195.3714      0.36859238
       6196.3542      0.38023889
       6197.3370      0.54876481
       6198.3198      0.47881967
       6199.3025      0.45703414
       6200.2853      0.44525933
       6201.2681      0.52485945
       6202.2508      0.51398667
       6203.2336      0.46129282
       6204.2164      0.40950499
       6205.1992      0.48678009
       6206.1819      0.61284545
       6207.1647      0.61829565
       6208.1475      0.38912150
       6209.1302      0.50849743
       6210.1130      0.31405817
       6211.0958      0.37542102
       6212.0785      0.39982429
       6213.0613      0.30269366
       6214.0441      0.40101657
       6215.0269      0.37632855
       6216.0096             NaN
       6216.9924             NaN
       6217.9752             NaN
       6218.9579             NaN
       6219.9407             NaN
       6220.9235             NaN
       6221.9062             NaN
       6222.8890             NaN
       6223.8718             NaN
       6224.8546             NaN
       6225.8373             NaN
       6226.8201             NaN
       6227.8029             NaN
       6228.7856             NaN
       6229.7684             NaN
       6230.7512             NaN
       6231.7339             NaN
       6232.7167             NaN
       6233.6995             NaN
       6234.6823             NaN
       6235.6650             NaN
       6236.6478             NaN
       6237.6306             NaN
       6238.6133             NaN
       6239.5961             NaN
       6240.5789             NaN
       6241.5617             NaN
       6242.5444             NaN
       6243.5272             NaN
       6244.5100             NaN
       6245.4927             NaN
       6246.4755             NaN
       6247.4583             NaN
       6248.4410             NaN
       6249.4238             NaN
       6250.4066             NaN
       6251.3894             NaN
       6252.3721             NaN
       6253.3549             NaN
       6254.3377             NaN
       6255.3204             NaN
       6256.3032             NaN
       6257.2860             NaN
       6258.2687             NaN
       6259.2515             NaN
       6260.2343             NaN
       6261.2171             NaN
       6262.1998             NaN
       6263.1826             NaN
       6264.1654             NaN
       6265.1481             NaN
       6266.1309             NaN
       6267.1137             NaN
       6268.0965             NaN
       6269.0792             NaN
       6270.0620             NaN
       6271.0448             NaN
       6272.0275             NaN
       6273.0103             NaN
       6273.9931             NaN
       6274.9758             NaN
       6275.9586             NaN
       6276.9414             NaN
       6277.9242             NaN
       6278.9069             NaN
       6279.8897             NaN
       6280.8725             NaN
       6281.8552             NaN
       6282.8380             NaN
       6283.8208             NaN
       6284.8035             NaN
       6285.7863             NaN
       6286.7691             NaN
       6287.7519             NaN
       6288.7346             NaN
       6289.7174             NaN
       6290.7002             NaN
       6291.6829             NaN
       6292.6657             NaN
       6293.6485             NaN
       6294.6313             NaN
       6295.6140             NaN
       6296.5968             NaN
       6297.5796             NaN
       6298.5623             NaN
       6299.5451             NaN
       6300.5279             NaN
       6301.5106             NaN
       6302.4934             NaN
       6303.4762      0.62771531
       6304.4590      0.68109887
       6305.4417      0.43432064
       6306.4245      0.60961448
       6307.4073      0.46300973
       6308.3900      0.64305817
       6309.3728      0.43455979
       6310.3556      0.65406801
       6311.3383      0.73787513
       6312.3211      0.54082609
       6313.3039      0.46772574
       6314.2867      0.48470984
       6315.2694      0.58796777
       6316.2522      0.55489396
       6317.2350      0.41616129
       6318.2177      0.54136776
       6319.2005      0.49114056
       6320.1833      0.48670170
       6321.1661      0.49818567
       6322.1488      0.41077497
       6323.1316      0.33916016
       6324.1144      0.44721572
       6325.0971      0.45587894
       6326.0799      0.46182071
       6327.0627      0.42890889
       6328.0454      0.44000337
       6329.0282      0.54757479
       6330.0110      0.45533818
       6330.9938      0.43743400
       6331.9765      0.43055333
       6332.9593      0.45472031
       6333.9421      0.40537663
       6334.9248      0.31196298
       6335.9076      0.32903356
       6336.8904      0.68677362
       6337.8731      0.58055607
       6338.8559      0.38603415
       6339.8387      0.32866618
       6340.8215     0.059092142
       6341.8042      0.31540781
       6342.7870      0.38417436
       6343.7698      0.36087627
       6344.7525      0.47342320
       6345.7353      0.54356661
       6346.7181      0.41706978
       6347.7008      0.38712003
       6348.6836      0.34069063
       6349.6664      0.46761097
       6350.6492      0.42062522
       6351.6319      0.43367665
       6352.6147      0.52956075
       6353.5975      0.45131686
       6354.5802      0.43354721
       6355.5630      0.40176695
       6356.5458      0.57996966
       6357.5286      0.51613657
       6358.5113      0.42323398
       6359.4941      0.37193224
       6360.4769      0.43366345
       6361.4596      0.47453910
       6362.4424      0.44164966
       6363.4252      0.53675885
       6364.4079      0.49165540
       6365.3907      0.59533728
       6366.3735      0.56756071
       6367.3563      0.41696831
       6368.3390      0.52903631
       6369.3218      0.30113224
       6370.3046      0.51502546
       6371.2873      0.32483352
       6372.2701      0.31890699
       6373.2529      0.47973202
       6374.2356      0.36285400
       6375.2184      0.52669044
       6376.2012      0.57543537
       6377.1840      0.66209014
       6378.1667      0.75890660
       6379.1495      0.69559694
       6380.1323      0.66505152
       6381.1150      0.68342778
       6382.0978      0.53948400
       6383.0806      0.40028933
       6384.0634      0.50115784
       6385.0461      0.54965466
       6386.0289      0.40238495
       6387.0117      0.56634860
       6387.9944      0.61725145
       6388.9772      0.67508841
       6389.9600      0.54916448
       6390.9427      0.50063291
       6391.9255      0.64048932
       6392.9083      0.57486420
       6393.8911      0.45108559
       6394.8738      0.34936429
       6395.8566      0.39251096
       6396.8394      0.25201722
       6397.8221      0.22051392
       6398.8049      0.36240802
       6399.7877     0.034237664
       6400.7704      0.15250752
       6401.7532      0.35390840
       6402.7360      0.29741634
       6403.7188      0.60466104
       6404.7015      0.53987430
       6405.6843      0.51182257
       6406.6671      0.39863939
       6407.6498      0.56314163
       6408.6326      0.54155827
       6409.6154      0.52976452
       6410.5982      0.54679623
       6411.5809      0.53397282
       6412.5637      0.56714537
       6413.5465      0.38043294
       6414.5292      0.52477993
       6415.5120      0.40173715
       6416.4948      0.48891809
       6417.4775      0.64814263
       6418.4603      0.58338393
       6419.4431      0.66078225
       6420.4259      0.67892450
       6421.4086      0.67372911
       6422.3914      0.58262619
       6423.3742      0.47860797
       6424.3569      0.70387432
       6425.3397      0.46282542
       6426.3225      0.44311438
       6427.3052      0.39886937
       6428.2880      0.59953554
       6429.2708      0.31498123
       6430.2536      0.47471346
       6431.2363      0.68294325
       6432.2191      0.52818312
       6433.2019      0.52301380
       6434.1846      0.47558239
       6435.1674      0.49272997
       6436.1502      0.39791187
       6437.1330      0.36238731
       6438.1157      0.44650127
       6439.0985      0.59229898
       6440.0813      0.37096432
       6441.0640      0.39909192
       6442.0468      0.64761876
       6443.0296      0.67897645
       6444.0123      0.51475071
       6444.9951      0.65416294
       6445.9779      0.50228509
       6446.9607      0.45016594
       6447.9434      0.54174770
       6448.9262      0.49542693
       6449.9090      0.55648074
       6450.8917      0.37005276
       6451.8745      0.51748864
       6452.8573      0.61978876
       6453.8400      0.37261256
       6454.8228      0.46557231
       6455.8056      0.58941643
       6456.7884      0.49215831
       6457.7711      0.56493556
       6458.7539      0.40158108
       6459.7367      0.46336392
       6460.7194      0.38067239
       6461.7022      0.38924753
       6462.6850      0.48858124
       6463.6677      0.54636876
       6464.6505      0.46263695
       6465.6333      0.49875398
       6466.6161      0.41066428
       6467.5988      0.48305912
       6468.5816      0.63917574
       6469.5644      0.64381158
       6470.5471      0.50043925
       6471.5299      0.57321259
       6472.5127      0.75415062
       6473.4955      0.71675490
       6474.4782      0.82476036
       6475.4610      0.39456925
       6476.4438      0.70054110
       6477.4265      0.54283163
       6478.4093      0.53293197
       6479.3921      0.67978497
       6480.3748      0.54346896
       6481.3576      0.55536946
       6482.3404      0.55580683
       6483.3232      0.54318348
       6484.3059      0.64237929
       6485.2887      0.55466133
       6486.2715      0.63123772
       6487.2542      0.51280870
       6488.2370      0.54464552
       6489.2198      0.59001660
       6490.2025      0.50476016
       6491.1853      0.56805112
       6492.1681      0.51832817
       6493.1509      0.46894261
       6494.1336      0.53695351
       6495.1164      0.46856192
       6496.0992      0.49388311
       6497.0819      0.42792969
       6498.0647      0.44197287
       6499.0475      0.50287622
       6500.0303      0.53797048
       6501.0130      0.58863307
       6501.9958      0.55476062
       6502.9786      0.46737927
       6503.9613      0.50035049
       6504.9441      0.44246025
       6505.9269      0.54559894
       6506.9096      0.49162845
       6507.8924      0.43255466
       6508.8752      0.48402640
       6509.8580      0.44146307
       6510.8407      0.57921605
       6511.8235      0.55136519
       6512.8063      0.61645184
       6513.7890      0.47233785
       6514.7718      0.31999750
       6515.7546      0.27194946
       6516.7373      0.40238468
       6517.7201      0.54823676
       6518.7029      0.36659191
       6519.6857      0.46802915
       6520.6684      0.43918830
       6521.6512      0.45837020
       6522.6340      0.41816725
       6523.6167      0.55939912
       6524.5995      0.64147649
       6525.5823      0.56980866
       6526.5651      0.38750113
       6527.5478      0.43975194
       6528.5306      0.62882760
       6529.5134      0.35444928
       6530.4961      0.48498237
       6531.4789      0.35169191
       6532.4617      0.46708451
       6533.4444      0.68557895
       6534.4272      0.71467190
       6535.4100      0.57917759
       6536.3928      0.58008002
       6537.3755      0.40698941
       6538.3583      0.39924965
       6539.3411      0.56913249
       6540.3238      0.81246538
       6541.3066      0.63209723
       6542.2894      0.46706326
       6543.2721      0.30538418
       6544.2549      0.49427015
       6545.2377      0.67011954
       6546.2205      0.66186416
       6547.2032      0.62954149
       6548.1860      0.67717309
       6549.1688      0.62217181
       6550.1515      0.63026148
       6551.1343      0.69954237
       6552.1171      0.59791274
       6553.0999      0.47235428
       6554.0826      0.48385382
       6555.0654      0.50679208
       6556.0482      0.33650660
       6557.0309      0.40001126
       6558.0137      0.55457167
       6558.9965      0.47836484
       6559.9792      0.74897913
       6560.9620      0.94799339
       6561.9448       1.4160330
       6562.9276       1.4084680
       6563.9103       1.5183465
       6564.8931       1.4362750
       6565.8759      0.84731318
       6566.8586       1.0807125
       6567.8414      0.95886051
       6568.8242      0.60723385
       6569.8069      0.65056405
       6570.7897      0.57232587
       6571.7725      0.40375016
       6572.7553      0.47224836
       6573.7380      0.39929609
       6574.7208      0.48692028
       6575.7036      0.46804423
       6576.6863      0.48428122
       6577.6691      0.49222323
       6578.6519      0.52818816
       6579.6346      0.58099480
       6580.6174      0.51909132
       6581.6002      0.69757252
       6582.5830      0.84631410
       6583.5657      0.93924549
       6584.5485      0.94097592
       6585.5313       1.0049359
       6586.5140      0.87116220
       6587.4968      0.72553217
       6588.4796      0.41366030
       6589.4624      0.52589260
       6590.4451      0.55460893
       6591.4279      0.56045340
       6592.4107      0.50862640
       6593.3934      0.37421747
       6594.3762      0.46484886
       6595.3590      0.51296377
       6596.3417      0.60992023
       6597.3245      0.50095760
       6598.3073      0.55868328
       6599.2901      0.54430979
       6600.2728      0.59777917
       6601.2556      0.49875370
       6602.2384      0.47602579
       6603.2211      0.51298847
       6604.2039      0.52887387
       6605.1867      0.51678124
       6606.1694      0.52897965
       6607.1522      0.47657205
       6608.1350      0.54586539
       6609.1178      0.48258609
       6610.1005      0.43405509
       6611.0833      0.52384903
       6612.0661      0.58636065
       6613.0488      0.43530129
       6614.0316      0.57914658
       6615.0144      0.55868755
       6615.9972      0.56625942
       6616.9799      0.58102228
       6617.9627      0.65322941
       6618.9455      0.59444702
       6619.9282      0.52672139
       6620.9110      0.60299010
       6621.8938      0.62468579
       6622.8765      0.49897520
       6623.8593      0.53390295
       6624.8421      0.68612707
       6625.8249      0.57621279
       6626.8076      0.46909362
       6627.7904      0.45791543
       6628.7732      0.45420432
       6629.7559      0.64869920
       6630.7387      0.58367436
       6631.7215      0.57524129
       6632.7042      0.53730550
       6633.6870      0.50017689
       6634.6698      0.49664068
       6635.6526      0.53972943
       6636.6353      0.50459939
       6637.6181      0.47933742
       6638.6009      0.59524011
       6639.5836      0.45920842
       6640.5664      0.51258532
       6641.5492      0.41553405
       6642.5320      0.42601033
       6643.5147      0.53199069
       6644.4975      0.59264179
       6645.4803      0.51388948
       6646.4630      0.52264748
       6647.4458      0.46301734
       6648.4286      0.53349778
       6649.4113      0.55615373
       6650.3941      0.48832717
       6651.3769      0.59137408
       6652.3597      0.53854586
       6653.3424      0.42952220
       6654.3252      0.43027934
       6655.3080      0.59394850
       6656.2907      0.47909496
       6657.2735      0.60521842
       6658.2563      0.47975792
       6659.2390      0.51691975
       6660.2218      0.48302926
       6661.2046      0.56881972
       6662.1874      0.53585447
       6663.1701      0.43497436
       6664.1529      0.52516116
       6665.1357      0.49435584
       6666.1184      0.46556167
       6667.1012      0.59851316
       6668.0840      0.45666773
       6669.0668      0.50128318
       6670.0495      0.54366017
       6671.0323      0.58750164
       6672.0151      0.61942688
       6672.9978      0.64868212
       6673.9806      0.57731450
       6674.9634      0.53515851
       6675.9461      0.58345983
       6676.9289      0.60193881
       6677.9117      0.55679539
       6678.8945      0.60380889
       6679.8772      0.56271966
       6680.8600      0.45197538
       6681.8428      0.40953265
       6682.8255      0.51787584
       6683.8083      0.52102611
       6684.7911      0.49958707
       6685.7738      0.47919148
       6686.7566      0.48433349
       6687.7394      0.54090497
       6688.7222      0.43842477
       6689.7049      0.48425191
       6690.6877      0.45261289
       6691.6705      0.37854995
       6692.6532      0.41508737
       6693.6360      0.57054930
       6694.6188      0.49186412
       6695.6015      0.54992215
       6696.5843      0.45809916
       6697.5671      0.46998258
       6698.5499      0.47517537
       6699.5326      0.48888495
       6700.5154      0.50228967
       6701.4982      0.52550407
       6702.4809      0.43183234
       6703.4637      0.49659690
       6704.4465      0.45645259
       6705.4293      0.51684470
       6706.4120      0.53940067
       6707.3948      0.42537092
       6708.3776      0.48343595
       6709.3603      0.46052313
       6710.3431      0.41985017
       6711.3259      0.53440886
       6712.3086      0.49035367
       6713.2914      0.54532821
       6714.2742      0.68374054
       6715.2570      0.74582727
       6716.2397      0.81365130
       6717.2225      0.99346268
       6718.2053      0.99596195
       6719.1880      0.81252237
       6720.1708      0.62962815
       6721.1536      0.57987280
       6722.1363      0.52773708
       6723.1191      0.52879162
       6724.1019      0.45894029
       6725.0847      0.53529316
       6726.0674      0.43064364
       6727.0502      0.52307871
       6728.0330      0.57979708
       6729.0157      0.65969487
       6729.9985      0.61530023
       6730.9813      0.62056091
       6731.9641      0.77473568
       6732.9468      0.79025192
       6733.9296      0.67561815
       6734.9124      0.62992519
       6735.8951      0.59590986
       6736.8779      0.58638472
       6737.8607      0.46504428
       6738.8434      0.46415387
       6739.8262      0.45183002
       6740.8090      0.54470816
       6741.7918      0.43202059
       6742.7745      0.39975538
       6743.7573      0.39400326
       6744.7401      0.46913820
       6745.7228      0.44759054
       6746.7056      0.50324893
       6747.6884      0.48688639
       6748.6711      0.53705535
       6749.6539      0.59750002
       6750.6367      0.58056372
       6751.6195      0.54880723
       6752.6022      0.63474740
       6753.5850      0.46385485
       6754.5678      0.44024086
       6755.5505      0.55692770
       6756.5333      0.56421744
       6757.5161      0.53264964
       6758.4989      0.51257212
       6759.4816      0.47076824
       6760.4644      0.41260264
       6761.4472      0.45445900
       6762.4299      0.51056286
       6763.4127      0.49538175
       6764.3955      0.37636174
       6765.3782      0.46432545
       6766.3610      0.44983214
       6767.3438      0.38801281
       6768.3266      0.45181368
       6769.3093      0.49413963
       6770.2921      0.38221617
       6771.2749      0.43267888
       6772.2576      0.46158882
       6773.2404      0.49823258
       6774.2232      0.48844389
       6775.2059      0.56519075
       6776.1887      0.44124135
       6777.1715      0.50281351
       6778.1543      0.52949168
       6779.1370      0.65772511
       6780.1198      0.72516866
       6781.1026      0.45260880
       6782.0853      0.63436772
       6783.0681      0.78406654
       6784.0509      0.34844347
       6785.0337      0.39032720
       6786.0164      0.43442885
       6786.9992      0.63491060
       6787.9820      0.31749013
       6788.9647      0.33918543
       6789.9475      0.25853348
       6790.9303      0.63548850
       6791.9130      0.47012322
       6792.8958      0.45962188
       6793.8786      0.49002519
       6794.8614      0.49254632
       6795.8441      0.54664937
       6796.8269      0.54765406
       6797.8097      0.58811656
       6798.7924      0.58901191
       6799.7752      0.57277858
       6800.7580      0.60213306
       6801.7407      0.49111466
       6802.7235      0.49328175
       6803.7063      0.52104416
       6804.6891      0.57384785
       6805.6718      0.52370419
       6806.6546      0.52929372
       6807.6374      0.51324556
       6808.6201      0.54934336
       6809.6029      0.59410241
       6810.5857      0.49408267
       6811.5684      0.50818424
       6812.5512      0.55175975
       6813.5340      0.59894841
       6814.5168      0.58313301
       6815.4995      0.52752160
       6816.4823      0.52198792
       6817.4651      0.46510530
       6818.4478      0.56462708
       6819.4306      0.50899724
       6820.4134      0.54951958
       6821.3962      0.47540208
       6822.3789      0.69297444
       6823.3617      0.53835147
       6824.3445      0.85509524
       6825.3272      0.89561063
       6826.3100      0.64899809
       6827.2928      0.43877698
       6828.2755      0.73805863
       6829.2583      0.61608124
       6830.2411      0.50651713
       6831.2239      0.37440155
       6832.2066      0.23434005
       6833.1894      0.44832865
       6834.1722      0.59727334
       6835.1549      0.58587356
       6836.1377      0.50797873
       6837.1205      0.41379111
       6838.1032      0.42669060
       6839.0860      0.52271756
       6840.0688      0.61166786
       6841.0516      0.57167588
       6842.0343      0.58359763
       6843.0171      0.40175903
       6843.9999      0.37302001
       6844.9826      0.35592888
       6845.9654      0.55438707
       6846.9482      0.42637924
       6847.9310      0.50880944
       6848.9137      0.49765882
       6849.8965      0.50296970
       6850.8793      0.43043809
       6851.8620      0.47014061
       6852.8448      0.54545640
       6853.8276      0.46073018
       6854.8103      0.50613250
       6855.7931      0.49190487
       6856.7759      0.68185756
       6857.7587      0.50498820
       6858.7414      0.49864929
       6859.7242      0.57575031
       6860.7070      0.55529799
       6861.6897      0.60983256
       6862.6725      0.48309256
       6863.6553      0.49028420
       6864.6380      0.49214135
       6865.6208      0.55340448
       6866.6036      0.54887862
       6867.5864      0.33110312
       6868.5691      0.53311661
       6869.5519      0.58185167
       6870.5347      0.52073509
       6871.5174      0.15794409
       6872.5002      0.75455209
       6873.4830      0.71275902
       6874.4658      0.66688387
       6875.4485      0.59579490
       6876.4313      0.42319552
       6877.4141      0.49192218
       6878.3968      0.61144577
       6879.3796      0.53839637
       6880.3624      0.52609026
       6881.3451      0.52453905
       6882.3279      0.41639962
       6883.3107      0.34279486
       6884.2935      0.34116485
       6885.2762      0.58604545
       6886.2590      0.70164848
       6887.2418      0.57635154
       6888.2245      0.57294343
       6889.2073      0.55291730
       6890.1901      0.58000185
       6891.1728      0.38817526
       6892.1556      0.38684836
       6893.1384      0.38353456
       6894.1212      0.64609368
       6895.1039      0.48301799
       6896.0867    -0.011412143
       6897.0695      0.43720977
       6898.0522      0.62702881
       6899.0350      0.67156606
       6900.0178      0.47568138
       6901.0006      0.53652074
       6901.9833      0.57833458
       6902.9661      0.63108581
       6903.9489      0.50272616
       6904.9316      0.52930211
       6905.9144      0.56194499
       6906.8972      0.51454815
       6907.8799      0.56497558
       6908.8627      0.62142181
       6909.8455      0.54245046
       6910.8283      0.44685558
       6911.8110      0.41460624
       6912.7938      0.42838620
       6913.7766      0.62454767
       6914.7593      0.53986338
       6915.7421      0.58369085
       6916.7249      0.60394369
       6917.7076      0.51400837
       6918.6904      0.67570108
       6919.6732      0.35880241
       6920.6560      0.57547335
       6921.6387      0.76190098
       6922.6215      0.68223720
       6923.6043      0.62391188
       6924.5870      0.54680087
       6925.5698      0.38878242
       6926.5526      0.43055003
       6927.5353      0.54794302
       6928.5181      0.57255330
       6929.5009      0.50821804
       6930.4837      0.55930486
       6931.4664      0.51984936
       6932.4492      0.54023758
       6933.4320      0.49859032
       6934.4147      0.53081947
       6935.3975      0.46624416
       6936.3803      0.59397205
       6937.3631      0.59847687
       6938.3458      0.45917744
       6939.3286      0.54982680
       6940.3114      0.74703369
       6941.2941      0.59626124
       6942.2769      0.56103805
       6943.2597      0.47526965
       6944.2424      0.48359919
       6945.2252      0.47186535
       6946.2080      0.64295197
       6947.1908      0.55589463
       6948.1735      0.62110636
       6949.1563      0.57698637
       6950.1391      0.47990161
       6951.1218      0.48530757
       6952.1046      0.37489826
       6953.0874      0.47762600
       6954.0701      0.59824308
       6955.0529      0.49961206
       6956.0357      0.67116753
       6957.0185      0.71792000
       6958.0012      0.57188659
       6958.9840      0.49636284
       6959.9668      0.57240508
       6960.9495      0.65902988
       6961.9323      0.56911494
       6962.9151      0.52307937
       6963.8979      0.53041218
       6964.8806      0.62993258
       6965.8634      0.52545787
       6966.8462      0.54320019
       6967.8289      0.57152773
       6968.8117      0.46645697
       6969.7945      0.57687771
       6970.7772      0.61665401
       6971.7600      0.69693088
       6972.7428      0.57303995
       6973.7256      0.49403036
       6974.7083      0.52876440
       6975.6911      0.57358342
       6976.6739      0.49193268
       6977.6566      0.58307951
       6978.6394      0.60440182
       6979.6222      0.59033258
       6980.6049      0.62066440
       6981.5877      0.56058878
       6982.5705      0.47723928
       6983.5533      0.44548426
       6984.5360      0.49654439
       6985.5188      0.51023796
       6986.5016      0.56196739
       6987.4843      0.56921493
       6988.4671      0.52878436
       6989.4499      0.57359161
       6990.4327      0.72380186
       6991.4154      0.61297504
       6992.3982      0.52082841
       6993.3810      0.54876484
       6994.3637      0.53089871
       6995.3465      0.36146708
       6996.3293      0.47020541
       6997.3120      0.52586221
       6998.2948      0.43015301
       6999.2776      0.59136275
       7000.2604      0.64039460
       7001.2431      0.60913781
       7002.2259      0.51998963
       7003.2087      0.53286922
       7004.1914      0.50131903
       7005.1742      0.57227955
       7006.1570      0.52861023
       7007.1397      0.61786839
       7008.1225      0.64841502
       7009.1053      0.59767499
       7010.0881      0.61952924
       7011.0708      0.57386864
       7012.0536      0.56798702
       7013.0364      0.55185369
       7014.0191      0.69682252
       7015.0019      0.58964963
       7015.9847      0.51827996
       7016.9675      0.52253799
       7017.9502      0.68004255
       7018.9330      0.55794395
       7019.9158      0.52674327
       7020.8985      0.47782422
       7021.8813      0.51885331
       7022.8641      0.55821360
       7023.8468      0.57472011
       7024.8296      0.44381939
       7025.8124      0.52859299
       7026.7952      0.56979096
       7027.7779      0.64220026
       7028.7607      0.55819855
       7029.7435      0.43122958
       7030.7262      0.50459653
       7031.7090      0.47494380
       7032.6918      0.59511297
       7033.6745      0.52056575
       7034.6573      0.54199543
       7035.6401      0.56363779
       7036.6229      0.58437831
       7037.6056      0.63504408
       7038.5884      0.72315943
       7039.5712      0.53110095
       7040.5539      0.56969068
       7041.5367      0.53852203
       7042.5195      0.63580863
       7043.5022      0.54729475
       7044.4850      0.33541471
       7045.4678      0.31404559
       7046.4506      0.42837536
       7047.4333      0.46938920
       7048.4161      0.53284561
       7049.3989      0.65722095
       7050.3816      0.52044616
       7051.3644      0.65860044
       7052.3472      0.40014944
       7053.3300      0.35137698
       7054.3127      0.47429666
       7055.2955      0.73293027
       7056.2783      0.48790321
       7057.2610      0.62002116
       7058.2438      0.42881828
       7059.2266      0.92518192
       7060.2093      0.74657933
       7061.1921      0.56710177
       7062.1749      0.86262016
       7063.1577      0.74100418
       7064.1404      0.69251617
       7065.1232      0.77199089
       7066.1060      0.51975953
       7067.0887      0.56184989
       7068.0715      0.59600851
       7069.0543      0.52544820
       7070.0370      0.72903045
       7071.0198      0.61928899
       7072.0026      0.49188537
       7072.9854      0.54486689
       7073.9681      0.36293344
       7074.9509      0.66803922
       7075.9337      0.59843405
       7076.9164      0.73009847
       7077.8992      0.46888248
       7078.8820      0.53511190
       7079.8648      0.63239825
       7080.8475      0.40471695
       7081.8303      0.28107253
       7082.8131      0.51229574
       7083.7958      0.64223569
       7084.7786      0.83619108
       7085.7614      0.75891043
       7086.7441      0.49740666
       7087.7269      0.62416819
       7088.7097      0.80452950
       7089.6925      0.57004904
       7090.6752      0.36740477
       7091.6580      0.70639307
       7092.6408      0.69062681
       7093.6235      0.39551901
       7094.6063      0.36085096
       7095.5891      0.55497970
       7096.5718      0.50588053
       7097.5546      0.49659841
       7098.5374      0.42887758
       7099.5202      0.44534533
       7100.5029      0.50551971
       7101.4857      0.39105362
       7102.4685      0.49229439
       7103.4512      0.52224744
       7104.4340      0.52469392
       7105.4168      0.51452653
       7106.3996      0.33407167
       7107.3823      0.55731761
       7108.3651      0.65818555
       7109.3479      0.48392994
       7110.3306      0.54074194
       7111.3134      0.59650836
       7112.2962      0.59588277
       7113.2789      0.57461614
       7114.2617      0.60294610
       7115.2445      0.53315051
       7116.2273      0.54000174
       7117.2100      0.50489999
       7118.1928      0.60935957
       7119.1756      0.56190365
       7120.1583      0.47822366
       7121.1411      0.57294486
       7122.1239      0.56169709
       7123.1066      0.55945219
       7124.0894      0.60214729
       7125.0722      0.57612172
       7126.0550      0.55962156
       7127.0377      0.49881718
       7128.0205      0.48166294
       7129.0033      0.55336309
       7129.9860      0.62057179
       7130.9688      0.54443460
       7131.9516      0.50711601
       7132.9344      0.53542756
       7133.9171      0.44462966
       7134.8999      0.50954397
       7135.8827      0.53284441
       7136.8654      0.58583978
       7137.8482      0.48080810
       7138.8310      0.55449646
       7139.8137      0.46945144
       7140.7965      0.59860946
       7141.7793      0.61812837
       7142.7621      0.58770965
       7143.7448      0.50273001
       7144.7276      0.53449730
       7145.7104      0.59352341
       7146.6931      0.59852698
       7147.6759      0.52935494
       7148.6587      0.58911146
       7149.6414      0.50749995
       7150.6242      0.49285336
       7151.6070      0.39041858
       7152.5898      0.48104854
       7153.5725      0.55402009
       7154.5553      0.64677893
       7155.5381      0.68954458
       7156.5208      0.65462152
       7157.5036      0.62196898
       7158.4864      0.53431672
       7159.4691      0.53817913
       7160.4519      0.45629401
       7161.4347      0.51926889
       7162.4175      0.58559074
       7163.4002      0.49791736
       7164.3830      0.70299984
       7165.3658      0.53888924
       7166.3485      0.76619752
       7167.3313      0.73118705
       7168.3141      0.55911615
       7169.2969      0.58018125
       7170.2796      0.83474135
       7171.2624      0.68777177
       7172.2452      0.83843022
       7173.2279       1.0271050
       7174.2107      0.69042409
       7175.1935      0.71145613
       7176.1762      0.98473812
       7177.1590      0.54394455
       7178.1418      0.18039603
       7179.1246      0.38577948
       7180.1073      0.63553279
       7181.0901      0.32617655
       7182.0729      0.63563708
       7183.0556      0.61391675
       7184.0384      0.56548051
       7185.0212      0.59799547
       7186.0039      0.69499973
       7186.9867      0.53013618
       7187.9695      0.48032200
       7188.9523      0.52061194
       7189.9350      0.63718117
       7190.9178      0.65695880
       7191.9006      0.43263875
       7192.8833      0.64543458
       7193.8661      0.60498262
       7194.8489      0.53138808
       7195.8317      0.62521063
       7196.8144      0.60377632
       7197.7972      0.61937963
       7198.7800      0.56006790
       7199.7627      0.55800994
       7200.7455      0.62876751
       7201.7283      0.64874222
       7202.7110      0.68992859
       7203.6938      0.64375619
       7204.6766      0.55763014
       7205.6594      0.68852423
       7206.6421      0.55566390
       7207.6249      0.51615570
       7208.6077      0.51763045
       7209.5904      0.49274429
       7210.5732      0.53572213
       7211.5560      0.53786461
       7212.5387      0.52674941
       7213.5215      0.62330292
       7214.5043      0.55291029
       7215.4871      0.45981939
       7216.4698      0.59716936
       7217.4526       1.1132322
       7218.4354       1.1444486
       7219.4181       1.3321127
       7220.4009      0.74151136
       7221.3837      0.99673236
       7222.3665       1.1720179
       7223.3492      0.84028287
       7224.3320      0.49334558
       7225.3148      0.30039229
       7226.2975      0.45382710
       7227.2803      0.58278434
       7228.2631      0.61532265
       7229.2458      0.75140008
       7230.2286      0.50138143
       7231.2114      0.62691210
       7232.1942      0.69211369
       7233.1769      0.60987122
       7234.1597      0.55862631
       7235.1425      0.50708505
       7236.1252      0.56825465
       7237.1080      0.72047080
       7238.0908      0.62245669
       7239.0735      0.65164559
       7240.0563      0.60119975
       7241.0391      0.67847044
       7242.0219      0.62025311
       7243.0046      0.57530951
       7243.9874      0.61107277
       7244.9702      0.70000563
       7245.9529      0.56987391
       7246.9357      0.53182364
       7247.9185      0.67199842
       7248.9013      0.63689512
       7249.8840      0.62190510
       7250.8668      0.59943367
       7251.8496      0.67210830
       7252.8323      0.61632782
       7253.8151      0.59058786
       7254.7979      0.67400990
       7255.7806      0.54637065
       7256.7634      0.61549392
       7257.7462      0.71836565
       7258.7290      0.70457750
       7259.7117      0.64865066
       7260.6945      0.60185787
       7261.6773      0.53245075
       7262.6600      0.43504291
       7263.6428      0.75119658
       7264.6256      0.54038190
       7265.6083      0.53203808
       7266.5911      0.89935898
       7267.5739      0.68421084
       7268.5567      0.41033536
       7269.5394      0.58475356
       7270.5222      0.88651570
       7271.5050      0.72078198
       7272.4877      0.60188980
       7273.4705      0.61801215
       7274.4533      0.62112466
       7275.4360      0.61883357
       7276.4188      0.68117418
       7277.4016      0.58182196
       7278.3844      0.50863325
       7279.3671      0.56118040
       7280.3499      0.75725989
       7281.3327      0.73703639
       7282.3154      0.40874368
       7283.2982      0.56647716
       7284.2810      0.63089719
       7285.2638      0.60888657
       7286.2465      0.69471665
       7287.2293      0.64594065
       7288.2121      0.57904052
       7289.1948      0.57951631
       7290.1776      0.52596437
       7291.1604      0.50974199
       7292.1431      0.63053717
       7293.1259      0.81503688
       7294.1087      0.37392060
       7295.0915      0.35875289
       7296.0742      0.22001611
       7297.0570      0.26459531
       7298.0398      0.34340723
       7299.0225      0.56326462
       7300.0053      0.56298233
       7300.9881      0.68497313
       7301.9708      0.63584060
       7302.9536      0.66085402
       7303.9364      0.67582519
       7304.9192      0.71663438
       7305.9019      0.70403097
       7306.8847      0.61074894
       7307.8675      0.58350320
       7308.8502      0.57357808
       7309.8330      0.52036191
       7310.8158      0.54623190
       7311.7986      0.75501074
       7312.7813      0.74512837
       7313.7641      0.70951521
       7314.7469      0.58337011
       7315.7296      0.47724249
       7316.7124      0.57588321
       7317.6952      0.64844742
       7318.6779      0.53919758
       7319.6607      0.61474627
       7320.6435      0.65512131
       7321.6263      0.61883436
       7322.6090      0.73483978
       7323.5918      0.39447043
       7324.5746      0.57077322
       7325.5573      0.56457789
       7326.5401      0.91662985
       7327.5229      0.62572443
       7328.5056      0.93305293
       7329.4884      0.58502867
       7330.4712      0.62713289
       7331.4540      0.63101329
       7332.4367      0.59357070
       7333.4195      0.60564079
       7334.4023      0.62435160
       7335.3850      0.53117755
       7336.3678      0.72847251
       7337.3506      0.68589147
       7338.3334      0.67924036
       7339.3161      0.66358618
       7340.2989      0.76217456
       7341.2817      0.62606219
       7342.2644      0.58297848
       7343.2472      0.67696120
       7344.2300      0.71074754
       7345.2127      0.69570950
       7346.1955      0.61957552
       7347.1783      0.74410939
       7348.1611      0.66616284
       7349.1438      0.69318535
       7350.1266      0.67753130
       7351.1094      0.77796229
       7352.0921      0.72381227
       7353.0749      0.46471679
       7354.0577      0.48438572
       7355.0404      0.60177521
       7356.0232      0.62640184
       7357.0060      0.72561228
       7357.9888      0.87627128
       7358.9715      0.64205691
       7359.9543      0.73686908
       7360.9371      0.28511063
       7361.9198      0.59629391
       7362.9026      0.46933696
       7363.8854      0.67778617
       7364.8682      0.56004292
       7365.8509      0.59176778
       7366.8337      0.69557371
       7367.8165      0.65825211
       7368.7992      0.73722738
       7369.7820      0.76067501
       7370.7648      0.81265274
       7371.7475      0.81060289
       7372.7303      0.67946839
       7373.7131      0.65275295
       7374.6959      0.61988265
       7375.6786      0.65993939
       7376.6614      0.69457296
       7377.6442      0.71958185
       7378.6269      0.62955166
       7379.6097      0.67713115
       7380.5925      0.69661850
       7381.5752      0.74891649
       7382.5580      0.59404501
       7383.5408      0.65044956
       7384.5236      0.58138113
       7385.5063      0.63766382
       7386.4891      0.61609316
       7387.4719      0.61025070
       7388.4546      0.66425056
       7389.4374      0.75128985
       7390.4202      0.65221474
       7391.4029      0.78142385
       7392.3857      0.66876542
       7393.3685      0.63700455
       7394.3513      0.71889864
       7395.3340      0.53101949
       7396.3168      0.61316749
       7397.2996      0.66876347
       7398.2823      0.65986442
       7399.2651      0.62865252
       7400.2479      0.82388346
       7401.2307      0.74648816
       7402.2134      0.68691954
       7403.1962      0.47394526
       7404.1790      0.60610976
       7405.1617      0.69495895
       7406.1445      0.58154233
       7407.1273      0.56473985
       7408.1100      0.57936863
       7409.0928      0.69741536
       7410.0756      0.76249073
       7411.0584      0.64853702
       7412.0411      0.71693630
       7413.0239      0.66724688
       7414.0067      0.73347339
       7414.9894      0.73244011
       7415.9722      0.61629061
       7416.9550      0.58110249
       7417.9377      0.54887346
       7418.9205      0.68018209
       7419.9033      0.64968530
       7420.8861      0.62386890
       7421.8688      0.60161721
       7422.8516      0.65291396
       7423.8344      0.55154115
       7424.8171      0.58489960
       7425.7999      0.68608415
       7426.7827      0.68163600
       7427.7655      0.54013104
       7428.7482      0.55224262
       7429.7310      0.74221451
       7430.7138      0.70542484
       7431.6965      0.73299810
       7432.6793      0.66153373
       7433.6621      0.58622790
       7434.6448      0.57316957
       7435.6276      0.53713877
       7436.6104      0.59650947
       7437.5932      0.61612431
       7438.5759      0.61886781
       7439.5587      0.81505026
       7440.5415      0.71846392
       7441.5242      0.83466781
       7442.5070      0.64050929
       7443.4898      0.68159036
       7444.4725      0.67305008
       7445.4553      0.67016429
       7446.4381      0.52470783
       7447.4209      0.66409720
       7448.4036      0.69446743
       7449.3864      0.56218295
       7450.3692      0.62615791
       7451.3519      0.62498649
       7452.3347      0.67897060
       7453.3175      0.70024965
       7454.3003      0.67619375
       7455.2830      0.75920151
       7456.2658      0.67667981
       7457.2486      0.68155035
       7458.2313      0.73306916
       7459.2141      0.72908528
       7460.1969      0.71056066
       7461.1796      0.59182102
       7462.1624      0.63285249
       7463.1452      0.67275276
       7464.1280      0.69873036
       7465.1107      0.83032788
       7466.0935      0.60016228
       7467.0763      0.62030068
       7468.0590      0.78348614
       7469.0418      0.63606112
       7470.0246      0.67298154
       7471.0073      0.63564671
       7471.9901      0.70363015
       7472.9729      0.79583093
       7473.9557      0.61462311
       7474.9384      0.60597262
       7475.9212      0.69624489
       7476.9040      0.70325266
       7477.8867      0.66167432
       7478.8695      0.64383005
       7479.8523      0.72338135
       7480.8351      0.65330332
       7481.8178      0.78849676
       7482.8006      0.78244095
       7483.7834      0.82893341
       7484.7661      0.72222762
       7485.7489      0.74824850
       7486.7317      0.64031704
       7487.7144      0.62116537
       7488.6972      0.71122479
       7489.6800      0.70255039
       7490.6628      0.82444060
       7491.6455      0.82852476
       7492.6283      0.87027958
       7493.6111      0.84195902
       7494.5938      0.79955763
       7495.5766      0.66744943
       7496.5594      0.56760860
       7497.5421      0.70167521
       7498.5249      0.70624572
       7499.5077      0.78293008
       7500.4905      0.79618954
       7501.4732      0.75828443
       7502.4560      0.70552295
       7503.4388      0.72241129
       7504.4215      0.67462869
       7505.4043      0.74132911
       7506.3871      0.62551610
       7507.3698      0.74418824
       7508.3526      0.73295299
       7509.3354      0.68456719
       7510.3182      0.64858390
       7511.3009      0.61697877
       7512.2837      0.64965111
       7513.2665      0.72506188
       7514.2492      0.65506455
       7515.2320      0.78032701
       7516.2148      0.72526833
       7517.1976      0.74139574
       7518.1803      0.78324790
       7519.1631      0.74821168
       7520.1459      0.72658807
       7521.1286      0.79326954
       7522.1114      0.76846034
       7523.0942      0.79222817
       7524.0769      0.78497663
       7525.0597      0.82780674
       7526.0425      0.81453300
       7527.0253      0.83860917
       7528.0080      0.84160494
       7528.9908      0.72465893
       7529.9736      0.74712701
       7530.9563      0.69682395
       7531.9391      0.80138786
       7532.9219      0.69795323
       7533.9046      0.75282838
       7534.8874      0.74324736
       7535.8702      0.70874064
       7536.8530      0.63451297
       7537.8357      0.74795584
       7538.8185      0.78280277
       7539.8013      0.65903087
       7540.7840      0.63840254
       7541.7668      0.77529874
       7542.7496      0.74722323
       7543.7324      0.76331275
       7544.7151      0.88342568
       7545.6979      0.65969194
       7546.6807      0.56856712
       7547.6634      0.67827254
       7548.6462      0.70715311
       7549.6290      0.67651600
       7550.6117      0.67179633
       7551.5945      0.67775882
       7552.5773      0.71928430
       7553.5601      0.77454857
       7554.5428      0.76742547
       7555.5256      0.74066873
       7556.5084      0.66361447
       7557.4911      0.70118190
       7558.4739      0.76995105
       7559.4567      0.74168868
       7560.4394      0.67725666
       7561.4222      0.70863285
       7562.4050      0.59253693
       7563.3878      0.83897386
       7564.3705      0.69582617
       7565.3533      0.69288695
       7566.3361      0.80425110
       7567.3188      0.75224813
       7568.3016      0.79343223
       7569.2844      0.82079089
       7570.2672      0.78431037
       7571.2499      0.67770907
       7572.2327      0.66001418
       7573.2155      0.73623811
       7574.1982      0.69954406
       7575.1810      0.74929919
       7576.1638      0.77105752
       7577.1465      0.66909044
       7578.1293      0.74944588
       7579.1121      0.74463455
       7580.0949      0.83490280
       7581.0776      0.88730824
       7582.0604      0.85831693
       7583.0432      0.85141221
       7584.0259      0.71685297
       7585.0087      0.67263903
       7585.9915      0.68629139
       7586.9742      0.87646583
       7587.9570      0.74807991
       7588.9398      0.75301207
       7589.9226      0.69238755
       7590.9053      0.77161226
       7591.8881      0.72486560
       7592.8709      0.77178450
       7593.8536      0.71317337
       7594.8364      0.77411671
       7595.8192      0.65070897
       7596.8020      0.73832076
       7597.7847      0.62594640
       7598.7675      0.64121883
       7599.7503      0.86272577
       7600.7330      0.67672811
       7601.7158      0.70020936
       7602.6986      0.68821520
       7603.6813      0.76177500
       7604.6641      0.74805583
       7605.6469      0.76817770
       7606.6297      0.68209972
       7607.6124      0.69369468
       7608.5952      0.83979718
       7609.5780      0.48306820
       7610.5607      0.51101733
       7611.5435      0.37723047
       7612.5263      0.47242627
       7613.5090      0.49773835
       7614.4918      0.45856387
       7615.4746       1.1272875
       7616.4574      0.81115062
       7617.4401      0.11932342
       7618.4229    -0.051980857
       7619.4057     -0.21594757
       7620.3884      0.21292504
       7621.3712      0.41312431
       7622.3540     -0.15395705
       7623.3367      0.53628728
       7624.3195      0.21796978
       7625.3023      0.81560910
       7626.2851      0.66903019
       7627.2678      0.98662503
       7628.2506      0.92639249
       7629.2334      0.74315141
       7630.2161      0.74684986
       7631.1989      0.68871172
       7632.1817      0.55123473
       7633.1645      0.66070023
       7634.1472      0.78288917
       7635.1300      0.72045142
       7636.1128      0.71209085
       7637.0955      0.50920498
       7638.0783      0.82275050
       7639.0611      0.73048777
       7640.0438      0.62757025
       7641.0266      0.74311351
       7642.0094      0.73105838
       7642.9922      0.50562799
       7643.9749      0.60562405
       7644.9577      0.53082557
       7645.9405      0.68471113
       7646.9232      0.72158749
       7647.9060      0.73646499
       7648.8888      0.71250762
       7649.8715      0.59860520
       7650.8543      0.45245608
       7651.8371      0.53523535
       7652.8199      0.57473009
       7653.8026      0.59022626
       7654.7854      0.50758747
       7655.7682      0.60514583
       7656.7509      0.64932897
       7657.7337      0.57673300
       7658.7165      0.65651582
       7659.6993      0.59938760
       7660.6820      0.57628886
       7661.6648      0.53219164
       7662.6476      0.58487075
       7663.6303      0.37244599
       7664.6131     0.060613494
       7665.5959      0.43746041
       7666.5786      0.92734619
       7667.5614      0.46098475
       7668.5442      0.49483416
       7669.5270      0.17625153
       7670.5097      0.83340111
       7671.4925      0.61681700
       7672.4753      0.52077668
       7673.4580      0.71833672
       7674.4408      0.75685375
       7675.4236      0.40713959
       7676.4063      0.34070038
       7677.3891      0.61953951
       7678.3719      0.58394705
       7679.3547      0.88083212
       7680.3374       1.3551937
       7681.3202       1.0958212
       7682.3030      0.82283699
       7683.2857      0.81134465
       7684.2685      0.86668067
       7685.2513      0.74400119
       7686.2341      0.57356982
       7687.2168      0.84387588
       7688.1996      0.85894937
       7689.1824      0.81451023
       7690.1651      0.73024690
       7691.1479      0.66372083
       7692.1307      0.75839366
       7693.1134      0.56652433
       7694.0962      0.63214292
       7695.0790      0.72036087
       7696.0618      0.52397113
       7697.0445      0.67525687
       7698.0273      0.71666557
       7699.0101      0.71771562
       7699.9928      0.67861389
       7700.9756      0.91315285
       7701.9584      0.39791336
       7702.9411      0.57033048
       7703.9239      0.66816290
       7704.9067      0.80055773
       7705.8895      0.66715556
       7706.8722       1.0170582
       7707.8550      0.45614473
       7708.8378      0.69779943
       7709.8205      0.75543489
       7710.8033      0.60642214
       7711.7861      0.48860901
       7712.7689      0.44644554
       7713.7516      0.62137034
       7714.7344      0.62941728
       7715.7172      0.71174951
       7716.6999      0.95707719
       7717.6827       1.1663185
       7718.6655      0.70420700
       7719.6482      0.49331047
       7720.6310      0.25967582
       7721.6138      0.53074180
       7722.5966      0.49401220
       7723.5793      0.57102445
       7724.5621      0.89320448
       7725.5449      0.64197086
       7726.5276      0.69722770
       7727.5104      0.60424461
       7728.4932      0.64235187
       7729.4759      0.65802044
       7730.4587      0.82337458
       7731.4415      0.76240015
       7732.4243      0.57953153
       7733.4070      0.35510934
       7734.3898      0.53981122
       7735.3726      0.60451447
       7736.3553      0.84864064
       7737.3381      0.64618695
       7738.3209      0.74328937
       7739.3036      0.69429568
       7740.2864      0.77730723
       7741.2692      0.63072186
       7742.2520      0.64890142
       7743.2347      0.63904263
       7744.2175      0.64598637
       7745.2003      0.58142143
       7746.1830      0.65212611
       7747.1658      0.81415723
       7748.1486      0.64192960
       7749.1314      0.10011877
       7750.1141      0.62742697
       7751.0969       1.0533490
       7752.0797       1.1941478
       7753.0624      0.46876246
       7754.0452    -0.052408152
       7755.0280      0.75766373
       7756.0107      0.77481069
       7756.9935      0.54405216
       7757.9763      0.65422254
       7758.9591      0.70116640
       7759.9418      0.80497263
       7760.9246      0.66193982
       7761.9074      0.72160823
       7762.8901      0.72049647
       7763.8729      0.74719067
       7764.8557      0.72580460
       7765.8384      0.69594640
       7766.8212      0.63800952
       7767.8040      0.60383517
       7768.7868      0.58303884
       7769.7695      0.78071425
       7770.7523      0.74650810
       7771.7351      0.60304059
       7772.7178      0.26658957
       7773.7006      0.16147259
       7774.6834      0.54287577
       7775.6662      0.82108550
       7776.6489      0.85786794
       7777.6317      0.98553591
       7778.6145      0.81837365
       7779.5972      0.79120849
       7780.5800      0.92029496
       7781.5628      0.72751959
       7782.5455      0.97464755
       7783.5283      0.84120892
       7784.5111       1.1026848
       7785.4939      0.60337601
       7786.4766      0.78708598
       7787.4594      0.88372381
       7788.4422       1.9826989
       7789.4249       2.0099608
       7790.4077      0.96685991
       7791.3905      0.88393243
       7792.3732      0.77476263
       7793.3560      0.78404925
       7794.3388      0.87569843
       7795.3216      0.77612332
       7796.3043      0.75366613
       7797.2871      0.90748588
       7798.2699      0.75958121
       7799.2526      0.60919776
       7800.2354      0.80489558
       7801.2182      0.84606488
       7802.2010      0.81026980
       7803.1837      0.86192403
       7804.1665      0.89060908
       7805.1493      0.80313891
       7806.1320      0.67212766
       7807.1148      0.63779546
       7808.0976      0.67248617
       7809.0803      0.55226053
       7810.0631      0.66706863
       7811.0459      0.56525632
       7812.0287      0.64168667
       7813.0114      0.79663296
       7813.9942      0.56604262
       7814.9770      0.70821950
       7815.9597       1.2447311
       7816.9425       1.2153703
       7817.9253      0.98550183
       7818.9080       1.0489562
       7819.8908      0.87115105
       7820.8736      0.81803678
       7821.8564      0.40180835
       7822.8391      0.50598073
       7823.8219      0.63254058
       7824.8047      0.24167855
       7825.7874      0.58188506
       7826.7702      0.56396911
       7827.7530      0.41080526
       7828.7358      0.95666295
       7829.7185      0.95973575
       7830.7013      0.75964536
       7831.6841      0.60970267
       7832.6668      0.87644212
       7833.6496      0.73173207
       7834.6324      0.71332252
       7835.6151      0.73384017
       7836.5979      0.92066598
       7837.5807      0.76951059
       7838.5635      0.83102422
       7839.5462      0.65904264
       7840.5290      0.76893513
       7841.5118      0.80423250
       7842.4945      0.70721802
       7843.4773      0.46443282
       7844.4601      0.62315406
       7845.4428      0.82506278
       7846.4256      0.66085321
       7847.4084      0.71178397
       7848.3912      0.56818091
       7849.3739      0.67863627
       7850.3567      0.78976420
       7851.3395      0.75858806
       7852.3222      0.71776783
       7853.3050      0.70658789
       7854.2878      0.89908479
       7855.2705      0.81378649
       7856.2533      0.52684645
       7857.2361      0.69639808
       7858.2189      0.80022259
       7859.2016      0.91132396
       7860.1844      0.84127195
       7861.1672      0.91738944
       7862.1499      0.87979279
       7863.1327      0.81082084
       7864.1155      0.72595631
       7865.0983      0.78564420
       7866.0810      0.59649294
       7867.0638      0.74906864
       7868.0466      0.93895180
       7869.0293      0.85650101
       7870.0121      0.76213935
       7870.9949      0.96386196
       7871.9776      0.69902244
       7872.9604      0.52096877
       7873.9432      0.82051352
       7874.9260      0.76087967
       7875.9087      0.78018378
       7876.8915      0.76783994
       7877.8743      0.82578176
       7878.8570      0.73183499
       7879.8398      0.85110240
       7880.8226      0.77648969
       7881.8053      0.70397256
       7882.7881      0.68587821
       7883.7709      0.65872399
       7884.7537      0.63283851
       7885.7364      0.79136677
       7886.7192      0.83241867
       7887.7020      0.69750085
       7888.6847      0.80384782
       7889.6675      0.83751507
       7890.6503      0.79951340
       7891.6331      0.78179359
       7892.6158      0.88878239
       7893.5986      0.75662734
       7894.5814      0.74946334
       7895.5641      0.77786208
       7896.5469      0.82653236
       7897.5297      0.81156910
       7898.5124      0.72455280
       7899.4952      0.80616540
       7900.4780      0.76684537
       7901.4608      0.83110737
       7902.4435      0.81753326
       7903.4263      0.90002764
       7904.4091      0.78171334
       7905.3918      0.65142792
       7906.3746      0.85125813
       7907.3574      0.71321853
       7908.3401      0.50932246
       7909.3229      0.80696780
       7910.3057      0.64185629
       7911.2885      0.62446930
       7912.2712      0.60457181
       7913.2540      0.65220857
       7914.2368      0.83642633
       7915.2195      0.75150836
       7916.2023      0.59156882
       7917.1851      0.97618300
       7918.1679      0.92978692
       7919.1506      0.87912949
       7920.1334      0.65772185
       7921.1162      0.58588898
       7922.0989      0.54886044
       7923.0817      0.94368010
       7924.0645      0.82548409
       7925.0472      0.66918500
       7926.0300      0.63565438
       7927.0128      0.68013067
       7927.9956      0.68807077
       7928.9783      0.78822797
       7929.9611      0.55183433
       7930.9439      0.39716338
       7931.9266      0.76099359
       7932.9094      0.79946661
       7933.8922      0.79405362
       7934.8749      0.75520584
       7935.8577      0.40861082
       7936.8405      0.76786654
       7937.8233      0.56913695
       7938.8060      0.86763286
       7939.7888      0.88022861
       7940.7716      0.92172055
       7941.7543      0.87870511
       7942.7371      0.86468263
       7943.7199      0.76881126
       7944.7027      0.75746313
       7945.6854      0.51781591
       7946.6682      0.81406226
       7947.6510      0.56662292
       7948.6337      0.42463750
       7949.6165      0.36999079
       7950.5993      0.42658074
       7951.5820      0.88406551
       7952.5648      0.81653859
       7953.5476      0.89133305
       7954.5304      0.69776765
       7955.5131      0.61897528
       7956.4959      0.71731731
       7957.4787      0.75140861
       7958.4614      0.85804973
       7959.4442      0.60413623
       7960.4270      0.82027893
       7961.4097      0.94180151
       7962.3925      0.72118017
       7963.3753      0.99850810
       7964.3581      0.84116816
       7965.3408      0.54961806
       7966.3236      0.58604363
       7967.3064      0.72355353
       7968.2891       1.0279325
       7969.2719      0.92624961
       7970.2547      0.72052875
       7971.2374      0.66988149
       7972.2202      0.80379979
       7973.2030      0.66019929
       7974.1858      0.82467947
       7975.1685      0.88852380
       7976.1513      0.84073466
       7977.1341      0.97071009
       7978.1168      0.82292641
       7979.0996      0.88067395
       7980.0824      0.84642014
       7981.0652      0.80171872
       7982.0479      0.93570740
       7983.0307      0.82615313
       7984.0135      0.89435322
       7984.9962      0.78209098
       7985.9790      0.74185506
       7986.9618      0.71592627
       7987.9445      0.77408325
       7988.9273      0.76180266
       7989.9101      0.79250908
       7990.8929      0.76929926
       7991.8756      0.72271324
       7992.8584      0.69939953
       7993.8412      0.68410368
       7994.8239      0.72189882
       7995.8067      0.73396191
       7996.7895      0.63581317
       7997.7722      0.69041073
       7998.7550      0.69970487
       7999.7378      0.76297317
       8000.7206      0.66408042
       8001.7033      0.83379580
       8002.6861      0.73303223
       8003.6689      0.54483839
       8004.6516      0.30996595
       8005.6344     -0.38372979
       8006.6172     -0.17273796
       8007.6000      0.42531396
       8008.5827      0.20354168
       8009.5655      0.81406407
       8010.5483       1.1506267
       8011.5310       1.7023095
       8012.5138       1.1927400
       8013.4966       1.1429831
       8014.4793       1.0748265
       8015.4621      0.81908641
       8016.4449      0.66989231
       8017.4277      0.26536981
       8018.4104      0.97251824
       8019.3932       1.0104565
       8020.3760       1.1042238
       8021.3587      0.73643326
       8022.3415      0.62367430
       8023.3243      0.50381387
       8024.3070      0.52303995
       8025.2898      0.59683428
       8026.2726      0.60853642
       8027.2554      0.77671588
       8028.2381      0.54353096
       8029.2209      0.71507383
       8030.2037      0.59219945
       8031.1864      0.65813045
       8032.1692      0.69738232
       8033.1520      0.83877284
       8034.1348      0.68248088
       8035.1175      0.70180565
       8036.1003      0.74258490
       8037.0831      0.77946583
       8038.0658      0.86656463
       8039.0486      0.76017497
       8040.0314      0.80071424
       8041.0141      0.82574664
       8041.9969      0.77863503
       8042.9797      0.62292772
       8043.9625      0.67392092
       8044.9452      0.82560406
       8045.9280      0.66443925
       8046.9108      0.63289418
       8047.8935      0.71900595
       8048.8763      0.69190866
       8049.8591      0.72324692
       8050.8418      0.58369800
       8051.8246      0.66812328
       8052.8074      0.66878618
       8053.7902      0.82011240
       8054.7729      0.80664382
       8055.7557       1.2258013
       8056.7385      0.85791741
       8057.7212      0.86522193
       8058.7040       1.1292352
       8059.6868      0.80043421
       8060.6696      0.64236627
       8061.6523      0.80498452
       8062.6351      0.87519912
       8063.6179      0.75295678
       8064.6006      0.69815939
       8065.5834      0.84534267
       8066.5662      0.76547853
       8067.5489      0.76939170
       8068.5317      0.90767249
       8069.5145      0.72223212
       8070.4973      0.71777012
       8071.4800      0.51747001
       8072.4628     0.087045905
       8073.4456      0.11098772
       8074.4283      0.83320270
       8075.4111      0.63894429
       8076.3939      0.73758269
       8077.3766      0.70949169
       8078.3594       1.0476096
       8079.3422       1.0267569
       8080.3250      0.84663887
       8081.3077      0.76600401
       8082.2905      0.81483021
       8083.2733      0.75850321
       8084.2560      0.67855746
       8085.2388      0.70700310
       8086.2216      0.67961243
       8087.2043      0.83841466
       8088.1871      0.77524540
       8089.1699      0.68532468
       8090.1527      0.78950004
       8091.1354      0.94559891
       8092.1182      0.59197054
       8093.1010      0.77676503
       8094.0837      0.84242560
       8095.0665      0.94328629
       8096.0493      0.96239626
       8097.0321      0.84895091
       8098.0148      0.46510318
       8098.9976      0.65573111
       8099.9804      0.62158929
       8100.9631      0.53052510
       8101.9459      0.74061033
       8102.9287      0.70715253
       8103.9114      0.56376001
       8104.8942      0.71563252
       8105.8770      0.85490311
       8106.8598      0.26221170
       8107.8425      0.12916787
       8108.8253      0.49750339
       8109.8081      0.62677775
       8110.7908      0.57934431
       8111.7736      0.83906159
       8112.7564      0.78033020
       8113.7391      0.39559842
       8114.7219       1.1108745
       8115.7047      0.89953597
       8116.6875      0.83178650
       8117.6702      0.60274860
       8118.6530      0.54154346
       8119.6358      0.72772257
       8120.6185      0.69669216
       8121.6013      0.65407204
       8122.5841      0.89902735
       8123.5669      0.82290515
       8124.5496      0.82188491
       8125.5324      0.58785525
       8126.5152      0.52979677
       8127.4979      0.62628682
       8128.4807      0.71235251
       8129.4635      0.73656299
       8130.4462      0.72152957
       8131.4290      0.97663014
       8132.4118      0.91756669
       8133.3946      0.22273441
       8134.3773       1.2215308
       8135.3601       1.4049664
       8136.3429      0.28030653
       8137.3256      0.79134396
       8138.3084      0.79639602
       8139.2912       1.2397781
       8140.2739       1.0904391
       8141.2567       1.0992590
       8142.2395      0.83204121
       8143.2223      0.39171107
       8144.2050      0.53337617
       8145.1878      0.76453567
       8146.1706      0.81548566
       8147.1533       1.1601745
       8148.1361      0.78843414
       8149.1189       1.1228550
       8150.1017      0.96679069
       8151.0844      0.82071435
       8152.0672      0.30994176
       8153.0500      0.14746855
       8154.0327      0.71831143
       8155.0155      0.81260957
       8155.9983      0.29794476
       8156.9810      0.37380785
       8157.9638      0.36185560
       8158.9466      0.72582907
       8159.9294      0.71327115
       8160.9121      0.66512989
       8161.8949      0.71732924
       8162.8777      0.79057858
       8163.8604      0.81596185
       8164.8432      0.63402793
       8165.8260      0.51126659
       8166.8087      0.54195566
       8167.7915      0.61406604
       8168.7743      0.66392559
       8169.7571      0.75192654
       8170.7398      0.62351957
       8171.7226      0.84273522
       8172.7054      0.79942575
       8173.6881      0.79860439
       8174.6709      0.73956521
       8175.6537      0.65256982
       8176.6365      0.55992446
       8177.6192      0.47122871
       8178.6020      0.43232461
       8179.5848      0.68755340
       8180.5675      0.54070912
       8181.5503      0.67880201
       8182.5331      0.83200358
       8183.5158      0.75358504
       8184.4986      0.69804555
       8185.4814      0.36300377
       8186.4642      0.64066229
       8187.4469      0.95458166
       8188.4297      0.54764305
       8189.4125      0.31783693
       8190.3952      0.12089081
       8191.3780      0.36037782
       8192.3608      0.41109149
       8193.3435      0.52122058
       8194.3263      0.50322912
       8195.3091       3.9435705
       8196.2919       1.5675738
       8197.2746      0.16543195
       8198.2574      0.41733902
       8199.2402      0.26276034
       8200.2229      0.25901397
       8201.2057      0.45059583
       8202.1885      0.37714273
       8203.1712      0.75523514
       8204.1540      0.69534015
       8205.1368      0.82153842
       8206.1196       1.1181817
       8207.1023      0.88288461
       8208.0851      0.69173424
       8209.0679      0.63873847
       8210.0506      0.81104339
       8211.0334      0.86468276
       8212.0162      0.77334649
       8212.9990      0.66407604
       8213.9817      0.83290532
       8214.9645      0.75977673
       8215.9473      0.67257988
       8216.9300      0.45042573
       8217.9128      0.38223816
       8218.8956      0.58703998
       8219.8783      0.51327169
       8220.8611      0.80225891
       8221.8439      0.69850559
       8222.8267      0.73032335
       8223.8094      0.59699643
       8224.7922      0.54290376
       8225.7750      0.46646933
       8226.7577      0.59921081
       8227.7405      0.66029920
       8228.7233      0.42588867
       8229.7060      0.88006174
       8230.6888      0.64086373
       8231.6716      0.41222312
       8232.6544      0.73726675
       8233.6371      0.17814026
       8234.6199      0.39264167
       8235.6027      0.78188119
       8236.5854      0.93385532
       8237.5682      0.60266405
       8238.5510      0.74066972
       8239.5338      0.67930311
       8240.5165      0.56479580
       8241.4993      0.64863637
       8242.4821      0.47463594
       8243.4648      0.60425517
       8244.4476      0.46044460
       8245.4304      0.75947902
       8246.4131      0.16339990
       8247.3959     -0.49234449
       8248.3787      0.80643085
       8249.3615      0.62728841
       8250.3442      0.18647242
       8251.3270     -0.10634521
       8252.3098     -0.16216052
       8253.2925      0.13703284
       8254.2753      0.66964208
       8255.2581      0.64957586
       8256.2408      0.73104632
       8257.2236      0.57200745
       8258.2064      0.57389727
       8259.1892      0.69191583
       8260.1719      0.47930541
       8261.1547      0.42068049
       8262.1375      0.75354173
       8263.1202      0.79619667
       8264.1030       1.0372576
       8265.0858      0.35693106
       8266.0686      0.66307672
       8267.0513      0.96540211
       8268.0341      0.69900503
       8269.0169      0.26783953
       8269.9996      0.89337017
       8270.9824      0.53138121
       8271.9652      0.70245588
       8272.9479      0.59772104
       8273.9307      0.61531555
       8274.9135      0.60945920
       8275.8963      0.40691485
       8276.8790      0.47055795
       8277.8618      0.59025673
       8278.8446      0.70065049
       8279.8273      0.74904945
       8280.8101      0.72357421
       8281.7929       1.4205051
       8282.7756      0.63701121
       8283.7584      0.97959389
       8284.7412      0.53238263
       8285.7240    -0.023717931
       8286.7067     0.070300046
       8287.6895      0.57424801
       8288.6723      0.88800509
       8289.6550      0.34484755
       8290.6378      0.38825403
       8291.6206      0.45686393
       8292.6034      0.53057019
       8293.5861      0.37818883
       8294.5689      0.48214142
       8295.5517      0.50434250
       8296.5344      0.38406544
       8297.5172      0.61736561
       8298.5000      0.52029257
       8299.4827      0.42210663
       8300.4655      0.51920097
       8301.4483      0.49992005
       8302.4311      0.54296468
       8303.4138      0.51454047
       8304.3966      0.38125979
       8305.3794      0.11974977
       8306.3621      0.16952982
       8307.3449      0.13576969
       8308.3277     0.080759885
       8309.3104      0.28496269
       8310.2932      0.61018369
       8311.2760      0.43952049
       8312.2588      0.94905999
       8313.2415      0.57799083
       8314.2243      0.55531884
       8315.2071      0.64971627
       8316.1898      0.21920718
       8317.1726      0.46269351
       8318.1554      0.40323814
       8319.1381      0.81074417
       8320.1209      0.28229926
       8321.1037       1.1546362
       8322.0865       1.1896837
       8323.0692       1.4238722
       8324.0520      0.45780993
       8325.0348      0.18091863
       8326.0175      0.66996673
       8327.0003      0.15051061
       8327.9831      0.53582855
       8328.9659      0.39742547
       8329.9486      0.57041618
       8330.9314      0.56495487
       8331.9142     0.066123016
       8332.8969      0.15186836
       8333.8797      0.20656885
       8334.8625      0.43910835
       8335.8452      0.29110537
       8336.8280      0.44084315
       8337.8108      0.29317475
       8338.7936      0.64034054
       8339.7763       1.0618297
       8340.7591       1.0701823
       8341.7419       1.3402074
       8342.7246       1.0441636
       8343.7074      0.45235533
       8344.6902      0.66000216
       8345.6729      0.43614188
       8346.6557      0.33940191
       8347.6385      0.15697954
       8348.6213   -0.0035381476
       8349.6040      0.52060774
       8350.5868      0.42180842
       8351.5696      0.17106424
       8352.5523      0.46457118
       8353.5351      0.34075869
       8354.5179      0.36553029
       8355.5007     -0.15556318
       8356.4834     0.075629063
       8357.4662     0.050621294
       8358.4490      0.26042944
       8359.4317      0.25580331
       8360.4145      0.36599484
       8361.3973      0.51007219
       8362.3800      0.57020559
       8363.3628      0.24089594
       8364.3456      0.11484496
       8365.3284      0.30696284
       8366.3111      0.14115227
       8367.2939     0.074407348
       8368.2767       2.0272405
