# wavelength flux
       2552.0708    -0.061384437
       2552.9543     0.070261432
       2553.8378     0.075159688
       2554.7213     0.031921959
       2555.6048    -0.017112661
       2556.4883     0.018417090
       2557.3717     0.090126036
       2558.2552     0.018965044
       2559.1387   -0.0070344091
       2560.0222     0.049654111
       2560.9057    0.0089406431
       2561.7892     0.037314334
       2562.6727    -0.023553463
       2563.5562     0.040658568
       2564.4397     0.012377529
       2565.3232    -0.041369747
       2566.2067     0.058089162
       2567.0902     0.034412834
       2567.9737     0.059985092
       2568.8571   -0.0049127113
       2569.7406     0.018092310
       2570.6241   -0.0063414683
       2571.5076   -0.0051292763
       2572.3911     0.038415812
       2573.2746   -0.0081944453
       2574.1581    -0.011806048
       2575.0416    -0.017073659
       2575.9251    0.0082948281
       2576.8086     0.027059149
       2577.6921   -0.0095383811
       2578.5756    -0.023238000
       2579.4590   -0.0052455649
       2580.3425   -0.0082948756
       2581.2260     0.034659119
       2582.1095     0.011435065
       2582.9930     0.010996151
       2583.8765    -0.048443808
       2584.7600    -0.062796069
       2585.6435    -0.035231303
       2586.5270     0.052604454
       2587.4105     0.067979092
       2588.2940    -0.032150464
       2589.1775    -0.031186752
       2590.0610   -0.0069662041
       2590.9444   -0.0064267991
       2591.8279   -0.0089611181
       2592.7114    -0.013404418
       2593.5949    0.0079132874
       2594.4784    0.0035535887
       2595.3619     0.011778480
       2596.2454    -0.027995414
       2597.1289    -0.016489993
       2598.0124     0.050601194
       2598.8959    -0.056296572
       2599.7794    -0.041906134
       2600.6629    -0.078645499
       2601.5464    -0.050604575
       2602.4298    -0.028707858
       2603.3133    0.0082076489
       2604.1968    -0.057365239
       2605.0803     0.053029726
       2605.9638     0.018940483
       2606.8473     0.044287485
       2607.7308    -0.039612686
       2608.6143    -0.014218443
       2609.4978    -0.047460335
       2610.3813    -0.031926463
       2611.2648    -0.074764266
       2612.1483    -0.023639553
       2613.0318     0.026537755
       2613.9152     0.026982914
       2614.7987     0.019625433
       2615.6822     0.019967553
       2616.5657     0.035944674
       2617.4492    -0.066085900
       2618.3327   -0.0047549118
       2619.2162     0.017675791
       2620.0997   -0.0058663796
       2620.9832     0.034626547
       2621.8667   -0.0035485838
       2622.7502     0.046241371
       2623.6337     0.016469453
       2624.5172     0.027592546
       2625.4006   -0.0090264947
       2626.2841     0.033456561
       2627.1676     0.018611902
       2628.0511     0.038923256
       2628.9346     0.012533772
       2629.8181     0.015322511
       2630.7016     0.073329538
       2631.5851     0.021337056
       2632.4686     0.017775888
       2633.3521     0.012742912
       2634.2356    -0.048826656
       2635.1191   -0.0014896943
       2636.0026     0.035905370
       2636.8860     0.015977674
       2637.7695     0.033431875
       2638.6530     0.026224381
       2639.5365     0.028182669
       2640.4200     0.016513238
       2641.3035     0.016499155
       2642.1870     0.015326021
       2643.0705   0.00019035806
       2643.9540   -0.0022303307
       2644.8375     0.051597721
       2645.7210    -0.024163677
       2646.6045    0.0028987928
       2647.4880     0.037279377
       2648.3714    -0.021213445
       2649.2549     0.019425377
       2650.1384    -0.024726171
       2651.0219    -0.017656176
       2651.9054     0.019761267
       2652.7889     0.017904551
       2653.6724    -0.044774078
       2654.5559   -0.0020436687
       2655.4394     0.055095136
       2656.3229     0.054960532
       2657.2064     0.062041287
       2658.0899     0.020124568
       2658.9734     0.080783446
       2659.8568     0.039162536
       2660.7403   -0.0081425891
       2661.6238     0.020165478
       2662.5073    -0.028275150
       2663.3908     0.024877774
       2664.2743    -0.010054207
       2665.1578     0.021476371
       2666.0413     0.044179141
       2666.9248     0.089299291
       2667.8083     0.044546828
       2668.6918    -0.018196159
       2669.5753   -0.0010759000
       2670.4588    0.0065775010
       2671.3422   -0.0017887519
       2672.2257    -0.040332471
       2673.1092    -0.016795810
       2673.9927   -0.0021396637
       2674.8762    -0.031592572
       2675.7597     0.039577551
       2676.6432    -0.045235969
       2677.5267    0.0066697867
       2678.4102     0.029837742
       2679.2937    -0.024762410
       2680.1772    -0.014080201
       2681.0607    -0.031245008
       2681.9442     0.029186292
       2682.8276     0.011277193
       2683.7111     0.038934294
       2684.5946   7.0649879e-05
       2685.4781     0.028500300
       2686.3616     0.032614575
       2687.2451   -0.0070181780
       2688.1286     0.054189784
       2689.0121     0.075871891
       2689.8956    -0.013438745
       2690.7791    0.0052135596
       2691.6626     0.073068342
       2692.5461    -0.056317037
       2693.4296    -0.041922313
       2694.3130     0.036631649
       2695.1965     0.053136657
       2696.0800     0.015176033
       2696.9635     0.012924407
       2697.8470    -0.048875624
       2698.7305     0.042981051
       2699.6140     0.016057025
       2700.4975     0.024707373
       2701.3810     0.039453257
       2702.2645     0.015356446
       2703.1480    -0.017369714
       2704.0315     0.049568886
       2704.9150   0.00066428655
       2705.7984     0.018355171
       2706.6819     0.013773479
       2707.5654     0.015740497
       2708.4489    0.0081100849
       2709.3324     0.042418509
       2710.2159    0.0047373103
       2711.0994    0.0016229180
       2711.9829     0.021045934
       2712.8664    -0.032258273
       2713.7499     0.048203503
       2714.6334    -0.013612431
       2715.5169    -0.013642196
       2716.4003   -0.0097967203
       2717.2838   -0.0068145961
       2718.1673   0.00087455477
       2719.0508   -0.0019583863
       2719.9343   -0.0039065641
       2720.8178     0.018961377
       2721.7013   -0.0040394832
       2722.5848  -0.00088857572
       2723.4683     0.020164904
       2724.3518    0.0036135855
       2725.2353     0.010402075
       2726.1188     0.049696813
       2727.0023     0.018687062
       2727.8857   -0.0010133629
       2728.7692     0.031675058
       2729.6527     0.011016153
       2730.5362    -0.017267467
       2731.4197   -0.0034715777
       2732.3032     0.024101222
       2733.1867    -0.014723772
       2734.0702     0.016197480
       2734.9537    0.0055420683
       2735.8372    -0.011002772
       2736.7207    -0.022259913
       2737.6042   -0.0082247276
       2738.4877     0.038818534
       2739.3711     0.012738208
       2740.2546    -0.037120446
       2741.1381     0.012989775
       2742.0216    -0.028695367
       2742.9051     0.028901207
       2743.7886     0.041809044
       2744.6721     0.047766358
       2745.5556    -0.014416042
       2746.4391    0.0084612645
       2747.3226     0.015021855
       2748.2061     0.029425568
       2749.0896     0.029940757
       2749.9731     0.039922767
       2750.8565    0.0096801216
       2751.7400    -0.022444268
       2752.6235     0.047684215
       2753.5070    -0.016507455
       2754.3905   0.00029342238
       2755.2740    -0.019242742
       2756.1575     0.014359594
       2757.0410     0.037191038
       2757.9245     0.029549351
       2758.8080     0.025224993
       2759.6915     0.047515020
       2760.5750     0.031115708
       2761.4585   -0.0037363666
       2762.3419     0.019857658
       2763.2254     0.023784370
       2764.1089   -0.0097134760
       2764.9924    0.0018777196
       2765.8759     0.026092769
       2766.7594     0.037196896
       2767.6429     0.025551809
       2768.5264     0.050597384
       2769.4099    0.0015882231
       2770.2934    -0.033928806
       2771.1769     0.020541746
       2772.0604     0.024626123
       2772.9439     0.022099223
       2773.8273     0.027855132
       2774.7108  -0.00081025211
       2775.5943     0.039962305
       2776.4778     0.027113627
       2777.3613     0.018159547
       2778.2448    0.0071847247
       2779.1283     0.028070713
       2780.0118     0.053935362
       2780.8953    -0.015577349
       2781.7788     0.011178027
       2782.6623   -0.0042709641
       2783.5458     0.014814719
       2784.4293    0.0075890540
       2785.3127     0.015320920
       2786.1962     0.012163637
       2787.0797    0.0011830864
       2787.9632   -0.0088077327
       2788.8467     0.034826381
       2789.7302    0.0064496974
       2790.6137   -0.0068565981
       2791.4972     0.013756759
       2792.3807     0.012250817
       2793.2642   -0.0055379386
       2794.1477    -0.012547435
       2795.0312    0.0099618883
       2795.9147    0.0065085513
       2796.7981   -0.0099062522
       2797.6816     0.024491981
       2798.5651     0.019406958
       2799.4486    -0.031235044
       2800.3321     0.035341938
       2801.2156     0.044394728
       2802.0991     0.017275687
       2802.9826    0.0060875621
       2803.8661    -0.035402009
       2804.7496     0.030646786
       2805.6331     0.011524770
       2806.5166     0.037578916
       2807.4001    0.0058465486
       2808.2835     0.033152371
       2809.1670    -0.015915937
       2810.0505     0.033346291
       2810.9340  -0.00028021557
       2811.8175    0.0041445186
       2812.7010   -0.0063597327
       2813.5845    0.0047608783
       2814.4680   -0.0010326193
       2815.3515    0.0086229769
       2816.2350    -0.011173023
       2817.1185   -0.0030473207
       2818.0020     0.036572981
       2818.8855   -0.0029965799
       2819.7689     0.027580419
       2820.6524     0.016911832
       2821.5359    0.0056143425
       2822.4194     0.023254684
       2823.3029     0.016102473
       2824.1864     0.024835008
       2825.0699     0.025794358
       2825.9534   -0.0073199389
       2826.8369     0.031813594
       2827.7204    0.0035598138
       2828.6039     0.027342343
       2829.4874  -0.00084914666
       2830.3709     0.017560115
       2831.2543    0.0040904339
       2832.1378     0.010151019
       2833.0213     0.043756250
       2833.9048   0.00019111906
       2834.7883    0.0085258634
       2835.6718    0.0071828066
       2836.5553   -0.0054660639
       2837.4388    -0.011599760
       2838.3223     0.024296378
       2839.2058     0.037151184
       2840.0893    0.0046888956
       2840.9728   -0.0078563150
       2841.8563   -0.0035851439
       2842.7397   -0.0063450747
       2843.6232     0.027728250
       2844.5067    -0.044562090
       2845.3902     0.017977045
       2846.2737    0.0070588547
       2847.1572    0.0092194336
       2848.0407   -0.0081497998
       2848.9242     0.020889134
       2849.8077     0.012139471
       2850.6912    -0.012193962
       2851.5747    -0.017593085
       2852.4582    -0.025938651
       2853.3416    -0.014189730
       2854.2251     0.033262607
       2855.1086    -0.010040913
       2855.9921    0.0073671702
       2856.8756   -0.0081675998
       2857.7591   -0.0066831048
       2858.6426     0.016199048
       2859.5261     0.032817793
       2860.4096     0.016094868
       2861.2931    -0.011954217
       2862.1766     0.012319745
       2863.0601     0.029452784
       2863.9436    -0.027905834
       2864.8270  -0.00039462416
       2865.7105   -0.0067962792
       2866.5940    -0.019360464
       2867.4775   -0.0096191317
       2868.3610   -0.0047954805
       2869.2445     0.011715610
       2870.1280     0.016642267
       2871.0115    -0.022544345
       2871.8950    0.0077427504
       2872.7785    0.0066401425
       2873.6620  -0.00016392214
       2874.5455    0.0032834986
       2875.4290     0.013791730
       2876.3124    -0.029944608
       2877.1959     0.016736562
       2878.0794     0.024025707
       2878.9629     0.020417398
       2879.8464   -0.0065479201
       2880.7299   -0.0092688855
       2881.6134     0.014339315
       2882.4969     0.044483245
       2883.3804    0.0083943347
       2884.2639    0.0075166332
       2885.1474    0.0022590826
       2886.0309     0.012073103
       2886.9144   -0.0066238417
       2887.7978    0.0076823055
       2888.6813    -0.017441776
       2889.5648    -0.014713718
       2890.4483   -0.0061747241
       2891.3318     0.019549674
       2892.2153     0.013106268
       2893.0988     0.014762571
       2893.9823    -0.010811196
       2894.8658    -0.016355238
       2895.7493    -0.033274362
       2896.6328    0.0093029218
       2897.5163    0.0083816458
       2898.3998     0.021886310
       2899.2832     0.025951277
       2900.1667     0.030644754
       2901.0502     0.015543836
       2901.9337    -0.023950093
       2902.8172    0.0029741760
       2903.7007    -0.026804463
       2904.5842    -0.040262252
       2905.4677    0.0098298975
       2906.3512    0.0032844767
       2907.2347     0.012073758
       2908.1182    -0.027104820
       2909.0017     0.015757001
       2909.8852    -0.015368638
       2910.7686   -0.0059140216
       2911.6521    0.0079127371
       2912.5356     0.036110720
       2913.4191   -0.0025099239
       2914.3026     0.036786294
       2915.1861   -0.0097896681
       2916.0696     0.012798053
       2916.9531     0.023206950
       2917.8366    -0.017012524
       2918.7201     0.028921041
       2919.6036     0.034785393
       2920.4871    0.0076734610
       2921.3706    0.0048971149
       2922.2540     0.040368238
       2923.1375    0.0095501437
       2924.0210    0.0012937327
       2924.9045     0.025494929
       2925.7880   0.00020881125
       2926.6715     0.027117160
       2927.5550     0.024046397
       2928.4385     0.032261636
       2929.3220   -0.0038048527
       2930.2055     0.017698888
       2931.0890   -0.0077756973
       2931.9725   -0.0040695500
       2932.8560     0.016477515
       2933.7394    0.0086307030
       2934.6229     0.014229451
       2935.5064     0.020452531
       2936.3899    0.0049896534
       2937.2734    0.0076104626
       2938.1569   -0.0049730979
       2939.0404     0.038140929
       2939.9239    0.0023123442
       2940.8074    0.0078186513
       2941.6909    0.0049451289
       2942.5744     0.016083961
       2943.4579   -0.0057995970
       2944.3414    0.0035678543
       2945.2248     0.021388307
       2946.1083   -0.0063742800
       2946.9918     0.024706720
       2947.8753    0.0047350741
       2948.7588    -0.021532441
       2949.6423  -0.00036218834
       2950.5258   -0.0066868661
       2951.4093   -0.0093142122
       2952.2928    -0.015196337
       2953.1763     0.010531636
       2954.0598   -0.0024311034
       2954.9433     0.030134064
       2955.8268     0.017790812
       2956.7102     0.023363656
       2957.5937     0.016669684
       2958.4772     0.044396323
       2959.3607    -0.012904243
       2960.2442     0.019507903
       2961.1277     0.023392802
       2962.0112  -0.00065468083
       2962.8947     0.020581597
       2963.7782     0.024794695
       2964.6617     0.052446070
       2965.5452    0.0018323981
       2966.4287     0.011496374
       2967.3122   2.8522613e-05
       2968.1956    0.0023077379
       2969.0791     0.010585162
       2969.9626   -0.0054208180
       2970.8461     0.024148463
       2971.7296   -0.0039809868
       2972.6131    -0.034938037
       2973.4966    -0.034366080
       2974.3801     0.017481923
       2975.2636    0.0016201264
       2976.1471     0.025137946
       2977.0306     0.017361090
       2977.9141    -0.012952316
       2978.7976     0.014898798
       2979.6810    0.0070241270
       2980.5645    -0.011439780
       2981.4480     0.010247813
       2982.3315     0.032002933
       2983.2150     0.020490630
       2984.0985    0.0077672775
       2984.9820    -0.018941374
       2985.8655    0.0055717912
       2986.7490    0.0022047007
       2987.6325    0.0025740907
       2988.5160    -0.014198746
       2989.3995    0.0013235350
       2990.2829     0.020448656
       2991.1664     0.021674380
       2992.0499     0.026314707
       2992.9334   -0.0010644585
       2993.8169   -0.0097300324
       2994.7004   -0.0080871998
       2995.5839    0.0041236694
       2996.4674     0.019312688
       2997.3509     0.037626347
       2998.2344    0.0071264707
       2999.1179    0.0093256309
       3000.0014     0.037445871
       3000.8849    -0.010049473
       3001.7683    0.0068175090
       3002.6518   9.1577594e-06
       3003.5353     0.026173756
       3004.4188   -0.0077033028
       3005.3023     0.026032916
       3006.1858    -0.024797673
       3007.0693    -0.019210273
       3007.9528   -0.0080865716
       3008.8363     0.012844317
       3009.7198    -0.010076327
       3010.6033     0.012592895
       3011.4868   -0.0064787794
       3012.3703     0.014958938
       3013.2537    0.0048048321
       3014.1372     0.024010475
       3015.0207     0.015380430
       3015.9042     0.016443733
       3016.7877   -0.0061559758
       3017.6712    0.0047921750
       3018.5547   -0.0081134315
       3019.4382     0.019489070
       3020.3217    0.0076364694
       3021.2052     0.013646309
       3022.0887    -0.029391698
       3022.9722     0.017256749
       3023.8557     0.013621109
       3024.7391     0.034243320
       3025.6226     0.023317692
       3026.5061     0.013259477
       3027.3896    0.0031204455
       3028.2731     0.023032640
       3029.1566    -0.013274009
       3030.0401    -0.019099469
       3030.9236   0.00054989123
       3031.8071    0.0021834940
       3032.6906    -0.012388464
       3033.5741     0.024720786
       3034.4576    0.0022846848
       3035.3411     0.020539058
       3036.2245    -0.031501655
       3037.1080    -0.020179321
       3037.9915     0.015347357
       3038.8750    -0.014221646
       3039.7585     0.050431428
       3040.6420     0.029145222
       3041.5255   0.00093025771
       3042.4090     0.016313180
       3043.2925     0.029845260
       3044.1760    0.0023712494
       3045.0595    0.0050833503
       3045.9430     0.012913700
       3046.8265    0.0033539150
       3047.7099     0.012498492
       3048.5934    0.0050067404
       3049.4769   -0.0060193086
       3050.3604     0.018593223
       3051.2439     0.015720070
       3052.1274    0.0099185774
       3053.0109    -0.012335771
       3053.8944    0.0033651235
       3054.7779     0.053487319
       3055.6614    0.0091433868
       3056.5449    -0.019247981
       3057.4284   -0.0087822375
       3058.3119     0.034223690
       3059.1953     0.022622306
       3060.0788     0.027217269
       3060.9623     0.019247302
       3061.8458     0.025151166
       3062.7293     0.015845214
       3063.6128   -0.0063122381
       3064.4963   -0.0038788286
       3065.3798    0.0046078369
       3066.2633    0.0075441324
       3067.1468     0.030904617
       3068.0303    0.0023351909
       3068.9138    0.0080043332
       3069.7973     0.027003796
       3070.6807    0.0091424808
       3071.5642     0.024331257
       3072.4477     0.010239770
       3073.3312  -0.00098273419
       3074.2147     0.027023157
       3075.0982     0.015930975
       3075.9817    0.0045348236
       3076.8652     0.011285124
       3077.7487     0.010542456
       3078.6322    0.0058539161
       3079.5157   -0.0028567545
       3080.3992    0.0057171383
       3081.2827    0.0067309855
       3082.1661   -0.0037586263
       3083.0496     0.021746352
       3083.9331   -0.0016759122
       3084.8166   -0.0025512925
       3085.7001    0.0019261541
       3086.5836    0.0037315352
       3087.4671    0.0050848121
       3088.3506    0.0012786885
       3089.2341  -0.00052614970
       3090.1176     0.012762513
       3091.0011     0.020172485
       3091.8846     0.031116551
       3092.7681    0.0048012299
       3093.6515     0.018404793
       3094.5350   -0.0096965494
       3095.4185     0.015782904
       3096.3020   -0.0021224936
       3097.1855    0.0081326430
       3098.0690   -0.0051831045
       3098.9525   -0.0071154548
       3099.8360     0.027810736
       3100.7195     0.015905572
       3101.6030     0.020919026
       3102.4865     0.011120610
       3103.3700    0.0054121291
       3104.2535     0.034685503
       3105.1369     0.040205285
       3106.0204     0.010286144
       3106.9039    -0.014784699
       3107.7874    0.0060985424
       3108.6709   -0.0053272408
       3109.5544     0.011529254
       3110.4379     0.020886320
       3111.3214   -0.0043786468
       3112.2049  -0.00042127141
       3113.0884     0.039427294
       3113.9719     0.023243059
       3114.8554     0.042856072
       3115.7389     0.023117395
       3116.6223    -0.023250948
       3117.5058     0.016496292
       3118.3893     0.011653331
       3119.2728     0.013998066
       3120.1563    -0.011608730
       3121.0398     0.026392475
       3121.9233     0.026943170
       3122.8068     0.017323291
       3123.6903     0.013696403
       3124.5738     0.023794997
       3125.4573    0.0053365817
       3126.3408   -0.0052501492
       3127.2242    0.0055722466
       3128.1077   -0.0011295497
       3128.9912     0.012656174
       3129.8747     0.012773512
       3130.7582    0.0060489635
       3131.6417    0.0050230439
       3132.5252   -0.0025513369
       3133.4087   -0.0067304297
       3134.2922     0.026548511
       3135.1757     0.025654131
       3136.0592   0.00039479536
       3136.9427    0.0062767670
       3137.8262     0.034607113
       3138.7096     0.017262160
       3139.5931     0.011675932
       3140.4766   -0.0098253263
       3141.3601     0.026140174
       3142.2436     0.038383661
       3143.1271     0.043098094
       3144.0106     0.026892439
       3144.8941    -0.010471510
       3145.7776    0.0010519950
       3146.6611     0.037906648
       3147.5446     0.020141966
       3148.4281    0.0036472874
       3149.3116     0.012735486
       3150.1950     0.047709861
       3151.0785     0.048572975
       3151.9620     0.030817474
       3152.8455     0.025574293
       3153.7290   -0.0066023198
       3154.6125   -0.0044305461
       3155.4960     0.029835424
       3156.3795    0.0026774830
       3157.2630     0.011986389
       3158.1465     0.022547042
       3159.0300     0.026761113
       3159.9135   -0.0045860779
       3160.7970     0.048789379
       3161.6804     0.018642152
       3162.5639     0.011238496
       3163.4474     0.011918133
       3164.3309   -0.0067558097
       3165.2144     0.022411470
       3166.0979   -0.0018891756
       3166.9814     0.025399005
       3167.8649   -0.0059557166
       3168.7484     0.016972529
       3169.6319    -0.019938034
       3170.5154    0.0078181626
       3171.3989     0.012680234
       3172.2824  -0.00037100658
       3173.1658     0.035912768
       3174.0493    -0.012327781
       3174.9328     0.015379464
       3175.8163    0.0041977871
       3176.6998    0.0037083997
       3177.5833    0.0069194383
       3178.4668    -0.015298151
       3179.3503   -0.0067972475
       3180.2338    0.0068185693
       3181.1173    0.0062529875
       3182.0008    0.0060321790
       3182.8843   -0.0034248967
       3183.7678     0.024495570
       3184.6512    0.0098145050
       3185.5347     0.015217222
       3186.4182     0.017252751
       3187.3017     0.062609576
       3188.1852    0.0042497242
       3189.0687   -0.0090046841
       3189.9522     0.018341323
       3190.8357     0.010933833
       3191.7192    -0.028196380
       3192.6027     0.041121277
       3193.4862     0.043041512
       3194.3697     0.017436698
       3195.2532     0.042191376
       3196.1366   -0.0039496533
       3197.0201   -0.0062379912
       3197.9036    0.0077707180
       3198.7871     0.033596385
       3199.6706     0.016489884
       3200.5541   -0.0095111383
       3201.4376    0.0044797002
       3202.3211    -0.016306206
       3203.2046     0.024166785
       3204.0881     0.020821875
       3204.9716     0.018675595
       3205.8551    0.0038983874
       3206.7386    -0.025272141
       3207.6220     0.020893388
       3208.5055     0.013559985
       3209.3890     0.020200065
       3210.2725   -0.0045667009
       3211.1560     0.010584297
       3212.0395     0.028278361
       3212.9230     0.024869188
       3213.8065     0.026689797
       3214.6900    0.0097442899
       3215.5735   -0.0017331315
       3216.4570     0.019554047
       3217.3405     0.040893650
       3218.2240     0.013410850
       3219.1074     0.030484650
       3219.9909     0.026298136
       3220.8744     0.017056141
       3221.7579     0.016306083
       3222.6414     0.019010496
       3223.5249     0.022050205
       3224.4084   -0.0076167585
       3225.2919    -0.021621518
       3226.1754     0.016584694
       3227.0589     0.062648635
       3227.9424     0.022703496
       3228.8259     0.021851491
       3229.7094     0.017444009
       3230.5928     0.012327144
       3231.4763    -0.014138592
       3232.3598     0.025026993
       3233.2433    0.0059470348
       3234.1268     0.018859756
       3235.0103    -0.022641575
       3235.8938   -0.0024884838
       3236.7773     0.025206257
       3237.6608    0.0064465348
       3238.5443    0.0080044399
       3239.4278     0.020982814
       3240.3113     0.019981706
       3241.1948    -0.022529583
       3242.0782     0.027847941
       3242.9617     0.019722283
       3243.8452     0.041326442
       3244.7287     0.025888271
       3245.6122     0.027049906
       3246.4957     0.018035446
       3247.3792     0.025833895
       3248.2627     0.023150014
       3249.1462     0.022787166
       3250.0297     0.041505133
       3250.9132   -0.0051985909
       3251.7967    0.0071324012
       3252.6802     0.013800357
       3253.5636     0.036143889
       3254.4471     0.029780897
       3255.3306    -0.015776845
       3256.2141     0.014504715
       3257.0976    0.0033362397
       3257.9811     0.012629115
       3258.8646     0.012528461
       3259.7481    0.0015114349
       3260.6316     0.038802196
       3261.5151     0.011866784
       3262.3986    0.0094387703
       3263.2821     0.030818104
       3264.1655     0.016680307
       3265.0490   -0.0058598637
       3265.9325     0.028793161
       3266.8160   -0.0091829715
       3267.6995    0.0048520557
       3268.5830   -0.0014421370
       3269.4665     0.019767990
       3270.3500   -0.0043182541
       3271.2335     0.023694634
       3272.1170    0.0075313386
       3273.0005     0.037259557
       3273.8840     0.027782786
       3274.7675     0.012141902
       3275.6509     0.019225495
       3276.5344     0.032232758
       3277.4179     0.044925298
       3278.3014   -0.0033527838
       3279.1849     0.018732816
       3280.0684     0.019359892
       3280.9519     0.033335038
       3281.8354     0.027023306
       3282.7189    0.0089710781
       3283.6024     0.011175150
       3284.4859     0.061373345
       3285.3694     0.036821750
       3286.2529     0.026054327
       3287.1363    0.0097481266
       3288.0198     0.017511256
       3288.9033     0.026471705
       3289.7868     0.024139489
       3290.6703   -0.0050715341
       3291.5538     0.036416220
       3292.4373     0.029081365
       3293.3208     0.036796752
       3294.2043     0.020624531
       3295.0878    -0.020509501
       3295.9713     0.021914723
       3296.8548     0.040993760
       3297.7383     0.012694528
       3298.6217     0.034514008
       3299.5052   -0.0077386154
       3300.3887     0.016897306
       3301.2722     0.035851073
       3302.1557  -0.00078980674
       3303.0392     0.028922594
       3303.9227     0.021703278
       3304.8062     0.035361832
       3305.6897     0.038999311
       3306.5732   -0.0019438716
       3307.4567     0.018411554
       3308.3402     0.012746949
       3309.2237     0.027589622
       3310.1071     0.014901359
       3310.9906     0.020160211
       3311.8741     0.013408104
       3312.7576    0.0064261895
       3313.6411   -0.0022380856
       3314.5246    -0.012147296
       3315.4081    -0.018269207
       3316.2916    0.0099386103
       3317.1751     0.033050440
       3318.0586     0.026769904
       3318.9421    -0.018447811
       3319.8256     0.022967321
       3320.7091     0.022152631
       3321.5925    0.0064265033
       3322.4760     0.025886750
       3323.3595     0.034182779
       3324.2430     0.029034354
       3325.1265     0.021633570
       3326.0100   -0.0099225136
       3326.8935   -0.0070102091
       3327.7770     0.047573654
       3328.6605    -0.028146901
       3329.5440     0.021598555
       3330.4275   -0.0062486682
       3331.3110     0.028512852
       3332.1945     0.011118490
       3333.0779     0.017734359
       3333.9614     0.021345781
       3334.8449     0.039514201
       3335.7284     0.020699099
       3336.6119     0.010697577
       3337.4954   -0.0023038582
       3338.3789   -0.0088465073
       3339.2624   -0.0025931201
       3340.1459     0.036030272
       3341.0294     0.029225305
       3341.9129     0.030188566
       3342.7964     0.013656438
       3343.6799     0.020004753
       3344.5633     0.022918994
       3345.4468     0.012033511
       3346.3303     0.033432256
       3347.2138    0.0099061106
       3348.0973     0.020867410
       3348.9808     0.023623639
       3349.8643     0.027832601
       3350.7478    0.0045356688
       3351.6313    0.0014965770
       3352.5148     0.061132677
       3353.3983     0.030962957
       3354.2818     0.059648986
       3355.1653     0.027736259
       3356.0487   -0.0015042443
       3356.9322     0.011353243
       3357.8157     0.037077541
       3358.6992     0.064134755
       3359.5827    0.0057436177
       3360.4662   -0.0032880601
       3361.3497     0.047262599
       3362.2332     0.042362772
       3363.1167     0.050062095
       3364.0002    -0.010138231
       3364.8837     0.011229909
       3365.7672    0.0091950336
       3366.6507     0.034674573
       3367.5341     0.033927787
       3368.4176    -0.014620085
       3369.3011     0.014529918
       3370.1846     0.029821904
       3371.0681     0.041636876
       3371.9516    0.0094359571
       3372.8351     0.034719130
       3373.7186    0.0011110392
       3374.6021     0.023617346
       3375.4856    -0.010343465
       3376.3691     0.043784001
       3377.2526     0.033563212
       3378.1361     0.035182163
       3379.0195     0.016416420
       3379.9030     0.025392785
       3380.7865     0.024901992
       3381.6700     0.011786356
       3382.5535    0.0043799700
       3383.4370   -0.0010785391
       3384.3205    -0.010077103
       3385.2040    0.0035595502
       3386.0875     0.031319551
       3386.9710    -0.011818638
       3387.8545    0.0070099360
       3388.7380     0.035619928
       3389.6215   -0.0059866497
       3390.5049     0.016283985
       3391.3884     0.040527027
       3392.2719     0.011600177
       3393.1554     0.018127283
       3394.0389     0.022075325
       3394.9224    0.0011527706
       3395.8059  -0.00035743904
       3396.6894     0.051526033
       3397.5729     0.029576142
       3398.4564     0.053830843
       3399.3399    -0.013694465
       3400.2234   0.00070989100
       3401.1068     0.019366813
       3401.9903   -0.0025329000
       3402.8738    0.0059759614
       3403.7573     0.026634875
       3404.6408     0.037214335
       3405.5243     0.014742232
       3406.4078     0.020061751
       3407.2913     0.049312862
       3408.1748    0.0094494997
       3409.0583     0.030655256
       3409.9418    -0.010536777
       3410.8253     0.031774141
       3411.7088     0.019900495
       3412.5922     0.024429867
       3413.4757     0.026223770
       3414.3592  -0.00028748695
       3415.2427     0.025814165
       3416.1262     0.023735412
       3417.0097    -0.014375205
       3417.8932     0.026889113
       3418.7767    0.0055640276
       3419.6602     0.012480506
       3420.5437     0.017184460
       3421.4272     0.038109180
       3422.3107     0.045905315
       3423.1942     0.023675831
       3424.0776    0.0092117732
       3424.9611     0.015135878
       3425.8446    0.0092103483
       3426.7281     0.013767132
       3427.6116    -0.021953055
       3428.4951     0.019170104
       3429.3786    0.0092930330
       3430.2621    0.0091831071
       3431.1456    0.0081770310
       3432.0291     0.010750676
       3432.9126     0.016206925
       3433.7961     0.036613807
       3434.6796     0.011890993
       3435.5630     0.034922914
       3436.4465     0.018542905
       3437.3300     0.029806219
       3438.2135     0.010264009
       3439.0970     0.031024542
       3439.9805    0.0064885500
       3440.8640     0.032818060
       3441.7475     0.035150542
       3442.6310     0.018595896
       3443.5145    0.0048910174
       3444.3980     0.015954007
       3445.2815     0.025056121
       3446.1650    0.0072387009
       3447.0484     0.013389551
       3447.9319    -0.012991621
       3448.8154    0.0083186805
       3449.6989     0.012114576
       3450.5824    0.0070132590
       3451.4659    0.0034695992
       3452.3494     0.019491465
       3453.2329     0.031584976
       3454.1164   -0.0055456160
       3454.9999     0.047234995
       3455.8834     0.016725963
       3456.7669     0.038231098
       3457.6504     0.024565436
       3458.5338     0.019689974
       3459.4173     0.018334543
       3460.3008    0.0076435322
       3461.1843    0.0020387003
       3462.0678    0.0077938014
       3462.9513     0.021448562
       3463.8348    0.0015952169
       3464.7183    -0.010228275
       3465.6018    -0.010923196
       3466.4853     0.035309770
       3467.3688     0.037682181
       3468.2523     0.020066185
       3469.1358    0.0079459151
       3470.0192    0.0021642484
       3470.9027     0.028691722
       3471.7862     0.037491306
       3472.6697    -0.012391553
       3473.5532     0.023365029
       3474.4367     0.030554388
       3475.3202     0.034148857
       3476.2037     0.019152656
       3477.0872     0.034697744
       3477.9707     0.029961298
       3478.8542     0.013816094
       3479.7377    -0.011711265
       3480.6212    0.0098933349
       3481.5046     0.036179350
       3482.3881    0.0028527428
       3483.2716     0.031510122
       3484.1551    0.0078235031
       3485.0386     0.060873088
       3485.9221     0.036255630
       3486.8056     0.044376876
       3487.6891     0.014896894
       3488.5726     0.044888950
       3489.4561   -0.0016265214
       3490.3396   -0.0067089036
       3491.2231    -0.013565952
       3492.1066     0.017623910
       3492.9900     0.011183198
       3493.8735   -0.0013740286
       3494.7570     0.023187928
       3495.6405     0.014710143
       3496.5240    0.0045415055
       3497.4075    0.0039306549
       3498.2910     0.032029327
       3499.1745   -0.0031027191
       3500.0580   -0.0089581155
       3500.9415     0.029834252
       3501.8250     0.029850924
       3502.7085     0.058899410
       3503.5920     0.042714388
       3504.4754     0.010603231
       3505.3589    0.0081693486
       3506.2424     0.019487855
       3507.1259     0.047304812
       3508.0094     0.020057922
       3508.8929   0.00049362159
       3509.7764     0.019304044
       3510.6599     0.011520407
       3511.5434     0.032264010
       3512.4269     0.035203277
       3513.3104     0.053418851
       3514.1939     0.070859704
       3515.0774    -0.010135248
       3515.9608     0.011462374
       3516.8443     0.026217584
       3517.7278     0.020265194
       3518.6113     0.014708933
       3519.4948     0.030831466
       3520.3783     0.013632850
       3521.2618     0.023255727
       3522.1453     0.053249957
       3523.0288     0.021749224
       3523.9123     0.042254972
       3524.7958     0.023285316
       3525.6793     0.015200688
       3526.5627     0.019365439
       3527.4462     0.037500655
       3528.3297     0.021658378
       3529.2132     0.012432907
       3530.0967     0.024924171
       3530.9802     0.042194307
       3531.8637     0.022555237
       3532.7472     0.031838832
       3533.6307     0.015947964
       3534.5142     0.021430472
       3535.3977     0.031845114
       3536.2812     0.035938826
       3537.1647     0.035646261
       3538.0481    0.0051434964
       3538.9316     0.063848371
       3539.8151    0.0093532105
       3540.6986     0.017537264
       3541.5821     0.048832713
       3542.4656     0.035536295
       3543.3491     0.010054292
       3544.2326    0.0031138817
       3545.1161     0.016931148
       3545.9996    -0.012740721
       3546.8831     0.016956516
       3547.7666    -0.019309633
       3548.6501     0.014241576
       3549.5335     0.038470642
       3550.4170     0.031528328
       3551.3005     0.029386284
       3552.1840     0.019728935
       3553.0675     0.035532789
       3553.9510     0.014838473
       3554.8345     0.016593553
       3555.7180     0.038808162
       3556.6015   -0.0058154406
       3557.4850    0.0028593449
       3558.3685     0.028756282
       3559.2520     0.022397945
       3560.1355     0.027375401
       3561.0189  -0.00011740668
       3561.9024     0.025792887
       3562.7859     0.051480426
       3563.6694     0.025698236
       3564.5529     0.019977272
       3565.4364     0.058460033
       3566.3199     0.021046938
       3567.2034     0.029926804
       3568.0869     0.039493017
       3568.9704     0.024713787
       3569.8539     0.024055142
       3570.7374     0.019911702
       3571.6209     0.016160814
       3572.5043   -0.0015249492
       3573.3878     0.044739117
       3574.2713     0.016813115
       3575.1548     0.036030986
       3576.0383   -0.0032861044
       3576.9218     0.017110179
       3577.8053    0.0046647911
       3578.6888     0.040113878
       3579.5723     0.011637548
       3580.4558     0.050697285
       3581.3393     0.062970935
       3582.2228    0.0075278027
       3583.1063     0.023204223
       3583.9897    0.0041828287
       3584.8732    -0.029379486
       3585.7567     0.017302265
       3586.6402    0.0048400882
       3587.5237    0.0088917055
       3588.4072    0.0097847493
       3589.2907     0.040750271
       3590.1742     0.039853528
       3591.0577    -0.015738769
       3591.9412     0.015829250
       3592.8247   -0.0099350818
       3593.7082     0.021446892
       3594.5917     0.034454314
       3595.4751     0.052318955
       3596.3586    0.0087033899
       3597.2421     0.014027132
       3598.1256     0.036747740
       3599.0091     0.047345832
       3599.8926     0.027583056
       3600.7761     0.051536281
       3601.6596     0.027634110
       3602.5431     0.011235875
       3603.4266     0.031003769
       3604.3101     0.028067918
       3605.1936     0.069796504
       3606.0771    0.0096841151
       3606.9605     0.041037634
       3607.8440     0.022575577
       3608.7275     0.035597400
       3609.6110  -0.00070891893
       3610.4945     0.035925127
       3611.3780     0.099046180
       3612.2615     0.038998302
       3613.1450    -0.011661552
       3614.0285     0.037938758
       3614.9120     0.035391455
       3615.7955     0.024610129
       3616.6790    0.0093244600
       3617.5625     0.035093084
       3618.4459     0.070818817
       3619.3294   0.00024296172
       3620.2129     0.070702288
       3621.0964   -0.0042954009
       3621.9799     0.025705386
       3622.8634     0.016229355
       3623.7469   -0.0018936862
       3624.6304    -0.037597759
       3625.5139     0.057769311
       3626.3974     0.036475189
       3627.2809    -0.019231743
       3628.1644     0.030385218
       3629.0479     0.023925314
       3629.9313     0.042287439
       3630.8148  -0.00026928679
       3631.6983     0.033006514
       3632.5818    0.0072102868
       3633.4653    -0.019285420
       3634.3488     0.019286975
       3635.2323     0.018032432
       3636.1158     0.014536541
       3636.9993   -0.0030721029
       3637.8828     0.018609627
       3638.7663    0.0097524029
       3639.6498     0.042931065
       3640.5333    0.0059532021
       3641.4167     0.054271199
       3642.3002     0.022013660
       3643.1837     0.018661490
       3644.0672     0.052824401
       3644.9507     0.030569431
       3645.8342     0.028668494
       3646.7177     0.041039435
       3647.6012     0.033438569
       3648.4847    0.0075503267
       3649.3682     0.050510366
       3650.2517     0.016296953
       3651.1352     0.020360833
       3652.0187     0.023126172
       3652.9021     0.017373728
       3653.7856     0.037140296
       3654.6691     0.041788070
       3655.5526     0.035761567
       3656.4361  -0.00099191169
       3657.3196     0.033226561
       3658.2031     0.019899939
       3659.0866    0.0064974450
       3659.9701   -0.0057230782
       3660.8536     0.018140150
       3661.7371     0.012070452
       3662.6206     0.022601930
       3663.5040     0.034633259
       3664.3875     0.030333925
       3665.2710     0.026099648
       3666.1545    0.0030914973
       3667.0380     0.031953769
       3667.9215     0.031971164
       3668.8050    -0.019716237
       3669.6885     0.024991115
       3670.5720     0.041722251
       3671.4555     0.027044240
       3672.3390     0.013982678
       3673.2225     0.062731313
       3674.1060     0.034710482
       3674.9894     0.028558080
       3675.8729     0.021298106
       3676.7564    0.0048500311
       3677.6399     0.034086185
       3678.5234   -0.0073847933
       3679.4069    0.0082527433
       3680.2904     0.037142132
       3681.1739     0.022220927
       3682.0574     0.017712172
       3682.9409   -0.0024540818
       3683.8244     0.052571866
       3684.7079     0.045436486
       3685.5914     0.024172335
       3686.4748     0.043356694
       3687.3583     0.043714020
       3688.2418     0.031433007
       3689.1253     0.034212855
       3690.0088     0.038604641
       3690.8923     0.011174604
       3691.7758     0.034011832
       3692.6593     0.014929626
       3693.5428     0.029259940
       3694.4263     0.022973075
       3695.3098     0.015997014
       3696.1933   -0.0035749989
       3697.0768     0.025204019
       3697.9602    0.0090361034
       3698.8437     0.062295726
       3699.7272    0.0088820168
       3700.6107     0.043095460
       3701.4942     0.051108692
       3702.3777     0.018089497
       3703.2612     0.026969372
       3704.1447     0.029648232
       3705.0282     0.022208596
       3705.9117     0.041501395
       3706.7952     0.015869343
       3707.6787     0.011249713
       3708.5622    -0.010926186
       3709.4456    0.0096460853
       3710.3291     0.037054061
       3711.2126     0.014077586
       3712.0961     0.061060742
       3712.9796     0.018567701
       3713.8631     0.036169793
       3714.7466     0.016767351
       3715.6301     0.035917192
       3716.5136     0.046949362
       3717.3971     0.015339975
       3718.2806     0.012659091
       3719.1641     0.036934027
       3720.0476     0.019235787
       3720.9310     0.034100411
       3721.8145     0.017075529
       3722.6980     0.026525840
       3723.5815     0.021552155
       3724.4650     0.058796320
       3725.3485     0.069929037
       3726.2320     0.039571698
       3727.1155     0.068120625
       3727.9990     0.048637959
       3728.8825     0.038577453
       3729.7660     0.056879187
       3730.6495     0.080543552
       3731.5330     0.041290036
       3732.4164     0.040008404
       3733.2999     0.022838093
       3734.1834     0.022369321
       3735.0669    -0.029320279
       3735.9504     0.032061783
       3736.8339     0.030532350
       3737.7174     0.018475291
       3738.6009     0.014628106
       3739.4844     0.027038643
       3740.3679     0.053577423
       3741.2514     0.032007141
       3742.1349     0.037423011
       3743.0184     0.033056499
       3743.9018     0.026114465
       3744.7853     0.044930517
       3745.6688     0.026183963
       3746.5523    0.0024824134
       3747.4358     0.031905170
       3748.3193   -0.0080659029
       3749.2028     0.025688189
       3750.0863    0.0064025123
       3750.9698     0.044586911
       3751.8533     0.063777894
       3752.7368     0.028934620
       3753.6203     0.033459959
       3754.5038   -0.0051883563
       3755.3872     0.023188156
       3756.2707     0.035906844
       3757.1542     0.018608934
       3758.0377   0.00040782543
       3758.9212     0.019844334
       3759.8047   -0.0074916433
       3760.6882     0.045374229
       3761.5717     0.036806946
       3762.4552     0.063044189
       3763.3387     0.032329518
       3764.2222     0.064495884
       3765.1057     0.023519776
       3765.9892     0.031027857
       3766.8726    -0.013673016
       3767.7561     0.034469197
       3768.6396     0.026027910
       3769.5231     0.059345083
       3770.4066     0.021376082
       3771.2901     0.061711072
       3772.1736     0.049693683
       3773.0571     0.023318094
       3773.9406     0.026514739
       3774.8241     0.036162033
       3775.7076     0.031644499
       3776.5911     0.057459537
       3777.4746     0.042744270
       3778.3580     0.041621932
       3779.2415     0.044665297
       3780.1250     0.038768203
       3781.0085     0.040848569
       3781.8920     0.031921099
       3782.7755     0.055389160
       3783.6590     0.035782863
       3784.5425     0.044600950
       3785.4260     0.041672290
       3786.3095     0.048187926
       3787.1930     0.022082398
       3788.0765     0.058215775
       3788.9600     0.060256812
       3789.8434     0.024571083
       3790.7269     0.048808359
       3791.6104     0.046568326
       3792.4939     0.056755817
       3793.3774     0.027870066
       3794.2609     0.041456251
       3795.1444     0.032575277
       3796.0279     0.051653782
       3796.9114     0.031348257
       3797.7949     0.030419632
       3798.6784     0.038599505
       3799.5619     0.064283703
       3800.4453    0.0064132291
       3801.3288     0.048362461
       3802.2123     0.036563701
       3803.0958     0.076807129
       3803.9793     0.044670295
       3804.8628    0.0024859856
       3805.7463     0.028876852
       3806.6298     0.025754670
       3807.5133     0.030500561
       3808.3968     0.048910478
       3809.2803     0.063455207
       3810.1638     0.039010131
       3811.0473     0.060954192
       3811.9307     0.035079942
       3812.8142     0.056273285
       3813.6977     0.036327085
       3814.5812     0.025948165
       3815.4647     0.037609367
       3816.3482     0.041950886
       3817.2317   -0.0042620036
       3818.1152     0.016327090
       3818.9987     0.044552763
       3819.8822     0.082994475
       3820.7657     0.026249906
       3821.6492    0.0084058294
       3822.5327     0.028979091
       3823.4161     0.050542728
       3824.2996     0.012636325
       3825.1831    0.0086800280
       3826.0666     0.033988974
       3826.9501     0.031808068
       3827.8336     0.023772795
       3828.7171     0.032688590
       3829.6006     0.031454481
       3830.4841     0.064791226
       3831.3676    0.0049420382
       3832.2511     0.010225607
       3833.1346     0.029557311
       3834.0181     0.049100471
       3834.9015     0.051664336
       3835.7850   -0.0070816603
       3836.6685     0.025386148
       3837.5520     0.023264656
       3838.4355     0.029039830
       3839.3190     0.064479714
       3840.2025     0.021052929
       3841.0860     0.039888957
       3841.9695     0.022364553
       3842.8530     0.046916652
       3843.7365     0.045006866
       3844.6200     0.029805332
       3845.5035     0.051656824
       3846.3869     0.041776619
       3847.2704     0.049206759
       3848.1539     0.049856737
       3849.0374     0.058071381
       3849.9209     0.052162076
       3850.8044     0.054646094
       3851.6879     0.046220166
       3852.5714     0.045536014
       3853.4549     0.038286780
       3854.3384     0.040502614
       3855.2219     0.016847102
       3856.1054     0.042264955
       3856.9889     0.043309804
       3857.8723     0.052920039
       3858.7558     0.038809083
       3859.6393     0.053069018
       3860.5228     0.088899651
       3861.4063     0.072061448
       3862.2898     0.042804095
       3863.1733     0.038227912
       3864.0568     0.027730005
       3864.9403     0.043717222
       3865.8238     0.057667176
       3866.7073     0.012045193
       3867.5908    0.0053674054
       3868.4743     0.059132075
       3869.3577     0.059806913
       3870.2412     0.049803249
       3871.1247     0.057980485
       3872.0082   -0.0014890781
       3872.8917     0.083105349
       3873.7752     0.058472820
       3874.6587     0.029498085
       3875.5422     0.040960106
       3876.4257     0.045062955
       3877.3092     0.058207233
       3878.1927     0.057620859
       3879.0762     0.020838608
       3879.9597     0.062623789
       3880.8431     0.013324700
       3881.7266     0.064700441
       3882.6101     0.032331024
       3883.4936     0.044001530
       3884.3771     0.021024496
       3885.2606     0.058707152
       3886.1441     0.040835274
       3887.0276     0.030028338
       3887.9111     0.072873050
       3888.7946     0.072061906
       3889.6781     0.061777213
       3890.5616     0.040184894
       3891.4451     0.068182213
       3892.3285     0.057113432
       3893.2120     0.029671920
       3894.0955     0.050271806
       3894.9790     0.056946855
       3895.8625     0.044819216
       3896.7460     0.030652792
       3897.6295     0.018114973
       3898.5130     0.054295490
       3899.3965     0.091350279
       3900.2800     0.073823192
       3901.1635     0.048913888
       3902.0470     0.064015113
       3902.9305     0.079533026
       3903.8139     0.043336034
       3904.6974     0.065682868
       3905.5809     0.056047683
       3906.4644     0.034276470
       3907.3479     0.028243845
       3908.2314     0.044752482
       3909.1149     0.071139917
       3909.9984     0.093341851
       3910.8819     0.078842405
       3911.7654     0.060254774
       3912.6489     0.045807246
       3913.5324     0.081884729
       3914.4159     0.054291582
       3915.2993     0.034657477
       3916.1828     0.060291674
       3917.0663     0.030947651
       3917.9498     0.094473148
       3918.8333     0.099483109
       3919.7168     0.027360088
       3920.6003     0.049314374
       3921.4838     0.034357602
       3922.3673     0.044346587
       3923.2508     0.036871867
       3924.1343     0.013733612
       3925.0178     0.037530193
       3925.9013    0.0095128549
       3926.7847     0.065944088
       3927.6682     0.014242845
       3928.5517     0.043769973
       3929.4352     0.055467228
       3930.3187     0.049358564
       3931.2022     0.010834017
       3932.0857    0.0010833116
       3932.9692     0.026104760
       3933.8527     0.047990717
       3934.7362     0.071455198
       3935.6197     0.082867060
       3936.5032   -0.0019590442
       3937.3866     0.055198804
       3938.2701     0.058222633
       3939.1536     0.077608283
       3940.0371     0.083295202
       3940.9206     0.084918885
       3941.8041     0.070731382
       3942.6876     0.076703143
       3943.5711     0.055746067
       3944.4546     0.061343050
       3945.3381     0.068897053
       3946.2216     0.030829715
       3947.1051     0.060728736
       3947.9886     0.067995907
       3948.8720     0.069973170
       3949.7555     0.073822833
       3950.6390     0.053434711
       3951.5225     0.057597085
       3952.4060     0.047196702
       3953.2895     0.023632041
       3954.1730     0.076443704
       3955.0565     0.020440433
       3955.9400     0.032404602
       3956.8235     0.011465235
       3957.7070     0.028135931
       3958.5905     0.057274307
       3959.4740     0.023682474
       3960.3574     0.036408102
       3961.2409    0.0059147647
       3962.1244     0.040280635
       3963.0079     0.031590914
       3963.8914     0.033770095
       3964.7749   -0.0078582681
       3965.6584     0.014291082
       3966.5419     0.036370812
       3967.4254     0.028733556
       3968.3089     0.044551485
       3969.1924   -0.0026756119
       3970.0759     0.025179727
       3970.9594     0.055352786
       3971.8428     0.034968410
       3972.7263     0.065418065
       3973.6098     0.080600501
       3974.4933     0.011684688
       3975.3768     0.059391834
       3976.2603     0.053766942
       3977.1438     0.051630274
       3978.0273     0.044391795
       3978.9108     0.065442788
       3979.7943     0.060611179
       3980.6778     0.082684655
       3981.5613     0.068402782
       3982.4448     0.057620100
       3983.3282     0.032743616
       3984.2117     0.051333910
       3985.0952      0.10659020
       3985.9787     0.063217205
       3986.8622     0.039569388
       3987.7457     0.036696029
       3988.6292     0.027926576
       3989.5127     0.072579311
       3990.3962     0.095802643
       3991.2797     0.041016006
       3992.1632     0.020978188
       3993.0467     0.043912409
       3993.9302     0.052659668
       3994.8136     0.060194239
       3995.6971     0.045875561
       3996.5806     0.015052497
       3997.4641      0.10711649
       3998.3476     0.072294813
       3999.2311     0.056225850
       4000.1146     0.082928047
       4000.9981     0.089657934
       4001.8816     0.097725076
       4002.7651     0.062338511
       4003.6486     0.067066556
       4004.5321     0.031517659
       4005.4156     0.073974405
       4006.2990     0.042744577
       4007.1825     0.071061463
       4008.0660     0.018050521
       4008.9495     0.046188327
       4009.8330   -0.0019201588
       4010.7165     0.075456004
       4011.6000     0.071767783
       4012.4835      0.12413206
       4013.3670     0.078401895
       4014.2505     0.085630173
       4015.1340     0.026550428
       4016.0175     0.014216639
       4016.9010     0.060608367
       4017.7844     0.058936629
       4018.6679     0.035486660
       4019.5514     0.059185161
       4020.4349     0.064200704
       4021.3184     0.047755827
       4022.2019      0.11909435
       4023.0854     0.087510898
       4023.9689     0.089821522
       4024.8524     0.090478903
       4025.7359     0.062161698
       4026.6194     0.032506555
       4027.5029     0.051901914
       4028.3864    0.0090552939
       4029.2698     0.036212764
       4030.1533     0.066803660
       4031.0368     0.057755767
       4031.9203     0.067010904
       4032.8038     0.071430579
       4033.6873     0.057812302
       4034.5708     0.046216665
       4035.4543     0.036060928
       4036.3378     0.070525468
       4037.2213     0.041005977
       4038.1048     0.059960750
       4038.9883     0.042805574
       4039.8718     0.050609745
       4040.7552     0.021656384
       4041.6387     0.082390741
       4042.5222     0.078677508
       4043.4057     0.034010650
       4044.2892     0.079227570
       4045.1727     0.067738497
       4046.0562     0.049999428
       4046.9397     0.021034758
       4047.8232     0.027862199
       4048.7067     0.092357244
       4049.5902     0.080851481
       4050.4737     0.033521687
       4051.3572     0.056230856
       4052.2406     0.087932803
       4053.1241     0.066256312
       4054.0076     0.062196934
       4054.8911     0.081660590
       4055.7746     0.049202291
       4056.6581     0.018531275
       4057.5416     0.057982947
       4058.4251     0.068361827
       4059.3086     0.050704330
       4060.1921     0.044525039
       4061.0756     0.081289658
       4061.9591      0.11743651
       4062.8426     0.075217331
       4063.7260     0.091659026
       4064.6095     0.046931717
       4065.4930     0.024454249
       4066.3765     0.094943896
       4067.2600      0.11729026
       4068.1435     0.067284511
       4069.0270     0.030299508
       4069.9105     0.063660527
       4070.7940     0.055718156
       4071.6775     0.055191123
       4072.5610     0.035361205
       4073.4445     0.084011639
       4074.3279     0.071364563
       4075.2114     0.082369987
       4076.0949     0.056104746
       4076.9784     0.086097395
       4077.8619     0.040080596
       4078.7454     0.060169828
       4079.6289     0.063942093
       4080.5124     0.071973885
       4081.3959     0.062378897
       4082.2794     0.059907536
       4083.1629     0.053281064
       4084.0464     0.067321951
       4084.9299     0.050170621
       4085.8133     0.074601852
       4086.6968     0.052905078
       4087.5803     0.059542110
       4088.4638     0.064857850
       4089.3473     0.033047400
       4090.2308     0.031120319
       4091.1143     0.046825600
       4091.9978     0.059813803
       4092.8813     0.057080817
       4093.7648      0.10513887
       4094.6483     0.079175740
       4095.5318     0.073187060
       4096.4153     0.044998363
       4097.2987     0.065234038
       4098.1822     0.060865214
       4099.0657     0.063733494
       4099.9492     0.022634572
       4100.8327     0.096822699
       4101.7162     0.041995669
       4102.5997      0.10170866
       4103.4832     0.055317475
       4104.3667     0.058395851
       4105.2502     0.058162181
       4106.1337     0.072675642
       4107.0172     0.075490907
       4107.9007     0.070669458
       4108.7841     0.024059593
       4109.6676     0.055319274
       4110.5511     0.065539996
       4111.4346     0.090336292
       4112.3181     0.076052916
       4113.2016     0.099810787
       4114.0851     0.083785970
       4114.9686     0.076039500
       4115.8521     0.022524527
       4116.7356     0.052537545
       4117.6191     0.082354607
       4118.5026      0.11502674
       4119.3861     0.046928091
       4120.2695     0.088633659
       4121.1530     0.076125729
       4122.0365     0.076953805
       4122.9200     0.082737989
       4123.8035     0.034902741
       4124.6870     0.072611574
       4125.5705     0.060902917
       4126.4540     0.064943580
       4127.3375     0.090639486
       4128.2210     0.049866634
       4129.1045     0.065194006
       4129.9880      0.12500632
       4130.8715     0.065076378
       4131.7549     0.040911923
       4132.6384     0.058407708
       4133.5219     0.083550485
       4134.4054     0.050999309
       4135.2889     0.088930422
       4136.1724     0.057971970
       4137.0559     0.096571313
       4137.9394      0.11054522
       4138.8229     0.088996429
       4139.7064     0.034245448
       4140.5899     0.045273909
       4141.4734     0.081660840
       4142.3569     0.044452730
       4143.2403      0.11421738
       4144.1238     0.095439675
       4145.0073     0.057029295
       4145.8908     0.093628606
       4146.7743      0.13106572
       4147.6578     0.061803088
       4148.5413     0.094202337
       4149.4248     0.067905707
       4150.3083      0.10811659
       4151.1918      0.11977111
       4152.0753      0.12823107
       4152.9588     0.068977916
       4153.8423     0.045312656
       4154.7257      0.10272745
       4155.6092     0.027985390
       4156.4927     0.050127944
       4157.3762     0.054399801
       4158.2597     0.055532113
       4159.1432     0.074142622
       4160.0267     0.085654609
       4160.9102     0.034247179
       4161.7937      0.10119586
       4162.6772      0.11471087
       4163.5607      0.11336682
       4164.4442     0.075178285
       4165.3277     0.068126708
       4166.2111     0.082389640
       4167.0946     0.059208554
       4167.9781     0.077938990
       4168.8616     0.077536393
       4169.7451     0.082292968
       4170.6286      0.10256347
       4171.5121     0.074393203
       4172.3956     0.060959724
       4173.2791      0.10131319
       4174.1626     0.090023089
       4175.0461     0.085894624
       4175.9296     0.086487232
       4176.8131      0.10394159
       4177.6965     0.069825854
       4178.5800     0.085364873
       4179.4635     0.045315671
       4180.3470     0.066576183
       4181.2305      0.10156104
       4182.1140     0.040080295
       4182.9975     0.022652567
       4183.8810     0.061664286
       4184.7645     0.070431064
       4185.6480     0.056294131
       4186.5315     0.058367125
       4187.4150     0.025374936
       4188.2985     0.083461433
       4189.1819     0.028174977
       4190.0654     0.097844678
       4190.9489     0.092690643
       4191.8324     0.089176337
       4192.7159     0.054110978
       4193.5994     0.077700483
       4194.4829     0.042717865
       4195.3664     0.075693271
       4196.2499      0.11382683
       4197.1334     0.090041357
       4198.0169      0.15864086
       4198.9004     0.088371583
       4199.7839     0.094597052
       4200.6673     0.057053731
       4201.5508     0.062844890
       4202.4343     0.085830528
       4203.3178     0.066389808
       4204.2013     0.063849199
       4205.0848     0.086530069
       4205.9683     0.078637240
       4206.8518     0.054994854
       4207.7353      0.10970874
       4208.6188     0.080388558
       4209.5023     0.047330610
       4210.3858     0.049529045
       4211.2692     0.086266336
       4212.1527     0.070264030
       4213.0362     0.072735933
       4213.9197      0.10190892
       4214.8032     0.086537756
       4215.6867     0.075154928
       4216.5702     0.074812545
       4217.4537     0.078466348
       4218.3372     0.051320613
       4219.2207     0.099076970
       4220.1042     0.063356613
       4220.9877     0.048777127
       4221.8712     0.096728075
       4222.7546     0.074481687
       4223.6381     0.091531671
       4224.5216     0.094090496
       4225.4051     0.074220623
       4226.2886     0.073440579
       4227.1721     0.078852169
       4228.0556      0.10514259
       4228.9391     0.060576035
       4229.8226      0.12613562
       4230.7061     0.065271195
       4231.5896     0.043188797
       4232.4731     0.071989986
       4233.3566     0.052279131
       4234.2400     0.076473775
       4235.1235     0.063971002
       4236.0070      0.10052868
       4236.8905      0.16351315
       4237.7740      0.12419327
       4238.6575     0.056750686
       4239.5410     0.067555251
       4240.4245     0.096923699
       4241.3080     0.090630099
       4242.1915     0.069482384
       4243.0750     0.085282406
       4243.9585     0.083476708
       4244.8420     0.060869959
       4245.7254     0.057137429
       4246.6089      0.10882362
       4247.4924      0.10929162
       4248.3759      0.11627605
       4249.2594     0.097991507
       4250.1429     0.073783052
       4251.0264     0.079322080
       4251.9099     0.092462840
       4252.7934     0.075728258
       4253.6769     0.072771073
       4254.5604     0.061086303
       4255.4439     0.088160800
       4256.3274     0.065904347
       4257.2108      0.11223816
       4258.0943     0.068897240
       4258.9778     0.068872363
       4259.8613     0.068589187
       4260.7448     0.067713884
       4261.6283      0.14630456
       4262.5118     0.090562826
       4263.3953      0.16207711
       4264.2788     0.075203413
       4265.1623     0.088562387
       4266.0458      0.11505235
       4266.9293     0.093631735
       4267.8128     0.061159688
       4268.6962     0.052027048
       4269.5797     0.049105486
       4270.4632      0.11305136
       4271.3467     0.049800749
       4272.2302     0.060663441
       4273.1137     0.088043512
       4273.9972     0.085219630
       4274.8807      0.12383281
       4275.7642     0.096440522
       4276.6477      0.10700223
       4277.5312     0.057801722
       4278.4147     0.073212403
       4279.2982     0.096728241
       4280.1816     0.089127007
       4281.0651     0.054345406
       4281.9486     0.053752621
       4282.8321     0.055670108
       4283.7156     0.099641461
       4284.5991     0.058646980
       4285.4826     0.061588652
       4286.3661     0.091475151
       4287.2496     0.062134603
       4288.1331     0.068508360
       4289.0166     0.077016508
       4289.9001     0.036513140
       4290.7836     0.063011139
       4291.6670     0.051580184
       4292.5505     0.098963054
       4293.4340     0.077604887
       4294.3175      0.11038556
       4295.2010     0.078947802
       4296.0845     0.085578161
       4296.9680     0.089960075
       4297.8515     0.062922007
       4298.7350     0.077418442
       4299.6185      0.11200313
       4300.5020     0.090026141
       4301.3855      0.11614051
       4302.2690      0.11005489
       4303.1524      0.14182227
       4304.0359     0.060813122
       4304.9194      0.10164408
       4305.8029      0.10974664
       4306.6864     0.083127005
       4307.5699      0.10611747
       4308.4534     0.056654590
       4309.3369     0.036701108
       4310.2204     0.061337127
       4311.1039     0.064063457
       4311.9874     0.082765929
       4312.8709     0.046843390
       4313.7544      0.11656233
       4314.6378      0.10433198
       4315.5213     0.095650931
       4316.4048     0.098257050
       4317.2883     0.071930633
       4318.1718     0.047763248
       4319.0553     0.075012686
       4319.9388     0.061588553
       4320.8223     0.082694527
       4321.7058     0.047674755
       4322.5893     0.090363840
       4323.4728     0.049602374
       4324.3563     0.085576596
       4325.2398     0.043474811
       4326.1232      0.10664841
       4327.0067     0.064977202
       4327.8902     0.087729431
       4328.7737     0.070180395
       4329.6572     0.090596816
       4330.5407     0.080696272
       4331.4242     0.074076740
       4332.3077     0.077545832
       4333.1912      0.10576111
       4334.0747     0.061713796
       4334.9582     0.096113283
       4335.8417     0.087380559
       4336.7252     0.090102915
       4337.6086      0.11413102
       4338.4921     0.093609115
       4339.3756      0.12037433
       4340.2591     0.061390298
       4341.1426      0.10946367
       4342.0261      0.12756204
       4342.9096     0.095383710
       4343.7931      0.15251784
       4344.6766     0.083244418
       4345.5601     0.095296498
       4346.4436     0.090500004
       4347.3271     0.095377052
       4348.2105      0.12803940
       4349.0940     0.076204707
       4349.9775     0.040215068
       4350.8610     0.083472283
       4351.7445      0.13176087
       4352.6280     0.097612126
       4353.5115      0.10962795
       4354.3950     0.078998219
       4355.2785      0.10553361
       4356.1620     0.047340685
       4357.0455      0.12583121
       4357.9290      0.11029526
       4358.8125      0.13533207
       4359.6959      0.14161748
       4360.5794      0.11085352
       4361.4629     0.048645748
       4362.3464     0.094971061
       4363.2299     0.074804898
       4364.1134     0.040386443
       4364.9969     0.041407837
       4365.8804      0.15377509
       4366.7639      0.11969636
       4367.6474     0.070381501
       4368.5309     0.095803204
       4369.4144      0.10549801
       4370.2979      0.10461672
       4371.1813      0.15094607
       4372.0648     0.071964362
       4372.9483     0.099241633
       4373.8318     0.048074270
       4374.7153     0.082903737
       4375.5988     0.082675437
       4376.4823     0.082136477
       4377.3658     0.092926309
       4378.2493      0.11711196
       4379.1328     0.056845901
       4380.0163     0.098955938
       4380.8998      0.13778337
       4381.7833     0.061238648
       4382.6667      0.13218386
       4383.5502     0.037056014
       4384.4337     0.061300663
       4385.3172      0.12337156
       4386.2007     0.095314410
       4387.0842     0.094242174
       4387.9677      0.10008755
       4388.8512     0.096291294
       4389.7347      0.10976084
       4390.6182     0.077470709
       4391.5017      0.10638501
       4392.3852      0.15062158
       4393.2687     0.082986839
       4394.1521     0.078353731
       4395.0356     0.077032790
       4395.9191      0.11022577
       4396.8026      0.18236467
       4397.6861     0.067884799
       4398.5696      0.12781519
       4399.4531     0.078851181
       4400.3366     0.074015863
       4401.2201      0.10339232
       4402.1036      0.10978554
       4402.9871     0.083646491
       4403.8706     0.085760886
       4404.7541      0.12683747
       4405.6375     0.078370568
       4406.5210      0.14483202
       4407.4045     0.095249008
       4408.2880     0.098317004
       4409.1715      0.11737991
       4410.0550      0.10408968
       4410.9385     0.084700562
       4411.8220     0.092226248
       4412.7055      0.16151086
       4413.5890      0.10232922
       4414.4725     0.086812858
       4415.3560      0.12613107
       4416.2395      0.13143330
       4417.1229      0.11155627
       4418.0064      0.11323629
       4418.8899      0.12694507
       4419.7734     0.095033844
       4420.6569      0.10091900
       4421.5404      0.13669656
       4422.4239     0.062896281
       4423.3074      0.10435385
       4424.1909      0.10921820
       4425.0744      0.14788918
       4425.9579      0.15960188
       4426.8414     0.084779945
       4427.7249      0.10098326
       4428.6083     0.098823580
       4429.4918      0.12261374
       4430.3753     0.080403658
       4431.2588     0.065020460
       4432.1423      0.12427429
       4433.0258      0.17834378
       4433.9093      0.16116789
       4434.7928      0.11213742
       4435.6763      0.11790688
       4436.5598      0.10365097
       4437.4433     0.071873816
       4438.3268      0.12219360
       4439.2103     0.050251102
       4440.0937      0.10540130
       4440.9772     0.053249569
       4441.8607     0.086594148
       4442.7442     0.083218710
       4443.6277      0.13109123
       4444.5112      0.12868416
       4445.3947      0.10229507
       4446.2782     0.059250107
       4447.1617      0.10809467
       4448.0452      0.10804706
       4448.9287      0.12038926
       4449.8122      0.18698622
       4450.6957      0.10653659
       4451.5791      0.15335465
       4452.4626      0.12760855
       4453.3461     0.079703648
       4454.2296      0.11276268
       4455.1131     0.074091067
       4455.9966     0.080539991
       4456.8801     0.048229119
       4457.7636      0.10890069
       4458.6471     0.089601780
       4459.5306      0.11305588
       4460.4141     0.093637382
       4461.2976      0.12737343
       4462.1811     0.091093279
       4463.0645      0.11057402
       4463.9480      0.11910369
       4464.8315     0.092671518
       4465.7150     0.086695830
       4466.5985     0.073165818
       4467.4820      0.16996726
       4468.3655     0.068554051
       4469.2490      0.11638853
       4470.1325     0.094527975
       4471.0160      0.10739613
       4471.8995     0.087485850
       4472.7830     0.086503744
       4473.6665      0.11581452
       4474.5499      0.12081633
       4475.4334      0.11474077
       4476.3169     0.073734771
       4477.2004     0.051482255
       4478.0839      0.15109955
       4478.9674      0.11637535
       4479.8509     0.064639419
       4480.7344      0.14520510
       4481.6179     0.092807626
       4482.5014      0.10530209
       4483.3849     0.089713354
       4484.2684     0.079306980
       4485.1518      0.12361154
       4486.0353      0.11140253
       4486.9188     0.086581608
       4487.8023      0.11575028
       4488.6858      0.12240026
       4489.5693     0.090196328
       4490.4528     0.090940571
       4491.3363      0.11319454
       4492.2198     0.063929739
       4493.1033      0.10619493
       4493.9868     0.090744408
       4494.8703     0.082853986
       4495.7538      0.10521902
       4496.6372     0.078814526
       4497.5207      0.10042501
       4498.4042      0.11716284
       4499.2877      0.10389556
       4500.1712     0.078783132
       4501.0547      0.12523044
       4501.9382      0.16055045
       4502.8217     0.099599442
       4503.7052     0.074556201
       4504.5887     0.077111218
       4505.4722      0.10117924
       4506.3557     0.052662527
       4507.2392     0.073015018
       4508.1226     0.076778016
       4509.0061     0.080557571
       4509.8896     0.045920328
       4510.7731     0.092594351
       4511.6566     0.071604402
       4512.5401     0.093148906
       4513.4236      0.11990569
       4514.3071     0.090112415
       4515.1906      0.10561004
       4516.0741     0.050573008
       4516.9576     0.013496882
       4517.8411     0.066188784
       4518.7246     0.047120415
       4519.6080     0.092846877
       4520.4915     0.063474479
       4521.3750     0.097393153
       4522.2585     0.083697669
       4523.1420      0.10357874
       4524.0255     0.071180507
       4524.9090     0.099206894
       4525.7925     0.064785430
       4526.6760      0.16471231
       4527.5595     0.061684474
       4528.4430      0.12272363
       4529.3265     0.031981582
       4530.2100      0.18246123
       4531.0934    0.0029261623
       4531.9769     -0.10211848
       4532.8604    -0.037178257
       4533.7439      0.13129338
       4534.6274      0.16401302
       4535.5109      0.14871227
       4536.3944    0.0068932631
       4537.2779     0.043763834
       4538.1614     0.074765135
       4539.0449      0.11309157
       4539.9284     0.064090373
       4540.8119     0.099839362
       4541.6954     0.072376440
       4542.5788      0.15516366
       4543.4623     0.058385759
       4544.3458      0.11311941
       4545.2293     0.089197522
       4546.1128     0.063571117
       4546.9963     0.074006866
       4547.8798     0.045845804
       4548.7633      0.11638829
       4549.6468     0.070888426
       4550.5303     0.086122097
       4551.4138     0.064924593
       4552.2973      0.10238742
       4553.1808     0.077276577
       4554.0642     0.086940707
       4554.9477     0.025560386
       4555.8312     0.031218274
       4556.7147     0.093626008
       4557.5982      0.11287166
       4558.4817     0.054306143
       4559.3652     0.049279396
       4560.2487     0.048658686
       5176.9925      0.23293241
       5177.9646      0.37524132
       5178.9367      0.30310216
       5179.9087      0.33749495
       5180.8808      0.28641647
       5181.8529      0.16208444
       5182.8250      0.32165172
       5183.7971      0.17879343
       5184.7691      0.30079779
       5185.7412      0.28395627
       5186.7133      0.19372624
       5187.6854      0.20900517
       5188.6575      0.28211947
       5189.6296      0.33283367
       5190.6016      0.33211105
       5191.5737      0.38995454
       5192.5458      0.46514534
       5193.5179      0.31316671
       5194.4900     0.075662837
       5195.4621      0.13165549
       5196.4341      0.28114665
       5197.4062      0.26838907
       5198.3783      0.15408313
       5199.3504      0.25939200
       5200.3225      0.37058163
       5201.2945      0.33999458
       5202.2666      0.26782047
       5203.2387      0.41069431
       5204.2108      0.30741689
       5205.1829      0.32922244
       5206.1550      0.34983101
       5207.1270      0.41770557
       5208.0991      0.27236086
       5209.0712      0.29897548
       5210.0433      0.32219082
       5211.0154      0.11344594
       5211.9875      0.27052220
       5212.9595      0.33934530
       5213.9316      0.23382768
       5214.9037      0.29057851
       5215.8758      0.13682648
       5216.8479      0.30898852
       5217.8200      0.32670469
       5218.7920      0.25348690
       5219.7641      0.15515240
       5220.7362      0.22756626
       5221.7083      0.24121606
       5222.6804      0.28301899
       5223.6524      0.34029084
       5224.6245      0.28923136
       5225.5966      0.29183133
       5226.5687      0.30109448
       5227.5408      0.32381175
       5228.5129      0.26870897
       5229.4849      0.29571247
       5230.4570      0.31119993
       5231.4291      0.17336873
       5232.4012      0.30005641
       5233.3733      0.38777995
       5234.3454      0.19158252
       5235.3174      0.24829748
       5236.2895      0.30952522
       5237.2616      0.23325595
       5238.2337      0.20590280
       5239.2058      0.16016854
       5240.1779      0.31675324
       5241.1499      0.34062865
       5242.1220      0.32695707
       5243.0941      0.34451806
       5244.0662      0.42267670
       5245.0383      0.34610637
       5246.0103      0.42651984
       5246.9824      0.27919477
       5247.9545      0.29774826
       5248.9266      0.12711116
       5249.8987      0.39997763
       5250.8708      0.31376517
       5251.8428     0.074985382
       5252.8149      0.23279993
       5253.7870      0.13351353
       5254.7591      0.29728728
       5255.7312      0.15259736
       5256.7033      0.21802915
       5257.6753      0.24922693
       5258.6474      0.35160050
       5259.6195      0.36241334
       5260.5916      0.29497959
       5261.5637      0.25900529
       5262.5358      0.23381417
       5263.5078      0.27087247
       5264.4799      0.34840763
       5265.4520      0.28037591
       5266.4241      0.43103712
       5267.3962      0.36973492
       5268.3682      0.41980522
       5269.3403      0.26936432
       5270.3124      0.14102245
       5271.2845      0.31167374
       5272.2566      0.21580483
       5273.2287      0.25933167
       5274.2007      0.28713363
       5275.1728      0.46834770
       5276.1449      0.30915171
       5277.1170      0.35225565
       5278.0891      0.21545148
       5279.0612      0.21859411
       5280.0332      0.34804103
       5281.0053      0.30990985
       5281.9774      0.11661905
       5282.9495      0.31748924
       5283.9216      0.36578617
       5284.8937      0.28057163
       5285.8657      0.48622758
       5286.8378      0.33564714
       5287.8099      0.23064824
       5288.7820      0.28159387
       5289.7541      0.20272515
       5290.7261      0.32182411
       5291.6982      0.31822654
       5292.6703      0.24267736
       5293.6424      0.25420384
       5294.6145      0.28375608
       5295.5866      0.34232588
       5296.5586      0.22670587
       5297.5307      0.30107488
       5298.5028      0.20010846
       5299.4749      0.10506500
       5300.4470      0.17930806
       5301.4191      0.20403108
       5302.3911      0.22807017
       5303.3632      0.23669041
       5304.3353      0.32526369
       5305.3074      0.23413148
       5306.2795      0.32197698
       5307.2515      0.29937718
       5308.2236      0.19966209
       5309.1957      0.24927183
       5310.1678      0.26599588
       5311.1399      0.28835185
       5312.1120      0.33472569
       5313.0840      0.29983051
       5314.0561      0.19070140
       5315.0282      0.23579026
       5316.0003      0.32780942
       5316.9724      0.19388958
       5317.9445      0.21901094
       5318.9165      0.22565119
       5319.8886      0.24671777
       5320.8607      0.21982664
       5321.8328      0.29259515
       5322.8049      0.26059572
       5323.7770      0.31606868
       5324.7490      0.38784085
       5325.7211      0.33814859
       5326.6932      0.25073169
       5327.6653      0.22007983
       5328.6374      0.19321113
       5329.6094      0.34853729
       5330.5815      0.37191872
       5331.5536      0.29295041
       5332.5257      0.29130276
       5333.4978      0.29459402
       5334.4699      0.17153203
       5335.4419      0.27480130
       5336.4140      0.27696536
       5337.3861      0.33747974
       5338.3582      0.34721980
       5339.3303      0.24439734
       5340.3024      0.42179828
       5341.2744      0.25434601
       5342.2465      0.27587965
       5343.2186      0.34851263
       5344.1907      0.39356572
       5345.1628      0.30143281
       5346.1349      0.26971659
       5347.1069      0.31053543
       5348.0790      0.18476466
       5349.0511      0.23067571
       5350.0232      0.29170304
       5350.9953      0.31705826
       5351.9673      0.29704108
       5352.9394      0.36391191
       5353.9115      0.26121943
       5354.8836      0.17986075
       5355.8557      0.25889161
       5356.8278      0.25672874
       5357.7998      0.31496997
       5358.7719      0.10969858
       5359.7440      0.16759038
       5360.7161      0.21853503
       5361.6882      0.29948941
       5362.6603      0.24018099
       5363.6323      0.28906922
       5364.6044      0.13119978
       5365.5765      0.26862210
       5366.5486      0.20566893
       5367.5207      0.23479184
       5368.4928      0.24471216
       5369.4648      0.25367413
       5370.4369      0.27293007
       5371.4090      0.31732658
       5372.3811      0.18500875
       5373.3532      0.31916964
       5374.3252      0.16519504
       5375.2973      0.31373805
       5376.2694      0.28964421
       5377.2415      0.24519948
       5378.2136      0.32526785
       5379.1857      0.34236381
       5380.1577      0.29359503
       5381.1298      0.36709357
       5382.1019      0.31971455
       5383.0740      0.26120177
       5384.0461      0.26085628
       5385.0182      0.22343188
       5385.9902      0.26257929
       5386.9623      0.25947873
       5387.9344      0.20510049
       5388.9065      0.21364293
       5389.8786      0.37122565
       5390.8507      0.36654811
       5391.8227      0.23805891
       5392.7948      0.26361795
       5393.7669      0.25376111
       5394.7390      0.16872057
       5395.7111      0.25230761
       5396.6831      0.20931695
       5397.6552      0.32590053
       5398.6273      0.31142648
       5399.5994      0.32944091
       5400.5715      0.29515688
       5401.5436      0.21272465
       5402.5156      0.23738891
       5403.4877      0.19734547
       5404.4598      0.20988155
       5405.4319      0.18377501
       5406.4040      0.27146627
       5407.3761      0.23695466
       5408.3481      0.19265290
       5409.3202      0.28071260
       5410.2923      0.10272118
       5411.2644      0.18231404
       5412.2365      0.45944770
       5413.2086      0.32900329
       5414.1806      0.14181547
       5415.1527      0.14807344
       5416.1248      0.19278526
       5417.0969      0.34089598
       5418.0690      0.35384248
       5419.0410      0.32621766
       5420.0131      0.20776393
       5420.9852      0.22808437
       5421.9573      0.20818315
       5422.9294      0.25734997
       5423.9015      0.34979789
       5424.8735      0.20192349
       5425.8456      0.27265355
       5426.8177      0.21575062
       5427.7898      0.21822631
       5428.7619      0.26134803
       5429.7340      0.26989469
       5430.7060      0.20278804
       5431.6781     0.091519048
       5432.6502      0.30172338
       5433.6223      0.34104772
       5434.5944      0.37826722
       5435.5664      0.27621954
       5436.5385      0.29373123
       5437.5106      0.24053658
       5438.4827      0.17345847
       5439.4548      0.21818107
       5440.4269      0.24808686
       5441.3989      0.31378435
       5442.3710      0.30037878
       5443.3431      0.14958176
       5444.3152      0.26901617
       5445.2873      0.28756374
       5446.2594      0.30047663
       5447.2314      0.17608137
       5448.2035      0.33249535
       5449.1756      0.28647930
       5450.1477      0.30043875
       5451.1198      0.12742306
       5452.0919      0.37472426
       5453.0639      0.28769981
       5454.0360      0.14161403
       5455.0081      0.18521255
       5455.9802      0.37278630
       5456.9523      0.27494171
       5457.9243      0.34121596
       5458.8964      0.19711943
       5459.8685      0.13625113
       5460.8406      0.29633964
       5461.8127      0.19846012
       5462.7848      0.31187621
       5463.7568      0.30277734
       5464.7289      0.36204652
       5465.7010      0.34306302
       5466.6731      0.32561508
       5467.6452      0.16039884
       5468.6173      0.29005180
       5469.5893      0.35156108
       5470.5614      0.20343056
       5471.5335      0.28876509
       5472.5056      0.37225351
       5473.4777      0.36352594
       5474.4498      0.32627996
       5475.4218      0.32596724
       5476.3939      0.24039660
       5477.3660      0.18737833
       5478.3381      0.31283623
       5479.3102      0.34987753
       5480.2822      0.13104891
       5481.2543      0.19755167
       5482.2264      0.27228277
       5483.1985      0.29201757
       5484.1706      0.24125825
       5485.1427      0.23245121
       5486.1147      0.17540583
       5487.0868      0.35744978
       5488.0589      0.28197158
       5489.0310      0.37433728
       5490.0031      0.27847165
       5490.9752      0.34214423
       5491.9472      0.33037377
       5492.9193      0.23114261
       5493.8914      0.26042084
       5494.8635      0.33074661
       5495.8356      0.32315780
       5496.8077      0.29777079
       5497.7797      0.14501962
       5498.7518      0.21515709
       5499.7239      0.34469606
       5500.6960      0.28408266
       5501.6681      0.22118601
       5502.6401      0.19443435
       5503.6122      0.37279429
       5504.5843      0.29658519
       5505.5564      0.37656623
       5506.5285      0.24533691
       5507.5006      0.22452510
       5508.4726      0.24152610
       5509.4447      0.17680471
       5510.4168      0.28643831
       5511.3889      0.20266220
       5512.3610      0.20819883
       5513.3331      0.26212765
       5514.3051      0.40489054
       5515.2772      0.34076445
       5516.2493      0.22469647
       5517.2214      0.16339862
       5518.1935      0.28792706
       5519.1656      0.32298892
       5520.1376      0.22337387
       5521.1097      0.34756599
       5522.0818      0.30793792
       5523.0539      0.30260862
       5524.0260      0.19982144
       5524.9980      0.26176131
       5525.9701      0.37001789
       5526.9422      0.20471338
       5527.9143      0.26791832
       5528.8864      0.27038033
       5529.8585      0.36324451
       5530.8305      0.17068795
       5531.8026      0.32460282
       5532.7747      0.30532646
       5533.7468      0.20560194
       5534.7189      0.24959242
       5535.6910      0.29926788
       5536.6630      0.25073406
       5537.6351      0.19058990
       5538.6072      0.23881472
       5539.5793      0.29137343
       5540.5514      0.28750046
       5541.5235      0.26600984
       5542.4955      0.29736321
       5543.4676      0.19759859
       5544.4397      0.25065015
       5545.4118      0.27952263
       5546.3839      0.31451767
       5547.3559      0.34408455
       5548.3280      0.28570883
       5549.3001      0.28027741
       5550.2722      0.24967708
       5551.2443      0.19411277
       5552.2164      0.28505349
       5553.1884      0.21046114
       5554.1605      0.19979758
       5555.1326      0.19958481
       5556.1047      0.26134791
       5557.0768      0.23929792
       5558.0489      0.18144292
       5559.0209      0.17409220
       5559.9930      0.18576725
       5560.9651      0.30427289
       5561.9372      0.18985859
       5562.9093      0.13617531
       5563.8813      0.15992625
       5564.8534      0.16284720
       5565.8255      0.30561369
       5566.7976      0.26307205
       5567.7697      0.22999674
       5568.7418     0.095190920
       5569.7138      0.22780059
       5570.6859      0.11417950
       5571.6580      0.18593311
       5572.6301      0.33592487
       5573.6022      0.23168136
       5574.5743      0.15589870
       5575.5463      0.24118089
       5576.5184      0.16039694
       5577.4905      0.11651542
       5578.4626      0.21549486
       5579.4347      0.16647679
       5580.4068      0.23079784
       5581.3788      0.16134364
       5582.3509      0.16882513
       5583.3230      0.14159906
       5584.2951      0.24755037
       5585.2672      0.23053292
       5586.2392      0.28003782
       5587.2113      0.20625771
       5588.1834      0.24607069
       5589.1555      0.27118467
       5590.1276      0.31886129
       5591.0997      0.10703209
       5592.0717      0.13789741
       5593.0438      0.14193601
       5594.0159      0.19032721
       5594.9880      0.17703352
       5595.9601      0.17821115
       5596.9322    -0.023956348
       5597.9042      0.19294449
       5598.8763      0.18799337
       5599.8484     0.063780560
       5600.8205      0.17847051
       5601.7926      0.13145683
       5602.7647      0.15164473
       5603.7367      0.21938339
       5604.7088      0.22828093
       5605.6809      0.13643928
       5606.6530     0.061094982
       5607.6251      0.26148485
       5608.5971      0.25707570
       5609.5692      0.16408702
       5610.5413      0.21290918
       5611.5134      0.17873145
       5612.4855      0.16178863
       5613.4576      0.16039583
       5614.4296      0.23031602
       5615.4017      0.31978608
       5616.3738      0.24132718
       5617.3459      0.19892266
       5618.3180      0.28813461
       5619.2901      0.15061685
       5620.2621      0.16484656
       5621.2342      0.26913998
       5622.2063      0.15212410
       5623.1784      0.15953170
       5624.1505      0.25211642
       5625.1226      0.16995399
       5626.0946      0.13599109
       5627.0667      0.25441922
       5628.0388      0.30044095
       5629.0109      0.20912550
       5629.9830      0.15469157
       5630.9550      0.14454445
       5631.9271      0.19355917
       5632.8992      0.19796521
       5633.8713      0.16832679
       5634.8434      0.25488255
       5635.8155      0.29412082
       5636.7875      0.18915892
       5637.7596      0.19325578
       5638.7317      0.17766694
       5639.7038      0.12814597
       5640.6759      0.24246464
       5641.6480      0.13772128
       5642.6200      0.18923477
       5643.5921      0.11673553
       5644.5642      0.24386619
       5645.5363      0.15668797
       5646.5084      0.10896371
       5647.4805     0.083672974
       5648.4525      0.15419150
       5649.4246      0.17844152
       5650.3967      0.17766074
       5651.3688      0.22785686
       5652.3409      0.18510253
       5653.3129     0.069936279
       5654.2850      0.16278454
       5655.2571      0.13784186
       5656.2292      0.17739339
       5657.2013      0.13029531
       5658.1734      0.24174686
       5659.1454      0.16548008
       5660.1175      0.30626967
       5661.0896      0.25340971
       5662.0617      0.41540610
       5663.0338      0.17874212
       5664.0059      0.12559862
       5664.9779     0.085356900
       5665.9500      0.26993999
       5666.9221      0.17339033
       5667.8942      0.25111583
       5668.8663      0.21958292
       5669.8383      0.25029182
       5670.8104      0.19534960
       5671.7825      0.23217361
       5672.7546      0.15893536
       5673.7267      0.21096570
       5674.6988      0.27373757
       5675.6708      0.20759710
       5676.6429             NaN
       5677.6150             NaN
       5678.5871             NaN
       5679.5592             NaN
       5680.5313             NaN
       5681.5033             NaN
       5682.4754             NaN
       5683.4475             NaN
       5684.4196             NaN
       5685.3917             NaN
       5686.3638             NaN
       5687.3358             NaN
       5688.3079             NaN
       5689.2800             NaN
       5690.2521             NaN
       5691.2242             NaN
       5692.1962             NaN
       5693.1683             NaN
       5694.1404             NaN
       5695.1125             NaN
       5696.0846             NaN
       5697.0567             NaN
       5698.0287             NaN
       5699.0008             NaN
       5699.9729             NaN
       5700.9450             NaN
       5701.9171             NaN
       5702.8892             NaN
       5703.8612             NaN
       5704.8333             NaN
       5705.8054             NaN
       5706.7775             NaN
       5707.7496             NaN
       5708.7217             NaN
       5709.6937             NaN
       5710.6658             NaN
       5711.6379             NaN
       5712.6100             NaN
       5713.5821             NaN
       5714.5541             NaN
       5715.5262             NaN
       5716.4983             NaN
       5717.4704             NaN
       5718.4425             NaN
       5719.4146             NaN
       5720.3866             NaN
       5721.3587             NaN
       5722.3308             NaN
       5723.3029             NaN
       5724.2750             NaN
       5725.2471             NaN
       5726.2191             NaN
       5727.1912             NaN
       5728.1633             NaN
       5729.1354             NaN
       5730.1075             NaN
       5731.0796             NaN
       5732.0516             NaN
       5733.0237             NaN
       5733.9958             NaN
       5734.9679             NaN
       5735.9400             NaN
       5736.9120             NaN
       5737.8841             NaN
       5738.8562             NaN
       5739.8283             NaN
       5740.8004             NaN
       5741.7725             NaN
       5742.7445             NaN
       5743.7166             NaN
       5744.6887             NaN
       5745.6608             NaN
       5746.6329             NaN
       5747.6050             NaN
       5748.5770             NaN
       5749.5491             NaN
       5750.5212             NaN
       5751.4933             NaN
       5752.4654             NaN
       5753.4375             NaN
       5754.4095             NaN
       5755.3816             NaN
       5756.3537             NaN
       5757.3258             NaN
       5758.2979             NaN
       5759.2699             NaN
       5760.2420             NaN
       5761.2141             NaN
       5762.1862             NaN
       5763.1583             NaN
       5764.1304             NaN
       5765.1024             NaN
       5766.0745             NaN
       5767.0466             NaN
       5768.0187             NaN
       5768.9908             NaN
       5769.9629             NaN
       5770.9349             NaN
       5771.9070             NaN
       5772.8791             NaN
       5773.8512             NaN
       5774.8233             NaN
       5775.7954             NaN
       5776.7674             NaN
       5777.7395             NaN
       5778.7116             NaN
       5779.6837             NaN
       5780.6558             NaN
       5781.6278             NaN
       5782.5999             NaN
       5783.5720             NaN
       5784.5441             NaN
       5785.5162             NaN
       5786.4883             NaN
       5787.4603             NaN
       5788.4324             NaN
       5789.4045             NaN
       5790.3766             NaN
       5791.3487             NaN
       5792.3208             NaN
       5793.2928             NaN
       5794.2649             NaN
       5795.2370             NaN
       5796.2091             NaN
       5797.1812             NaN
       5798.1532             NaN
       5799.1253             NaN
       5800.0974      0.28205096
       5801.0695      0.38523277
       5802.0416      0.28695700
       5803.0137      0.21067508
       5803.9857      0.21977348
       5804.9578      0.35299122
       5805.9299      0.33354839
       5806.9020      0.17237137
       5807.8741      0.36104477
       5808.8462      0.23398278
       5809.8182      0.22736430
       5810.7903      0.21685876
       5811.7624      0.25828724
       5812.7345     0.071188693
       5813.7066      0.16949747
       5814.6787      0.21637468
       5815.6507      0.21002564
       5816.6228      0.11304616
       5817.5949      0.23442451
       5818.5670      0.31246871
       5819.5391      0.17124120
       5820.5111      0.11807309
       5821.4832      0.12175115
       5822.4553      0.22592143
       5823.4274      0.18338488
       5824.3995      0.23297740
       5825.3716      0.25510810
       5826.3436      0.34224750
       5827.3157      0.15133286
       5828.2878      0.13668608
       5829.2599      0.22671605
       5830.2320      0.23748944
       5831.2041      0.19123015
       5832.1761      0.14362226
       5833.1482      0.17514154
       5834.1203      0.13766922
       5835.0924      0.20601007
       5836.0645      0.22983857
       5837.0366      0.18951639
       5838.0086      0.20335381
       5838.9807      0.24089037
       5839.9528      0.12747945
       5840.9249      0.19768209
       5841.8970      0.13641800
       5842.8690      0.26947591
       5843.8411      0.22176254
       5844.8132      0.30401406
       5845.7853      0.26821595
       5846.7574      0.26781672
       5847.7295      0.30479173
       5848.7015      0.17700573
       5849.6736      0.24087310
       5850.6457      0.14215322
       5851.6178      0.19653868
       5852.5899      0.14392526
       5853.5620      0.11414840
       5854.5340      0.18932241
       5855.5061      0.28800232
       5856.4782      0.28405604
       5857.4503      0.21003763
       5858.4224      0.17939995
       5859.3945      0.16532223
       5860.3665      0.30992024
       5861.3386      0.36379759
       5862.3107      0.14616666
       5863.2828      0.14645275
       5864.2549      0.17802365
       5865.2269      0.36185999
       5866.1990      0.25083524
       5867.1711      0.33920329
       5868.1432      0.31079457
       5869.1153      0.15881114
       5870.0874      0.26438364
       5871.0594      0.34408888
       5872.0315      0.20283231
       5873.0036      0.21300227
       5873.9757      0.22651470
       5874.9478      0.38121515
       5875.9199      0.31777760
       5876.8919      0.18312736
       5877.8640      0.24212043
       5878.8361      0.32692891
       5879.8082      0.22206953
       5880.7803      0.16689268
       5881.7524      0.31403019
       5882.7244      0.25138038
       5883.6965      0.30102631
       5884.6686      0.17734580
       5885.6407      0.24521759
       5886.6128      0.17695846
       5887.5848      0.21597764
       5888.5569      0.25446372
       5889.5290      0.20068399
       5890.5011      0.20827513
       5891.4732      0.36483678
       5892.4453      0.38090285
       5893.4173      0.26778363
       5894.3894      0.22204832
       5895.3615      0.27307924
       5896.3336      0.24855440
       5897.3057      0.30018672
       5898.2778      0.30630265
       5899.2498      0.27997661
       5900.2219      0.24744587
       5901.1940      0.14489813
       5902.1661      0.16535984
       5903.1382      0.12704532
       5904.1103      0.18391912
       5905.0823      0.19780621
       5906.0544      0.17945996
       5907.0265      0.14113128
       5907.9986      0.21520546
       5908.9707      0.16222835
       5909.9427      0.16118438
       5910.9148      0.22155029
       5911.8869     0.093854065
       5912.8590     0.092961904
       5913.8311      0.12639474
       5914.8032      0.26173864
       5915.7752      0.27947501
       5916.7473      0.40895639
       5917.7194      0.12462263
       5918.6915      0.30101150
       5919.6636      0.39513322
       5920.6357      0.39710142
       5921.6077      0.28716069
       5922.5798      0.30135034
       5923.5519      0.34594090
       5924.5240      0.39678684
       5925.4961      0.26241492
       5926.4681      0.36881301
       5927.4402      0.36166488
       5928.4123      0.29652597
       5929.3844      0.36485951
       5930.3565      0.24276835
       5931.3286      0.29607849
       5932.3006      0.35213504
       5933.2727      0.28339983
       5934.2448      0.47140772
       5935.2169      0.42636944
       5936.1890      0.33594311
       5937.1611      0.24990344
       5938.1331      0.43039855
       5939.1052      0.32756953
       5940.0773      0.32396275
       5941.0494      0.39450052
       5942.0215      0.28855223
       5942.9936      0.22018867
       5943.9656      0.37961133
       5944.9377      0.25651412
       5945.9098      0.33220642
       5946.8819      0.27820818
       5947.8540      0.27089359
       5948.8260      0.23472348
       5949.7981      0.24681524
       5950.7702      0.46087323
       5951.7423      0.38777315
       5952.7144      0.28065186
       5953.6865      0.37218855
       5954.6585      0.33765673
       5955.6306      0.31135383
       5956.6027      0.31549145
       5957.5748      0.23142568
       5958.5469      0.33976076
       5959.5190      0.34667775
       5960.4910      0.42247514
       5961.4631      0.27927288
       5962.4352      0.40745878
       5963.4073      0.38892791
       5964.3794      0.26661123
       5965.3515      0.36627519
       5966.3235      0.41086244
       5967.2956      0.43177035
       5968.2677      0.22685524
       5969.2398      0.33968021
       5970.2119      0.35304647
       5971.1839      0.46609827
       5972.1560      0.46093250
       5973.1281      0.31125657
       5974.1002      0.19769692
       5975.0723      0.26962728
       5976.0444      0.37865270
       5977.0164      0.43621791
       5977.9885      0.45054112
       5978.9606      0.43546025
       5979.9327      0.45022075
       5980.9048      0.28352414
       5981.8769      0.36387639
       5982.8489      0.44438455
       5983.8210      0.32687792
       5984.7931      0.32116464
       5985.7652      0.33724530
       5986.7373      0.35047887
       5987.7094      0.48735080
       5988.6814      0.41959535
       5989.6535      0.44648001
       5990.6256      0.49197880
       5991.5977      0.48350297
       5992.5698      0.45207657
       5993.5418      0.45736377
       5994.5139      0.20725778
       5995.4860      0.34057492
       5996.4581      0.30383818
       5997.4302      0.22078082
       5998.4023      0.32509409
       5999.3743      0.39142285
       6000.3464      0.38130674
       6001.3185      0.40749118
       6002.2906      0.37579278
       6003.2627      0.48658215
       6004.2348      0.41649475
       6005.2068      0.58422257
       6006.1789      0.48940308
       6007.1510      0.52075612
       6008.1231      0.24847359
       6009.0952      0.47341809
       6010.0673      0.33077872
       6011.0393      0.42641454
       6012.0114      0.42838864
       6012.9835      0.16027320
       6013.9556      0.39141836
       6014.9277      0.44778927
       6015.8997      0.36193665
       6016.8718      0.30475068
       6017.8439      0.45307236
       6018.8160      0.30835893
       6019.7881      0.33195100
       6020.7602      0.34813557
       6021.7322      0.31535280
       6022.7043      0.39163318
       6023.6764      0.38722763
       6024.6485      0.43646638
       6025.6206      0.38792292
       6026.5927      0.29268272
       6027.5647      0.27547758
       6028.5368      0.28926098
       6029.5089      0.41610159
       6030.4810      0.39464863
       6031.4531      0.37355739
       6032.4251      0.43733164
       6033.3972      0.30159974
       6034.3693      0.52502707
       6035.3414      0.48787600
       6036.3135      0.36445420
       6037.2856      0.48406491
       6038.2576      0.56367690
       6039.2297      0.40913897
       6040.2018      0.46890730
       6041.1739      0.40682740
       6042.1460      0.32326236
       6043.1181      0.30821465
       6044.0901      0.28988002
       6045.0622      0.48111964
       6046.0343      0.50361384
       6047.0064      0.43828794
       6047.9785      0.44235033
       6048.9506      0.48281176
       6049.9226      0.42162489
       6050.8947      0.47058293
       6051.8668      0.30094817
       6052.8389      0.44840181
       6053.8110      0.39941919
       6054.7830      0.38856870
       6055.7551      0.32668395
       6056.7272      0.37264741
       6057.6993      0.43472042
       6058.6714      0.45977938
       6059.6435      0.40413709
       6060.6155      0.39035406
       6061.5876      0.44263030
       6062.5597      0.41738209
       6063.5318      0.32436026
       6064.5039      0.47272703
       6065.4760      0.40501405
       6066.4480      0.29685952
       6067.4201      0.34007898
       6068.3922      0.49951996
       6069.3643      0.44680379
       6070.3364      0.25869794
       6071.3085      0.38305425
       6072.2805      0.35813839
       6073.2526      0.36209237
       6074.2247      0.56677632
       6075.1968      0.45052606
       6076.1689      0.39235493
       6077.1409      0.33535070
       6078.1130      0.34539663
       6079.0851      0.41283232
       6080.0572      0.40571889
       6081.0293      0.39315234
       6082.0014      0.36556948
       6082.9734      0.37603659
       6083.9455      0.39009680
       6084.9176      0.36506780
       6085.8897      0.33159877
       6086.8618      0.32405080
       6087.8339      0.28416795
       6088.8059      0.46249375
       6089.7780      0.54692497
       6090.7501      0.30090426
       6091.7222      0.30625454
       6092.6943      0.44320058
       6093.6664      0.34573666
       6094.6384      0.43890537
       6095.6105      0.34529433
       6096.5826      0.25190331
       6097.5547      0.37912185
       6098.5268      0.52323856
       6099.4988      0.32158594
       6100.4709      0.40946472
       6101.4430      0.46734951
       6102.4151      0.40575448
       6103.3872      0.50126692
       6104.3593      0.39433161
       6105.3313      0.43536598
       6106.3034      0.52423886
       6107.2755      0.41208988
       6108.2476      0.46837176
       6109.2197      0.29606091
       6110.1918      0.41494251
       6111.1638      0.37287154
       6112.1359      0.37559848
       6113.1080      0.40721398
       6114.0801      0.39776272
       6115.0522      0.35315171
       6116.0243      0.30319884
       6116.9963      0.40783038
       6117.9684      0.45172467
       6118.9405      0.29382851
       6119.9126      0.32076661
       6120.8847      0.42256915
       6121.8567      0.44240575
       6122.8288      0.45977616
       6123.8009      0.51629477
       6124.7730      0.47661839
       6125.7451      0.47999318
       6126.7172      0.63425040
       6127.6892      0.41423384
       6128.6613      0.46045157
       6129.6334      0.41834860
       6130.6055      0.46601441
       6131.5776      0.44367005
       6132.5497      0.33954777
       6133.5217      0.44612114
       6134.4938      0.55326310
       6135.4659      0.35780260
       6136.4380      0.35686219
       6137.4101      0.54688086
       6138.3822      0.53779667
       6139.3542      0.59723681
       6140.3263      0.59831163
       6141.2984      0.36068557
       6142.2705      0.52417422
       6143.2426      0.37683374
       6144.2146      0.48082911
       6145.1867      0.45098625
       6146.1588      0.21453367
       6147.1309      0.35272606
       6148.1030      0.43288131
       6149.0751      0.40086880
       6150.0471      0.38267947
       6151.0192      0.37477267
       6151.9913      0.42380470
       6152.9634      0.39189776
       6153.9355      0.43925323
       6154.9076      0.44021244
       6155.8796      0.32375732
       6156.8517      0.45603550
       6157.8238      0.49804589
       6158.7959      0.43606554
       6159.7680      0.46643205
       6160.7400      0.53832672
       6161.7121      0.44875724
       6162.6842      0.52132333
       6163.6563      0.38628664
       6164.6284      0.38240185
       6165.6005      0.54409328
       6166.5725      0.32679247
       6167.5446      0.50918117
       6168.5167      0.52610861
       6169.4888      0.51028674
       6170.4609      0.53773496
       6171.4330      0.56122367
       6172.4050      0.43563899
       6173.3771      0.49491167
       6174.3492      0.43733779
       6175.3213      0.41251280
       6176.2934      0.35884529
       6177.2655      0.34937905
       6178.2375      0.45154914
       6179.2096      0.37032218
       6180.1817      0.42917662
       6181.1538      0.41938152
       6182.1259      0.47078281
       6183.0979      0.52557537
       6184.0700      0.36130359
       6185.0421      0.43280741
       6186.0142      0.48435219
       6186.9863      0.38584423
       6187.9584      0.37612868
       6188.9304      0.52888593
       6189.9025      0.50819559
       6190.8746      0.34821397
       6191.8467      0.36520278
       6192.8188      0.56190213
       6193.7909      0.46227443
       6194.7629      0.48450473
       6195.7350      0.45753303
       6196.7071      0.43508549
       6197.6792      0.53540541
       6198.6513      0.43839945
       6199.6234      0.45237197
       6200.5954      0.45444848
       6201.5675      0.38402961
       6202.5396      0.38136646
       6203.5117      0.29920219
       6204.4838      0.35848261
       6205.4558      0.38454239
       6206.4279             NaN
       6207.4000             NaN
       6208.3721             NaN
       6209.3442             NaN
       6210.3163             NaN
       6211.2883             NaN
       6212.2604             NaN
       6213.2325             NaN
       6214.2046             NaN
       6215.1767             NaN
       6216.1488             NaN
       6217.1208             NaN
       6218.0929             NaN
       6219.0650             NaN
       6220.0371             NaN
       6221.0092             NaN
       6221.9813             NaN
       6222.9533             NaN
       6223.9254             NaN
       6224.8975             NaN
       6225.8696             NaN
       6226.8417             NaN
       6227.8137             NaN
       6228.7858             NaN
       6229.7579             NaN
       6230.7300             NaN
       6231.7021             NaN
       6232.6742             NaN
       6233.6462             NaN
       6234.6183             NaN
       6235.5904             NaN
       6236.5625             NaN
       6237.5346             NaN
       6238.5067             NaN
       6239.4787             NaN
       6240.4508             NaN
       6241.4229             NaN
       6242.3950             NaN
       6243.3671             NaN
       6244.3392             NaN
       6245.3112             NaN
       6246.2833             NaN
       6247.2554             NaN
       6248.2275             NaN
       6249.1996             NaN
       6250.1716             NaN
       6251.1437             NaN
       6252.1158             NaN
       6253.0879             NaN
       6254.0600             NaN
       6255.0321             NaN
       6256.0041             NaN
       6256.9762             NaN
       6257.9483             NaN
       6258.9204             NaN
       6259.8925             NaN
       6260.8646             NaN
       6261.8366             NaN
       6262.8087             NaN
       6263.7808             NaN
       6264.7529             NaN
       6265.7250             NaN
       6266.6970             NaN
       6267.6691             NaN
       6268.6412             NaN
       6269.6133             NaN
       6270.5854             NaN
       6271.5575             NaN
       6272.5295             NaN
       6273.5016             NaN
       6274.4737             NaN
       6275.4458             NaN
       6276.4179             NaN
       6277.3900             NaN
       6278.3620             NaN
       6279.3341             NaN
       6280.3062             NaN
       6281.2783             NaN
       6282.2504             NaN
       6283.2225             NaN
       6284.1945             NaN
       6285.1666             NaN
       6286.1387             NaN
       6287.1108             NaN
       6288.0829             NaN
       6289.0549             NaN
       6290.0270             NaN
       6290.9991             NaN
       6291.9712             NaN
       6292.9433      0.42830517
       6293.9154      0.53611478
       6294.8874      0.42559357
       6295.8595      0.47177628
       6296.8316      0.39488932
       6297.8037      0.45351371
       6298.7758      0.50733582
       6299.7479      0.38048419
       6300.7199      0.53149824
       6301.6920      0.31647138
       6302.6641      0.25459950
       6303.6362      0.34701419
       6304.6083      0.43350674
       6305.5804      0.48647318
       6306.5524      0.28109206
       6307.5245      0.34722266
       6308.4966      0.45674626
       6309.4687      0.56299045
       6310.4408      0.45494953
       6311.4128      0.50328609
       6312.3849      0.33723854
       6313.3570      0.42295774
       6314.3291      0.44434840
       6315.3012      0.45786345
       6316.2733      0.42762920
       6317.2453      0.41482923
       6318.2174      0.54288037
       6319.1895      0.55509338
       6320.1616      0.31353437
       6321.1337      0.35448729
       6322.1058      0.49610508
       6323.0778      0.50707246
       6324.0499      0.43450118
       6325.0220      0.35904474
       6325.9941      0.41694840
       6326.9662      0.49684032
       6327.9383      0.43163275
       6328.9103      0.47412803
       6329.8824      0.34405240
       6330.8545      0.44853458
       6331.8266      0.42920842
       6332.7987      0.67245152
       6333.7707      0.31276995
       6334.7428      0.46503667
       6335.7149      0.25545210
       6336.6870      0.49295021
       6337.6591      0.50617487
       6338.6312      0.53784223
       6339.6032      0.46763337
       6340.5753      0.52499132
       6341.5474      0.47785740
       6342.5195      0.36351135
       6343.4916      0.30456462
       6344.4637      0.49513798
       6345.4357      0.48989749
       6346.4078      0.52378668
       6347.3799      0.53553875
       6348.3520      0.43129097
       6349.3241      0.43174285
       6350.2962      0.49673997
       6351.2682      0.47468635
       6352.2403      0.63416832
       6353.2124      0.50284718
       6354.1845      0.41803501
       6355.1566      0.52278911
       6356.1286      0.20031724
       6357.1007      0.54790139
       6358.0728      0.49555355
       6359.0449      0.44138869
       6360.0170      0.46135251
       6360.9891      0.52904465
       6361.9611      0.36765776
       6362.9332      0.50266109
       6363.9053      0.48455593
       6364.8774      0.45459085
       6365.8495      0.57756238
       6366.8216      0.35004724
       6367.7936      0.50277869
       6368.7657      0.49451564
       6369.7378      0.39645375
       6370.7099      0.42486672
       6371.6820      0.53935431
       6372.6541      0.47541863
       6373.6261      0.44323515
       6374.5982      0.53923601
       6375.5703      0.55857501
       6376.5424      0.44800283
       6377.5145      0.42749182
       6378.4865      0.44291188
       6379.4586      0.43494349
       6380.4307      0.58696804
       6381.4028      0.43382142
       6382.3749      0.53645774
       6383.3470      0.44843085
       6384.3190      0.49291438
       6385.2911      0.53908170
       6386.2632      0.38497031
       6387.2353      0.36164369
       6388.2074      0.63639571
       6389.1795      0.44150204
       6390.1515      0.57172428
       6391.1236      0.37974490
       6392.0957      0.39322243
       6393.0678      0.37933129
       6394.0399      0.35758267
       6395.0119      0.33365162
       6395.9840      0.41983577
       6396.9561      0.56195985
       6397.9282      0.50628707
       6398.9003      0.48910514
       6399.8724      0.48322608
       6400.8444      0.52283705
       6401.8165      0.41871180
       6402.7886      0.38602910
       6403.7607      0.45427655
       6404.7328      0.41579703
       6405.7049      0.43230419
       6406.6769      0.53711897
       6407.6490      0.57384215
       6408.6211      0.50213101
       6409.5932      0.43539302
       6410.5653      0.51104054
       6411.5374      0.47771942
       6412.5094      0.47573323
       6413.4815      0.41276015
       6414.4536      0.50880808
       6415.4257      0.35549879
       6416.3978      0.37856310
       6417.3698      0.42589702
       6418.3419      0.39213009
       6419.3140      0.32704825
       6420.2861      0.52028818
       6421.2582      0.44950619
       6422.2303      0.39450209
       6423.2023      0.55181981
       6424.1744      0.44856738
       6425.1465      0.46415081
       6426.1186      0.40140314
       6427.0907      0.47226912
       6428.0628      0.49523192
       6429.0348      0.62771990
       6430.0069      0.47154179
       6430.9790      0.47578988
       6431.9511      0.45287295
       6432.9232      0.41129882
       6433.8953      0.40509777
       6434.8673      0.35684067
       6435.8394      0.39042640
       6436.8115      0.39406951
       6437.7836      0.49854181
       6438.7557      0.46054334
       6439.7277      0.56445793
       6440.6998      0.35357782
       6441.6719      0.57703994
       6442.6440      0.44045001
       6443.6161      0.58310232
       6444.5882      0.54919125
       6445.5602      0.53793947
       6446.5323      0.45431066
       6447.5044      0.35494407
       6448.4765      0.32556434
       6449.4486      0.46383520
       6450.4207      0.44816445
       6451.3927      0.41611083
       6452.3648      0.54935987
       6453.3369      0.40434725
       6454.3090      0.47262413
       6455.2811      0.43623380
       6456.2532      0.50129115
       6457.2252      0.42398337
       6458.1973      0.41702303
       6459.1694      0.48580337
       6460.1415      0.49373675
       6461.1136      0.34818709
       6462.0856      0.49005577
       6463.0577      0.44419210
       6464.0298      0.39550664
       6465.0019      0.57814142
       6465.9740      0.44060676
       6466.9461      0.24770804
       6467.9181      0.33104185
       6468.8902      0.49344043
       6469.8623      0.42386276
       6470.8344      0.41126281
       6471.8065      0.47136940
       6472.7786      0.30366049
       6473.7506      0.48896305
       6474.7227      0.44219328
       6475.6948      0.51696824
       6476.6669      0.45824491
       6477.6390      0.49263156
       6478.6111      0.42530897
       6479.5831      0.42235507
       6480.5552      0.46309491
       6481.5273      0.44318030
       6482.4994      0.37908257
       6483.4715      0.44359911
       6484.4435      0.46921332
       6485.4156      0.39977689
       6486.3877      0.39009372
       6487.3598      0.50303082
       6488.3319      0.56013049
       6489.3040      0.47544353
       6490.2760      0.52696398
       6491.2481      0.39711057
       6492.2202      0.53903839
       6493.1923      0.50586165
       6494.1644      0.49692589
       6495.1365      0.47954209
       6496.1085      0.58540533
       6497.0806      0.47583023
       6498.0527      0.49609835
       6499.0248      0.55002613
       6499.9969      0.41051722
       6500.9690      0.36745585
       6501.9410      0.60373787
       6502.9131      0.46654618
       6503.8852      0.51454497
       6504.8573      0.47809599
       6505.8294      0.55025609
       6506.8014      0.31659569
       6507.7735      0.37355544
       6508.7456      0.31522846
       6509.7177      0.52776289
       6510.6898      0.38604904
       6511.6619      0.48395974
       6512.6339      0.55007027
       6513.6060      0.51650288
       6514.5781      0.60960767
       6515.5502      0.47892497
       6516.5223      0.53315869
       6517.4944      0.55920759
       6518.4664      0.44322736
       6519.4385      0.29377200
       6520.4106      0.41200458
       6521.3827      0.48200877
       6522.3548      0.57675319
       6523.3268      0.55793675
       6524.2989      0.57134845
       6525.2710      0.59198790
       6526.2431      0.56426456
       6527.2152      0.43896387
       6528.1873      0.55937969
       6529.1593      0.63024286
       6530.1314      0.52770530
       6531.1035      0.50769390
       6532.0756      0.48934605
       6533.0477      0.69345525
       6534.0198      0.52118025
       6534.9918      0.44271064
       6535.9639      0.47020172
       6536.9360      0.32807700
       6537.9081      0.45500248
       6538.8802      0.43605085
       6539.8523      0.44647790
       6540.8243      0.44171336
       6541.7964      0.50167155
       6542.7685      0.59063413
       6543.7406      0.53674631
       6544.7127      0.54891120
       6545.6847      0.49847665
       6546.6568      0.55196471
       6547.6289      0.60359339
       6548.6010      0.47606716
       6549.5731      0.40594505
       6550.5452      0.51984487
       6551.5172      0.36845353
       6552.4893      0.43984911
       6553.4614      0.29526062
       6554.4335      0.45498070
       6555.4056      0.42612196
       6556.3777      0.69855346
       6557.3497      0.56694559
       6558.3218      0.85325612
       6559.2939      0.93233910
       6560.2660       1.1501738
       6561.2381       1.0844358
       6562.2102       1.0236276
       6563.1822      0.80967858
       6564.1543      0.85243492
       6565.1264      0.64826527
       6566.0985      0.78377759
       6567.0706      0.81187144
       6568.0426      0.59400448
       6569.0147      0.74895753
       6569.9868      0.78401021
       6570.9589      0.66401323
       6571.9310      0.61004615
       6572.9031      0.51189405
       6573.8751      0.51551338
       6574.8472      0.53043193
       6575.8193      0.53728627
       6576.7914      0.56004138
       6577.7635      0.59310666
       6578.7356      0.52627836
       6579.7076      0.60350024
       6580.6797      0.72073983
       6581.6518      0.60486996
       6582.6239      0.63491140
       6583.5960      0.64316326
       6584.5681      0.49198904
       6585.5401      0.57139164
       6586.5122      0.48391812
       6587.4843      0.38521841
       6588.4564      0.44733577
       6589.4285      0.59039717
       6590.4005      0.60967653
       6591.3726      0.57447456
       6592.3447      0.50386985
       6593.3168      0.45713510
       6594.2889      0.56520808
       6595.2610      0.45587990
       6596.2330      0.54013212
       6597.2051      0.48279878
       6598.1772      0.54739026
       6599.1493      0.57551608
       6600.1214      0.52169263
       6601.0935      0.62510212
       6602.0655      0.42922253
       6603.0376      0.61585064
       6604.0097      0.50515206
       6604.9818      0.52047499
       6605.9539      0.48626053
       6606.9260      0.53164850
       6607.8980      0.60632367
       6608.8701      0.70840539
       6609.8422      0.50920245
       6610.8143      0.53124394
       6611.7864      0.61027108
       6612.7584      0.53074233
       6613.7305      0.55185674
       6614.7026      0.51020598
       6615.6747      0.68619403
       6616.6468      0.53802851
       6617.6189      0.55716690
       6618.5909      0.61820541
       6619.5630      0.61852968
       6620.5351      0.59374796
       6621.5072      0.57789495
       6622.4793      0.54376230
       6623.4514      0.54961950
       6624.4234      0.53744837
       6625.3955      0.52542359
       6626.3676      0.62594768
       6627.3397      0.53413085
       6628.3118      0.62353481
       6629.2838      0.65221815
       6630.2559      0.64753573
       6631.2280      0.54947652
       6632.2001      0.53382245
       6633.1722      0.55868227
       6634.1443      0.65430165
       6635.1163      0.56778614
       6636.0884      0.53449967
       6637.0605      0.66302636
       6638.0326      0.67077699
       6639.0047      0.62967832
       6639.9768      0.69332499
       6640.9488      0.64003204
       6641.9209      0.50189456
       6642.8930      0.53904656
       6643.8651      0.62855890
       6644.8372      0.66972969
       6645.8093      0.60629898
       6646.7813      0.54606892
       6647.7534      0.63633069
       6648.7255      0.64098174
       6649.6976      0.60245567
       6650.6697      0.54986504
       6651.6417      0.53027679
       6652.6138      0.51545052
       6653.5859      0.52474215
       6654.5580      0.55072565
       6655.5301      0.47394269
       6656.5022      0.57357207
       6657.4742      0.49931079
       6658.4463      0.66048643
       6659.4184      0.56994367
       6660.3905      0.51799626
       6661.3626      0.56174257
       6662.3347      0.51218149
       6663.3067      0.50168682
       6664.2788      0.54028912
       6665.2509      0.53502836
       6666.2230      0.43633099
       6667.1951      0.55273271
       6668.1672      0.50556364
       6669.1392      0.52431720
       6670.1113      0.40628879
       6671.0834      0.51913883
       6672.0555      0.71079593
       6673.0276      0.55414052
       6673.9996      0.45293092
       6674.9717      0.60764810
       6675.9438      0.59410136
       6676.9159      0.50712835
       6677.8880      0.53747420
       6678.8601      0.42550586
       6679.8321      0.57346076
       6680.8042      0.53017400
       6681.7763      0.53260650
       6682.7484      0.53985773
       6683.7205      0.60739722
       6684.6926      0.63167333
       6685.6646      0.59886732
       6686.6367      0.59641761
       6687.6088      0.68817305
       6688.5809      0.76554838
       6689.5530      0.70285688
       6690.5251      0.61511410
       6691.4971      0.75573164
       6692.4692      0.51448488
       6693.4413      0.70036426
       6694.4134      0.64985068
       6695.3855      0.54983417
       6696.3575      0.49474441
       6697.3296      0.62379651
       6698.3017      0.60100134
       6699.2738      0.70624423
       6700.2459      0.72248333
       6701.2180      0.60615473
       6702.1900      0.60006452
       6703.1621      0.53433749
       6704.1342      0.52859263
       6705.1063      0.55226548
       6706.0784      0.55154052
       6707.0505      0.62656723
       6708.0225      0.50788546
       6708.9946      0.55752562
       6709.9667      0.53404769
       6710.9388      0.60600755
       6711.9109      0.66659601
       6712.8830      0.54680072
       6713.8550      0.69152001
       6714.8271      0.57343620
       6715.7992      0.59262519
       6716.7713      0.45845161
       6717.7434      0.52335397
       6718.7154      0.52440774
       6719.6875      0.52240261
       6720.6596      0.53793834
       6721.6317      0.56521316
       6722.6038      0.49703885
       6723.5759      0.55752177
       6724.5479      0.61558148
       6725.5200      0.57324743
       6726.4921      0.60511817
       6727.4642      0.59763289
       6728.4363      0.56730890
       6729.4084      0.47119188
       6730.3804      0.47338975
       6731.3525      0.61868274
       6732.3246      0.52980624
       6733.2967      0.52805681
       6734.2688      0.59835604
       6735.2409      0.67497318
       6736.2129      0.53389381
       6737.1850      0.59763189
       6738.1571      0.62320934
       6739.1292      0.67023815
       6740.1013      0.57266087
       6741.0733      0.53800655
       6742.0454      0.40287563
       6743.0175      0.54115109
       6743.9896      0.53090374
       6744.9617      0.47668610
       6745.9338      0.65998073
       6746.9058      0.44602421
       6747.8779      0.54658202
       6748.8500      0.62835017
       6749.8221      0.61248939
       6750.7942      0.53418892
       6751.7663      0.39718048
       6752.7383      0.51326250
       6753.7104      0.56445085
       6754.6825      0.40050940
       6755.6546      0.59526102
       6756.6267      0.61898393
       6757.5987      0.56943285
       6758.5708      0.47922032
       6759.5429      0.52392319
       6760.5150      0.59198905
       6761.4871      0.58296891
       6762.4592      0.56385623
       6763.4312      0.49913446
       6764.4033      0.56750928
       6765.3754      0.35527981
       6766.3475      0.49091114
       6767.3196      0.51898818
       6768.2917      0.43250165
       6769.2637      0.30703948
       6770.2358      0.48701356
       6771.2079      0.50374272
       6772.1800      0.56184337
       6773.1521      0.29126720
       6774.1242      0.61897937
       6775.0962      0.51809675
       6776.0683      0.60006798
       6777.0404      0.46984130
       6778.0125      0.45154742
       6778.9846      0.52555990
       6779.9566      0.59951854
       6780.9287      0.41390522
       6781.9008      0.47404377
       6782.8729      0.28882528
       6783.8450      0.65823514
       6784.8171      0.66057134
       6785.7891      0.52660368
       6786.7612      0.60637655
       6787.7333      0.57959888
       6788.7054      0.39685691
       6789.6775      0.54514088
       6790.6496      0.65110056
       6791.6216      0.34524012
       6792.5937      0.49064528
       6793.5658      0.56832709
       6794.5379      0.51741462
       6795.5100      0.50186098
       6796.4821      0.54315143
       6797.4541      0.55117540
       6798.4262      0.48341496
       6799.3983      0.52948444
       6800.3704      0.41364554
       6801.3425      0.51927882
       6802.3145      0.44180364
       6803.2866      0.46667543
       6804.2587      0.54241480
       6805.2308      0.46904332
       6806.2029      0.60391290
       6807.1750      0.52319452
       6808.1470      0.57236972
       6809.1191      0.49652505
       6810.0912      0.43134123
       6811.0633      0.62063630
       6812.0354      0.67457068
       6813.0075      0.55735357
       6813.9795      0.50399517
       6814.9516      0.50399426
       6815.9237      0.44442704
       6816.8958      0.57279367
       6817.8679      0.51270250
       6818.8400      0.56503761
       6819.8120      0.24274004
       6820.7841      0.45091508
       6821.7562      0.40689129
       6822.7283      0.57478962
       6823.7004      0.51648073
       6824.6724      0.38322717
       6825.6445      0.42271542
       6826.6166      0.35365695
       6827.5887      0.57624096
       6828.5608      0.40795476
       6829.5329      0.43930460
       6830.5049      0.49659992
       6831.4770      0.65050931
       6832.4491      0.49132406
       6833.4212      0.58627374
       6834.3933      0.46763152
       6835.3654      0.49153761
       6836.3374      0.41423777
       6837.3095      0.49846634
       6838.2816      0.54265269
       6839.2537      0.54049823
       6840.2258      0.49721141
       6841.1979      0.51831038
       6842.1699      0.59760891
       6843.1420      0.56092179
       6844.1141      0.43681460
       6845.0862      0.50734923
       6846.0583      0.57922351
       6847.0303      0.39759667
       6848.0024      0.57131910
       6848.9745      0.50259256
       6849.9466      0.51018543
       6850.9187      0.59456812
       6851.8908      0.48088753
       6852.8628      0.45916054
       6853.8349      0.44411414
       6854.8070      0.53593663
       6855.7791      0.62065203
       6856.7512      0.53814558
       6857.7233      0.45889428
       6858.6953      0.45909648
       6859.6674      0.38612801
       6860.6395      0.44444173
       6861.6116      0.46374024
       6862.5837      0.39148290
       6863.5558      0.43456818
       6864.5278      0.54969722
       6865.4999      0.54093463
       6866.4720      0.60762549
       6867.4441      0.45673793
       6868.4162      0.64135618
       6869.3882      0.55876267
       6870.3603      0.53682870
       6871.3324      0.48004070
       6872.3045      0.56383574
       6873.2766      0.51761841
       6874.2487      0.45487534
       6875.2207      0.49344172
       6876.1928      0.66307263
       6877.1649      0.40371679
       6878.1370      0.49950732
       6879.1091      0.54399426
       6880.0812      0.57626921
       6881.0532      0.53219177
       6882.0253      0.53756524
       6882.9974      0.56377664
       6883.9695      0.45834607
       6884.9416      0.48871235
       6885.9136     0.015180901
       6886.8857      0.45597061
       6887.8578      0.41561391
       6888.8299      0.41753757
       6889.8020      0.47614735
       6890.7741      0.49337676
       6891.7461      0.69164131
       6892.7182      0.55711380
       6893.6903      0.44901972
       6894.6624      0.51764658
       6895.6345      0.51275385
       6896.6066      0.63078133
       6897.5786      0.47140739
       6898.5507      0.58974958
       6899.5228      0.51276015
       6900.4949      0.46542203
       6901.4670      0.65783267
       6902.4391      0.57302260
       6903.4111      0.40734359
       6904.3832      0.66763868
       6905.3553      0.60268661
       6906.3274      0.55619956
       6907.2995      0.59324117
       6908.2715      0.47626519
       6909.2436      0.64028816
       6910.2157      0.71086286
       6911.1878      0.50464385
       6912.1599      0.53916628
       6913.1320      0.53799982
       6914.1040      0.71071106
       6915.0761      0.37045193
       6916.0482      0.42022464
       6917.0203      0.42056751
       6917.9924      0.49195304
       6918.9645      0.47699977
       6919.9365      0.47992620
       6920.9086      0.40969679
       6921.8807      0.55403997
       6922.8528      0.64253651
       6923.8249      0.54325252
       6924.7970      0.52840505
       6925.7690      0.58659360
       6926.7411      0.56465676
       6927.7132      0.61974883
       6928.6853      0.51022261
       6929.6574      0.47204820
       6930.6294      0.59331418
       6931.6015      0.54058253
       6932.5736      0.60020510
       6933.5457      0.46119963
       6934.5178      0.60793684
       6935.4899      0.53784971
       6936.4619      0.52457556
       6937.4340      0.50672670
       6938.4061      0.55865945
       6939.3782      0.53279004
       6940.3503      0.48672821
       6941.3224      0.47338466
       6942.2944      0.59053038
       6943.2665      0.50642390
       6944.2386      0.55260136
       6945.2107      0.53843916
       6946.1828      0.48630855
       6947.1549      0.60703252
       6948.1269      0.58328615
       6949.0990      0.50956491
       6950.0711      0.48599611
       6951.0432      0.46826921
       6952.0153      0.55712847
       6952.9873      0.54249704
       6953.9594      0.61999693
       6954.9315      0.46485728
       6955.9036      0.52435010
       6956.8757      0.55832369
       6957.8478      0.50610344
       6958.8198      0.60168717
       6959.7919      0.55929647
       6960.7640      0.54066261
       6961.7361      0.62131136
       6962.7082      0.55840709
       6963.6803      0.49411209
       6964.6523      0.61597522
       6965.6244      0.54199845
       6966.5965      0.59855391
       6967.5686      0.46316371
       6968.5407      0.57322142
       6969.5128      0.46075073
       6970.4848      0.57893766
       6971.4569      0.47112589
       6972.4290      0.62317981
       6973.4011      0.60555088
       6974.3732      0.62007877
       6975.3452      0.52097449
       6976.3173      0.59141171
       6977.2894      0.45627043
       6978.2615      0.54989570
       6979.2336      0.45393009
       6980.2057      0.49677646
       6981.1777      0.65958907
       6982.1498      0.50538821
       6983.1219      0.55882155
       6984.0940      0.35075547
       6985.0661      0.62983661
       6986.0382      0.63218594
       6987.0102      0.51855010
       6987.9823      0.62529565
       6988.9544      0.55312587
       6989.9265      0.57929928
       6990.8986      0.64291524
       6991.8706      0.60840023
       6992.8427      0.61011441
       6993.8148      0.65623520
       6994.7869      0.49601197
       6995.7590      0.50450194
       6996.7311      0.52708876
       6997.7031      0.62208089
       6998.6752      0.42434429
       6999.6473      0.51690583
       7000.6194      0.57987888
       7001.5915      0.53615512
       7002.5636      0.50212042
       7003.5356      0.54199270
       7004.5077      0.46205222
       7005.4798      0.57545712
       7006.4519      0.58839153
       7007.4240      0.56838885
       7008.3961      0.55305282
       7009.3681      0.54676158
       7010.3402      0.52426431
       7011.3123      0.49332783
       7012.2844      0.59063990
       7013.2565      0.47077761
       7014.2285      0.50766668
       7015.2006      0.48962007
       7016.1727      0.54272966
       7017.1448      0.54229753
       7018.1169      0.52455449
       7019.0890      0.69098466
       7020.0610      0.78536669
       7021.0331      0.74476402
       7022.0052      0.69255561
       7022.9773      0.60420136
       7023.9494      0.64596519
       7024.9215      0.56545324
       7025.8935      0.69749055
       7026.8656      0.54798130
       7027.8377      0.49524487
       7028.8098      0.60396808
       7029.7819      0.63105003
       7030.7540      0.63345112
       7031.7260      0.48917611
       7032.6981      0.65093382
       7033.6702      0.60116398
       7034.6423      0.51429849
       7035.6144      0.67511279
       7036.5864      0.52871227
       7037.5585      0.68798704
       7038.5306      0.66573695
       7039.5027      0.52148208
       7040.4748      0.37205033
       7041.4469      0.39264881
       7042.4189      0.51018811
       7043.3910      0.46420714
       7044.3631      0.61222806
       7045.3352      0.61553357
       7046.3073      0.62920842
       7047.2794      0.65317524
       7048.2514      0.66656161
       7049.2235      0.54767184
       7050.1956      0.59810220
       7051.1677      0.57320729
       7052.1398      0.49406458
       7053.1119      0.44025478
       7054.0839      0.44131121
       7055.0560      0.39393726
       7056.0281      0.69542173
       7057.0002      0.61653560
       7057.9723      0.68327571
       7058.9443      0.60866252
       7059.9164      0.61488301
       7060.8885      0.48423305
       7061.8606      0.62857260
       7062.8327      0.66239021
       7063.8048      0.67914153
       7064.7768      0.47760675
       7065.7489      0.43689963
       7066.7210      0.49087781
       7067.6931      0.57071946
       7068.6652      0.54210648
       7069.6373      0.55569823
       7070.6093      0.42480440
       7071.5814      0.64755441
       7072.5535      0.59849158
       7073.5256      0.61148749
       7074.4977      0.24288043
       7075.4698      0.47025462
       7076.4418      0.39378270
       7077.4139      0.38185704
       7078.3860      0.52263886
       7079.3581      0.44578967
       7080.3302      0.55217013
       7081.3022      0.53098744
       7082.2743      0.58994607
       7083.2464      0.52919151
       7084.2185      0.47019121
       7085.1906      0.45167187
       7086.1627      0.61249700
       7087.1347      0.50296374
       7088.1068      0.51371679
       7089.0789      0.57766069
       7090.0510      0.53296344
       7091.0231      0.50942419
       7091.9952      0.51774140
       7092.9672      0.65724299
       7093.9393      0.60336897
       7094.9114      0.61244258
       7095.8835      0.54410964
       7096.8556      0.57784160
       7097.8277      0.68647209
       7098.7997      0.66691541
       7099.7718      0.75660859
       7100.7439      0.54410216
       7101.7160      0.63716472
       7102.6881      0.65105950
       7103.6601      0.66429680
       7104.6322      0.61510733
       7105.6043      0.62559368
       7106.5764      0.60135377
       7107.5485      0.49247786
       7108.5206      0.59003849
       7109.4926      0.59734857
       7110.4647      0.58211812
       7111.4368      0.58276872
       7112.4089      0.53715425
       7113.3810      0.64865877
       7114.3531      0.56220458
       7115.3251      0.58130091
       7116.2972      0.61163261
       7117.2693      0.65568426
       7118.2414      0.50627661
       7119.2135      0.62674503
       7120.1855      0.69500343
       7121.1576      0.69187726
       7122.1297      0.64496698
       7123.1018      0.52629426
       7124.0739      0.57653607
       7125.0460      0.47814538
       7126.0180      0.53053108
       7126.9901      0.58635057
       7127.9622      0.57641738
       7128.9343      0.52386769
       7129.9064      0.54685358
       7130.8785      0.50560220
       7131.8505      0.57738378
       7132.8226      0.53020858
       7133.7947      0.55608297
       7134.7668      0.51014339
       7135.7389      0.60048892
       7136.7110      0.63719742
       7137.6830      0.73100977
       7138.6551      0.49576737
       7139.6272      0.52006263
       7140.5993      0.67765527
       7141.5714      0.53039864
       7142.5434      0.59130456
       7143.5155      0.68634073
       7144.4876      0.55001602
       7145.4597      0.57185420
       7146.4318      0.57095153
       7147.4039      0.55903075
       7148.3759      0.61164193
       7149.3480      0.61576859
       7150.3201      0.58012857
       7151.2922      0.58449821
       7152.2643      0.70361419
       7153.2364      0.50257836
       7154.2084      0.49965016
       7155.1805      0.68063560
       7156.1526      0.69394203
       7157.1247      0.55900766
       7158.0968      0.44659525
       7159.0689      0.30484946
       7160.0409      0.35727754
       7161.0130      0.46971858
       7161.9851      0.64002058
       7162.9572      0.39502607
       7163.9293      0.25006476
       7164.9013      0.63288921
       7165.8734      0.73323104
       7166.8455      0.67953931
       7167.8176      0.73441089
       7168.7897      0.45593200
       7169.7618      0.28969169
       7170.7338      0.29036789
       7171.7059      0.23913672
       7172.6780      0.38771625
       7173.6501      0.49205410
       7174.6222      0.49541576
       7175.5943      0.46875082
       7176.5663      0.72109406
       7177.5384      0.55767021
       7178.5105      0.52271173
       7179.4826      0.70655689
       7180.4547      0.62413831
       7181.4268      0.60644787
       7182.3988      0.45389347
       7183.3709      0.54617285
       7184.3430      0.66896616
       7185.3151      0.36618454
       7186.2872      0.52454394
       7187.2592      0.50944578
       7188.2313      0.50245068
       7189.2034      0.57572382
       7190.1755      0.48134236
       7191.1476      0.49766555
       7192.1197      0.46647665
       7193.0917      0.51203722
       7194.0638      0.48725532
       7195.0359      0.41346532
       7196.0080      0.56845187
       7196.9801      0.45566290
       7197.9522      0.47020554
       7198.9242      0.46135123
       7199.8963      0.57175610
       7200.8684      0.47182305
       7201.8405      0.53943173
       7202.8126      0.54526332
       7203.7847      0.48082036
       7204.7567      0.41940980
       7205.7288      0.55507762
       7206.7009      0.38946473
       7207.6730      0.40449187
       7208.6451      0.40822300
       7209.6171      0.39894664
       7210.5892      0.71186291
       7211.5613      0.16426524
       7212.5334      0.31709555
       7213.5055      0.37772120
       7214.4776      0.47437006
       7215.4496      0.65819388
       7216.4217      0.42673244
       7217.3938      0.46202135
       7218.3659      0.52963509
       7219.3380      0.37462986
       7220.3101      0.58947150
       7221.2821      0.54462373
       7222.2542      0.38908878
       7223.2263      0.55635265
       7224.1984      0.55028965
       7225.1705      0.50208919
       7226.1425      0.60407888
       7227.1146      0.53588055
       7228.0867      0.47441935
       7229.0588      0.51894779
       7230.0309      0.50708010
       7231.0030      0.55034350
       7231.9750      0.58193583
       7232.9471      0.56145574
       7233.9192      0.39302031
       7234.8913      0.46130158
       7235.8634      0.51841732
       7236.8355      0.48780369
       7237.8075      0.38461337
       7238.7796      0.45825207
       7239.7517      0.47621718
       7240.7238      0.41467546
       7241.6959      0.54046061
       7242.6680      0.51122912
       7243.6400      0.34621021
       7244.6121      0.58536647
       7245.5842      0.49112169
       7246.5563      0.29588038
       7247.5284      0.57755811
       7248.5004      0.41633328
       7249.4725      0.54379341
       7250.4446      0.52235549
       7251.4167      0.36524532
       7252.3888      0.52903259
       7253.3609      0.49642362
       7254.3329      0.44905651
       7255.3050      0.39051522
       7256.2771      0.46842686
       7257.2492      0.31325846
       7258.2213      0.32990575
       7259.1934      0.43435116
       7260.1654      0.44551792
       7261.1375      0.60202250
       7262.1096      0.38945118
       7263.0817      0.48786532
       7264.0538      0.47438311
       7265.0259      0.44072359
       7265.9979      0.48587107
       7266.9700      0.41927322
       7267.9421      0.45732561
       7268.9142      0.42707012
       7269.8863      0.53430823
       7270.8583      0.35031307
       7271.8304      0.45668718
       7272.8025      0.52332591
       7273.7746      0.41765297
       7274.7467      0.36217214
       7275.7188      0.47398005
       7276.6908      0.47754419
       7277.6629      0.39394203
       7278.6350      0.46756901
       7279.6071      0.47146934
       7280.5792      0.39009304
       7281.5513      0.42024727
       7282.5233      0.48822496
       7283.4954      0.36874709
       7284.4675      0.30692759
       7285.4396      0.26950563
       7286.4117      0.40908254
       7287.3838      0.56453179
       7288.3558      0.77681104
       7289.3279      0.51734623
       7290.3000      0.44852526
       7291.2721      0.53431590
       7292.2442      0.45609069
       7293.2162      0.43965884
       7294.1883      0.40336921
       7295.1604      0.45018309
       7296.1325      0.52310861
       7297.1046      0.49506363
       7298.0767      0.44283554
       7299.0487      0.47852060
       7300.0208      0.56338416
       7300.9929      0.35877194
       7301.9650      0.47334603
       7302.9371      0.55826529
       7303.9092      0.36836943
       7304.8812      0.45140633
       7305.8533      0.43347749
       7306.8254      0.48474645
       7307.7975      0.43664990
       7308.7696      0.51383654
       7309.7417      0.40960434
       7310.7137      0.35738482
       7311.6858      0.54534616
       7312.6579      0.48894142
       7313.6300      0.49768930
       7314.6021      0.35277500
       7315.5741      0.47117785
       7316.5462      0.33974178
       7317.5183      0.30531399
       7318.4904      0.75274350
       7319.4625      0.41539762
       7320.4346      0.45767661
       7321.4066      0.40083266
       7322.3787      0.31129621
       7323.3508      0.38269377
       7324.3229      0.42954127
       7325.2950      0.65580009
       7326.2671      0.58496859
       7327.2391      0.55689661
       7328.2112      0.53985161
       7329.1833      0.41835752
       7330.1554      0.53921239
       7331.1275      0.46741707
       7332.0996      0.44753264
       7333.0716      0.43859287
       7334.0437      0.51584652
       7335.0158      0.43356063
       7335.9879      0.48335291
       7336.9600      0.44558215
       7337.9320      0.35249171
       7338.9041      0.55167336
       7339.8762      0.51286677
       7340.8483      0.44191847
       7341.8204      0.31822170
       7342.7925      0.43293603
       7343.7645      0.48225973
       7344.7366      0.46594294
       7345.7087      0.36905293
       7346.6808      0.36307948
       7347.6529      0.30810604
       7348.6250      0.41818168
       7349.5970      0.34268689
       7350.5691      0.46896147
       7351.5412      0.38812722
       7352.5133      0.33281967
       7353.4854      0.51024050
       7354.4574      0.60962366
       7355.4295      0.44026738
       7356.4016      0.68676686
       7357.3737      0.63002806
       7358.3458      0.32990282
       7359.3179      0.40597430
       7360.2899      0.45137895
       7361.2620      0.44099861
       7362.2341      0.39010705
       7363.2062      0.43541571
       7364.1783      0.47321139
       7365.1504      0.37168663
       7366.1224      0.44546584
       7367.0945      0.34254021
       7368.0666      0.49013521
       7369.0387      0.33849786
       7370.0108      0.44406093
       7370.9829      0.42593769
       7371.9549      0.40997195
       7372.9270      0.40191213
       7373.8991      0.49223500
       7374.8712      0.34469970
       7375.8433      0.51541062
       7376.8153      0.37788996
       7377.7874      0.40681736
       7378.7595      0.36410741
       7379.7316      0.40107281
       7380.7037      0.42679045
       7381.6758      0.54066009
       7382.6478      0.44465057
       7383.6199      0.54938816
       7384.5920      0.46497121
       7385.5641      0.38388112
       7386.5362      0.33186583
       7387.5083      0.47760441
       7388.4803      0.41193194
       7389.4524      0.42486869
       7390.4245      0.38008799
       7391.3966      0.50700510
       7392.3687      0.36296844
       7393.3408      0.51214809
       7394.3128      0.36408282
       7395.2849      0.44103270
       7396.2570      0.41940022
       7397.2291      0.44931843
       7398.2012      0.43477287
       7399.1732      0.49918887
       7400.1453      0.42824074
       7401.1174      0.31301254
       7402.0895      0.46485802
       7403.0616      0.49152287
       7404.0337      0.43948272
       7405.0057      0.43060507
       7405.9778      0.44507462
       7406.9499      0.42746465
       7407.9220      0.38654006
       7408.8941      0.43141674
       7409.8662      0.40429266
       7410.8382      0.32830002
       7411.8103      0.44751268
       7412.7824      0.49260527
       7413.7545      0.42050518
       7414.7266      0.37706769
       7415.6987      0.47373989
       7416.6707      0.36503120
       7417.6428      0.25773501
       7418.6149      0.31364312
       7419.5870      0.40178510
       7420.5591      0.39703767
       7421.5311      0.43191863
       7422.5032      0.43983031
       7423.4753      0.43641553
       7424.4474      0.31767404
       7425.4195      0.42428225
       7426.3916      0.42891723
       7427.3636      0.28967185
       7428.3357      0.33481216
       7429.3078      0.39614562
       7430.2799      0.43906879
       7431.2520      0.50834468
       7432.2241      0.44725462
       7433.1961      0.36576638
       7434.1682      0.39712851
       7435.1403      0.34733976
       7436.1124      0.43963601
       7437.0845      0.53349887
       7438.0566      0.42013505
       7439.0286      0.42874043
       7440.0007      0.43407940
       7440.9728      0.41449555
       7441.9449      0.41985183
       7442.9170      0.47522622
       7443.8890      0.45362439
       7444.8611      0.48670714
       7445.8332      0.43497108
       7446.8053      0.41836378
       7447.7774      0.43063453
       7448.7495      0.46856685
       7449.7215      0.39325015
       7450.6936      0.39628119
       7451.6657      0.46568311
       7452.6378      0.54106243
       7453.6099      0.42393598
       7454.5820      0.38721016
       7455.5540      0.44627933
       7456.5261      0.41907341
       7457.4982      0.46644475
       7458.4703      0.37052117
       7459.4424      0.44609420
       7460.4145      0.40738109
       7461.3865      0.35182173
       7462.3586      0.49959717
       7463.3307      0.49623434
       7464.3028      0.48987825
       7465.2749      0.38155894
       7466.2469      0.46744326
       7467.2190      0.37378379
       7468.1911      0.52792467
       7469.1632      0.46655597
       7470.1353      0.31857821
       7471.1074      0.40855939
       7472.0794      0.34088004
       7473.0515      0.56210106
       7474.0236      0.44149195
       7474.9957      0.46803756
       7475.9678      0.31829483
       7476.9399      0.45913011
       7477.9119      0.48385767
       7478.8840      0.35526223
       7479.8561      0.40221219
       7480.8282      0.55685838
       7481.8003      0.52395683
       7482.7723      0.52828608
       7483.7444      0.53706919
       7484.7165      0.48680795
       7485.6886      0.47253115
       7486.6607      0.44134226
       7487.6328      0.50909100
       7488.6048      0.46634978
       7489.5769      0.30613739
       7490.5490      0.39108450
       7491.5211      0.41675428
       7492.4932      0.42128756
       7493.4653      0.54764589
       7494.4373      0.38113263
       7495.4094      0.48761103
       7496.3815      0.40740665
       7497.3536      0.51893788
       7498.3257      0.42766772
       7499.2978      0.53369694
       7500.2698      0.55462062
       7501.2419      0.48345641
       7502.2140      0.51184532
       7503.1861      0.49454154
       7504.1582      0.58435008
       7505.1302      0.54651665
       7506.1023      0.48338999
       7507.0744      0.54635229
       7508.0465      0.56661571
       7509.0186      0.59088605
       7509.9907      0.42685744
       7510.9627      0.58083936
       7511.9348      0.43480556
       7512.9069      0.46335679
       7513.8790      0.54806036
       7514.8511      0.63439361
       7515.8232      0.53749834
       7516.7952      0.47755567
       7517.7673      0.44654550
       7518.7394      0.53955450
       7519.7115      0.35921084
       7520.6836      0.39682503
       7521.6557      0.52105045
       7522.6277      0.56363991
       7523.5998      0.48964638
       7524.5719      0.36131550
       7525.5440      0.38249359
       7526.5161      0.46943671
       7527.4881      0.50038292
       7528.4602      0.54714790
       7529.4323      0.50226499
       7530.4044      0.44335546
       7531.3765      0.56412614
       7532.3486      0.44966513
       7533.3206      0.60732872
       7534.2927      0.48839580
       7535.2648      0.53497001
       7536.2369      0.56955202
       7537.2090      0.58734998
       7538.1811      0.59112596
       7539.1531      0.58352188
       7540.1252      0.60666490
       7541.0973      0.50267436
       7542.0694      0.52329736
       7543.0415      0.58828068
       7544.0136      0.55816248
       7544.9856      0.57357384
       7545.9577      0.61641499
       7546.9298      0.61841142
       7547.9019      0.60350392
       7548.8740      0.56258566
       7549.8460      0.54398896
       7550.8181      0.51488830
       7551.7902      0.53963937
       7552.7623      0.58092579
       7553.7344      0.50369868
       7554.7065      0.56201997
       7555.6785      0.56855904
       7556.6506      0.65498376
       7557.6227      0.55824268
       7558.5948      0.46082904
       7559.5669      0.61825962
       7560.5390      0.48470910
       7561.5110      0.54416883
       7562.4831      0.58419858
       7563.4552      0.56782608
       7564.4273      0.64185843
       7565.3994      0.66533565
       7566.3715      0.53004888
       7567.3435      0.63118685
       7568.3156      0.57387466
       7569.2877      0.56066429
       7570.2598      0.47679852
       7571.2319      0.56874067
       7572.2039      0.53780132
       7573.1760      0.55664723
       7574.1481      0.57349413
       7575.1202      0.56990464
       7576.0923      0.60899549
       7577.0644      0.42689578
       7578.0364      0.62312534
       7579.0085      0.48445363
       7579.9806      0.62105859
       7580.9527      0.48334525
       7581.9248      0.62763867
       7582.8969      0.62356422
       7583.8689      0.60065304
       7584.8410      0.61091396
       7585.8131      0.57453199
       7586.7852      0.54651626
       7587.7573      0.48299675
       7588.7293      0.55925709
       7589.7014      0.59557889
       7590.6735      0.60691131
       7591.6456      0.59189409
       7592.6177      0.60434980
       7593.5898      0.54099084
       7594.5618      0.67287220
       7595.5339      0.39661216
       7596.5060      0.47207614
       7597.4781      0.28589902
       7598.4502      0.41723591
       7599.4223      0.61867532
       7600.3943      0.28223674
       7601.3664      0.38973099
       7602.3385      0.70455458
       7603.3106      0.46526207
       7604.2827      0.52017938
       7605.2548      0.37278944
       7606.2268      0.46855031
       7607.1989      0.43348216
       7608.1710      0.49523598
       7609.1431      0.64302352
       7610.1152      0.50005790
       7611.0872      0.67274734
       7612.0593      0.26683194
       7613.0314      0.35277479
       7614.0035      0.59217252
       7614.9756      0.46961248
       7615.9477      0.58863321
       7616.9197      0.56620320
       7617.8918      0.52663572
       7618.8639      0.43505602
       7619.8360      0.50102304
       7620.8081      0.48429368
       7621.7802      0.46426675
       7622.7522      0.62760140
       7623.7243      0.58584704
       7624.6964      0.51749396
       7625.6685      0.35130468
       7626.6406      0.46426118
       7627.6127      0.63154781
       7628.5847      0.67003309
       7629.5568      0.43976512
       7630.5289      0.44438838
       7631.5010      0.42187767
       7632.4731      0.49466327
       7633.4451      0.57226488
       7634.4172      0.47398398
       7635.3893      0.56290575
       7636.3614      0.61883618
       7637.3335      0.56326595
       7638.3056      0.52306095
       7639.2776      0.47228093
       7640.2497      0.47734720
       7641.2218      0.53742998
       7642.1939      0.62774657
       7643.1660      0.46298310
       7644.1381      0.52787774
       7645.1101      0.50369753
       7646.0822      0.44979414
       7647.0543      0.59092774
       7648.0264      0.35554507
       7648.9985      0.46035932
       7649.9706      0.56451823
       7650.9426      0.45488827
       7651.9147      0.32507594
       7652.8868    -0.085202092
       7653.8589     0.087066256
       7654.8310      0.86040667
       7655.8030      0.19302854
       7656.7751      0.15256871
       7657.7472      0.39458998
       7658.7193      0.23789072
       7659.6914     -0.13693061
       7660.6635      0.34138069
       7661.6355      0.61392035
       7662.6076      0.83942122
       7663.5797       1.0854284
       7664.5518      0.82417981
       7665.5239      0.52185289
       7666.4960      0.50552935
       7667.4680      0.43082433
       7668.4401      0.49146480
       7669.4122      0.52361398
       7670.3843      0.58411870
       7671.3564      0.50056789
       7672.3285      0.48044665
       7673.3005      0.48264311
       7674.2726      0.45246372
       7675.2447      0.47053007
       7676.2168      0.63551152
       7677.1889      0.45520807
       7678.1609      0.43628808
       7679.1330      0.57520866
       7680.1051      0.63012853
       7681.0772      0.54775402
       7682.0493      0.53243343
       7683.0214      0.48872538
       7683.9934      0.53612174
       7684.9655      0.59081202
       7685.9376      0.48495298
       7686.9097      0.50646778
       7687.8818      0.37544296
       7688.8539      0.50544077
       7689.8259      0.47269736
       7690.7980      0.72121441
       7691.7701      0.40699436
       7692.7422      0.48294384
       7693.7143      0.53024021
       7694.6864      0.63141462
       7695.6584      0.47434834
       7696.6305      0.54133771
       7697.6026      0.30527659
       7698.5747      0.50557167
       7699.5468      0.58179982
       7700.5188      0.43263612
       7701.4909      0.53821146
       7702.4630      0.41700156
       7703.4351      0.27593247
       7704.4072      0.53262779
       7705.3793      0.15567633
       7706.3513      0.59351088
       7707.3234    -0.046184863
       7708.2955      0.53949512
       7709.2676      0.37401766
       7710.2397      0.69970885
       7711.2118      0.49113472
       7712.1838      0.58795746
       7713.1559      0.50954557
       7714.1280      0.50296617
       7715.1001      0.57607794
       7716.0722      0.48601314
       7717.0442      0.46557121
       7718.0163      0.59217301
       7718.9884      0.42000449
       7719.9605      0.51308427
       7720.9326      0.27179371
       7721.9047      0.47778302
       7722.8767      0.33564841
       7723.8488      0.38167463
       7724.8209      0.33762304
       7725.7930      0.44380865
       7726.7651      0.52978796
       7727.7372      0.54190770
       7728.7092      0.56091226
       7729.6813      0.55130315
       7730.6534      0.50940423
       7731.6255      0.57162395
       7732.5976      0.57111038
       7733.5697      0.25401454
       7734.5417     0.053996937
       7735.5138      0.11999316
       7736.4859      0.54773904
       7737.4580     0.093712143
       7738.4301      0.57549783
       7739.4021      0.15924780
       7740.3742      0.52306008
       7741.3463      0.66822575
       7742.3184      0.70339188
       7743.2905      0.53540535
       7744.2626      0.66123141
       7745.2346      0.50621771
       7746.2067      0.58992686
       7747.1788      0.54201976
       7748.1509      0.58309236
       7749.1230      0.54873645
       7750.0951      0.70375198
       7751.0671      0.54005422
       7752.0392      0.60738530
       7753.0113      0.43108656
       7753.9834      0.53512815
       7754.9555      0.39782314
       7755.9276      0.16072801
       7756.8996      0.41746341
       7757.8717      0.38531511
       7758.8438      0.50983671
       7759.8159      0.60096964
       7760.7880      0.60732051
       7761.7600      0.45587408
       7762.7321      0.38204215
       7763.7042      0.64700382
       7764.6763      0.55310469
       7765.6484      0.57777302
       7766.6205      0.50372425
       7767.5925      0.40432050
       7768.5646      0.44975318
       7769.5367      0.47767329
       7770.5088      0.18374323
       7771.4809      0.63048066
       7772.4530      0.47005500
       7773.4250      0.48004175
       7774.3971      0.55023707
       7775.3692      0.51155723
       7776.3413      0.56410290
       7777.3134      0.54349189
       7778.2855      0.59218591
       7779.2575      0.61650161
       7780.2296      0.53478850
       7781.2017      0.50775152
       7782.1738      0.37660886
       7783.1459      0.33598369
       7784.1179      0.35276807
       7785.0900      0.44810385
       7786.0621      0.52842044
       7787.0342      0.46281947
       7788.0063      0.37959983
       7788.9784      0.36950816
       7789.9504      0.58219360
       7790.9225      0.54314592
       7791.8946      0.56231955
       7792.8667      0.56331375
       7793.8388      0.51729005
       7794.8109      0.43805453
       7795.7829      0.43753414
       7796.7550      0.64652481
       7797.7271      0.35460040
       7798.6992      0.42323137
       7799.6713      0.30226594
       7800.6434      0.36395383
       7801.6154      0.66116311
       7802.5875      0.55514691
       7803.5596      0.52732729
       7804.5317      0.54634386
       7805.5038      0.54682672
       7806.4758      0.41571112
       7807.4479      0.45913055
       7808.4200      0.55333789
       7809.3921      0.77617488
       7810.3642      0.28141225
       7811.3363      0.66064599
       7812.3083      0.50732732
       7813.2804      0.64519158
       7814.2525      0.75123986
       7815.2246      0.62227895
       7816.1967      0.63982648
       7817.1688      0.58050497
       7818.1408      0.55040754
       7819.1129      0.59154265
       7820.0850      0.52847384
       7821.0571      0.65179807
       7822.0292      0.47735224
       7823.0012      0.53999310
       7823.9733      0.56027631
       7824.9454      0.57013326
       7825.9175      0.55220174
       7826.8896      0.63980246
       7827.8617      0.58603614
       7828.8337      0.59888408
       7829.8058      0.48989728
       7830.7779      0.56274189
       7831.7500      0.56694677
       7832.7221      0.53557897
       7833.6942      0.52018199
       7834.6662      0.59787058
       7835.6383      0.50351228
       7836.6104      0.56536792
       7837.5825      0.59824768
       7838.5546      0.51412807
       7839.5267      0.50576033
       7840.4987      0.44102285
       7841.4708      0.39480992
       7842.4429      0.79520793
       7843.4150      0.52208066
       7844.3871      0.52913797
       7845.3591      0.69880619
       7846.3312      0.47776174
       7847.3033      0.41808258
       7848.2754      0.51442341
       7849.2475      0.59237979
       7850.2196      0.52477811
       7851.1916      0.47172827
       7852.1637      0.58406075
       7853.1358      0.33250813
       7854.1079      0.59469967
       7855.0800      0.52197640
       7856.0521      0.56104827
       7857.0241      0.56166827
       7857.9962      0.36135004
       7858.9683      0.49828393
       7859.9404      0.45887063
       7860.9125      0.55606407
       7861.8846      0.50617780
       7862.8566      0.66658905
       7863.8287      0.61432407
       7864.8008      0.50529225
       7865.7729      0.57573254
       7866.7450      0.59589103
       7867.7170      0.68770262
       7868.6891      0.44115564
       7869.6612      0.49516120
       7870.6333      0.51044623
       7871.6054      0.61892100
       7872.5775      0.46198460
       7873.5495      0.47641399
       7874.5216      0.57188792
       7875.4937      0.44348055
       7876.4658      0.48637932
       7877.4379      0.52391601
       7878.4100      0.39929167
       7879.3820      0.58009419
       7880.3541      0.52456546
       7881.3262      0.56669483
       7882.2983      0.49516982
       7883.2704      0.68820561
       7884.2425      0.55801903
       7885.2145      0.61369244
       7886.1866      0.49236655
       7887.1587      0.63098157
       7888.1308      0.65116918
       7889.1029      0.51200493
       7890.0749      0.31354552
       7891.0470      0.33688551
       7892.0191      0.66738354
       7892.9912      0.58424299
       7893.9633      0.41146377
       7894.9354      0.60342592
       7895.9074      0.63067711
       7896.8795      0.48062195
       7897.8516      0.71479535
       7898.8237      0.54065392
       7899.7958      0.57660442
       7900.7679      0.67122674
       7901.7399      0.65329630
       7902.7120      0.41900670
       7903.6841      0.84763864
       7904.6562      0.28025578
       7905.6283      0.69518938
       7906.6004      0.46174946
       7907.5724      0.67531772
       7908.5445      0.45000319
       7909.5166      0.58632531
       7910.4887      0.39271725
       7911.4608      0.48031375
       7912.4328      0.57534357
       7913.4049      0.56633329
       7914.3770      0.77879180
       7915.3491      0.49027034
       7916.3212      0.40352075
       7917.2933      0.37033028
       7918.2653      0.46799975
       7919.2374      0.57212698
       7920.2095      0.54703934
       7921.1816      0.69068793
       7922.1537      0.49167373
       7923.1258      0.48400333
       7924.0978      0.55661526
       7925.0699      0.49093454
       7926.0420      0.59933688
       7927.0141      0.42990133
       7927.9862      0.63792577
       7928.9583      0.39747375
       7929.9303      0.54514499
       7930.9024      0.58709587
       7931.8745      0.26119544
       7932.8466      0.32188871
       7933.8187      0.63075091
       7934.7907      0.52808699
       7935.7628      0.73442954
       7936.7349      0.71120015
       7937.7070      0.46830795
       7938.6791      0.54995774
       7939.6512      0.49650445
       7940.6232      0.60471860
       7941.5953      0.53618444
       7942.5674      0.46390402
       7943.5395      0.59100193
       7944.5116      0.54271950
       7945.4837      0.53449454
       7946.4557      0.30397249
       7947.4278      0.43080939
       7948.3999      0.34551005
       7949.3720      0.27195208
       7950.3441      0.47125788
       7951.3161      0.55996148
       7952.2882      0.47439375
       7953.2603      0.53462888
       7954.2324      0.54452654
       7955.2045      0.44725833
       7956.1766      0.40335901
       7957.1486      0.62511683
       7958.1207      0.58620905
       7959.0928      0.71956032
       7960.0649      0.77811858
       7961.0370      0.69320345
       7962.0091      0.61371330
       7962.9811      0.49850499
       7963.9532      0.52476450
       7964.9253      0.43404648
       7965.8974      0.39566035
       7966.8695      0.50138280
       7967.8416      0.63783350
       7968.8136      0.46812810
       7969.7857      0.45651815
       7970.7578      0.44836984
       7971.7299      0.41571680
       7972.7020      0.52102541
       7973.6740      0.51790040
       7974.6461      0.46040274
       7975.6182      0.56797402
       7976.5903      0.55056499
       7977.5624      0.43084273
       7978.5345      0.46449050
       7979.5065      0.59485991
       7980.4786      0.49001804
       7981.4507      0.51396576
       7982.4228      0.60791485
       7983.3949      0.45627007
       7984.3670      0.47899500
       7985.3390      0.50018237
       7986.3111      0.47953790
       7987.2832      0.57251984
       7988.2553      0.31288241
       7989.2274     0.025939484
       7990.1995      0.43627700
       7991.1715      0.21219236
       7992.1436      0.69006834
       7993.1157      0.99936489
       7994.0878       1.3098978
       7995.0599      0.19529538
       7996.0319    -0.046635594
       7997.0040    -0.026269740
       7997.9761     0.088734220
       7998.9482      0.12474994
       7999.9203      0.18164922
       8000.8924      0.44078679
       8001.8644      0.56608876
       8002.8365      0.50252346
       8003.8086      0.52755180
       8004.7807      0.58933142
       8005.7528      0.56611019
       8006.7249      0.41632160
       8007.6969      0.75998966
       8008.6690      0.45269914
       8009.6411      0.49433736
       8010.6132      0.43276267
       8011.5853      0.67221787
       8012.5574      0.64201936
       8013.5294      0.46756211
       8014.5015      0.68686928
       8015.4736      0.54478083
       8016.4457      0.41926826
       8017.4178      0.54312625
       8018.3898      0.40674393
       8019.3619      0.45168377
       8020.3340      0.50289441
       8021.3061      0.49659311
       8022.2782      0.56056989
       8023.2503      0.71170552
       8024.2223      0.61335580
       8025.1944      0.56896292
       8026.1665      0.52399951
       8027.1386      0.61353275
       8028.1107      0.51312769
       8029.0828      0.63150156
       8030.0548      0.58410086
       8031.0269      0.47235095
       8031.9990      0.46461156
       8032.9711      0.50475824
       8033.9432      0.58435718
       8034.9153      0.40011390
       8035.8873      0.38047636
       8036.8594      0.60024761
       8037.8315      0.55990368
       8038.8036      0.45578833
       8039.7757      0.44511452
       8040.7477      0.65216883
       8041.7198      0.39014126
       8042.6919      0.42383850
       8043.6640      0.66804618
       8044.6361      0.45037719
       8045.6082      0.51490503
       8046.5802      0.51150086
       8047.5523      0.57672762
       8048.5244      0.59260516
       8049.4965      0.63607274
       8050.4686      0.47025215
       8051.4407      0.64317617
       8052.4127      0.49073134
       8053.3848      0.44201183
       8054.3569      0.31250364
       8055.3290      0.62369898
       8056.3011      0.73461279
       8057.2732      0.47582663
       8058.2452      0.87812789
       8059.2173     0.076286750
       8060.1894      0.55945592
       8061.1615      0.60711028
       8062.1336      0.59649429
       8063.1056      0.48131231
       8064.0777      0.60373289
       8065.0498      0.64627189
       8066.0219      0.54671127
       8066.9940      0.49709447
       8067.9661      0.43293969
       8068.9381      0.50701993
       8069.9102      0.70476967
       8070.8823      0.58847650
       8071.8544      0.46825220
       8072.8265      0.47770423
       8073.7986      0.22490552
       8074.7706      0.36933967
       8075.7427      0.99164663
       8076.7148      0.84195075
       8077.6869      0.75840353
       8078.6590      0.44331556
       8079.6310      0.54949765
       8080.6031      0.49061333
       8081.5752      0.62140089
       8082.5473      0.54237480
       8083.5194      0.54779087
       8084.4915      0.49090219
       8085.4635      0.46360779
       8086.4356      0.51769810
       8087.4077      0.47338795
       8088.3798      0.47395664
       8089.3519      0.45005568
       8090.3240      0.84241551
       8091.2960      0.55996555
       8092.2681      0.34049862
       8093.2402      0.57060782
       8094.2123      0.59464818
       8095.1844      0.54582504
       8096.1565      0.55625216
       8097.1285      0.45264020
       8098.1006      0.54836786
       8099.0727      0.53948965
       8100.0448      0.55921936
       8101.0169      0.53831354
       8101.9889      0.59416976
       8102.9610      0.52004507
       8103.9331      0.49074999
       8104.9052      0.57678654
       8105.8773      0.70045012
       8106.8494      0.64946174
       8107.8214      0.51307148
       8108.7935      0.54408498
       8109.7656      0.54366876
       8110.7377      0.46015331
       8111.7098      0.75248832
       8112.6819      0.62110023
       8113.6539      0.31910501
       8114.6260      0.59727806
       8115.5981      0.39961572
       8116.5702      0.69648878
       8117.5423      0.75266754
       8118.5144      0.38107660
       8119.4864      0.63701254
       8120.4585      0.60046045
       8121.4306      0.34839372
       8122.4027      0.47591727
       8123.3748      0.34052317
       8124.3468      0.62691753
       8125.3189      0.40351429
       8126.2910      0.52831486
       8127.2631      0.35501460
       8128.2352      0.83974767
       8129.2073       1.0103894
       8130.1793       1.0374385
       8131.1514      0.54268240
       8132.1235      0.52402783
       8133.0956      0.76473436
       8134.0677      0.52213159
       8135.0398      0.37915209
       8136.0118      0.40459405
       8136.9839      0.44681390
       8137.9560      0.55540675
       8138.9281      0.60238366
       8139.9002      0.61315237
       8140.8723      0.41308287
       8141.8443      0.59299631
       8142.8164      0.49476572
       8143.7885      0.52607142
       8144.7606      0.60375715
       8145.7327      0.49465180
       8146.7047      0.63364455
       8147.6768      0.47183727
       8148.6489      0.53225166
       8149.6210      0.65132908
       8150.5931      0.59356323
       8151.5652      0.47982145
       8152.5372      0.53663001
       8153.5093      0.64249601
       8154.4814      0.51294206
       8155.4535      0.54260687
       8156.4256      0.54531471
       8157.3977      0.60091757
       8158.3697      0.62600241
       8159.3418      0.74190110
       8160.3139      0.48288820
       8161.2860      0.55118362
       8162.2581      0.44454015
       8163.2302      0.58137090
       8164.2022      0.63204671
       8165.1743      0.56356697
       8166.1464      0.63290349
       8167.1185      0.58299948
       8168.0906      0.54846261
       8169.0626      0.45881483
       8170.0347      0.58855608
       8171.0068      0.17223080
       8171.9789      0.38137534
       8172.9510      0.96123224
       8173.9231      0.53451559
       8174.8951      0.59936965
       8175.8672      0.68084850
       8176.8393      0.54527751
       8177.8114      0.55791775
       8178.7835      0.62889136
       8179.7556      0.31738139
       8180.7276      0.63899754
       8181.6997      0.56467995
       8182.6718      0.44238189
       8183.6439      0.58541499
       8184.6160      0.60947688
       8185.5880      0.69337051
       8186.5601      0.62820056
       8187.5322      0.62088109
       8188.5043      0.61176162
       8189.4764      0.50309583
       8190.4485      0.54151463
       8191.4205      0.57689757
       8192.3926      0.45435355
       8193.3647      0.50334270
       8194.3368      0.66566484
       8195.3089      0.60094706
       8196.2810      0.52856237
       8197.2530      0.77034628
       8198.2251      0.59095775
       8199.1972      0.57530863
       8200.1693      0.62612622
       8201.1414      0.63814865
       8202.1135      0.71863377
       8203.0855      0.59891362
       8204.0576      0.62066449
       8205.0297      0.57885529
       8206.0018      0.67102134
       8206.9739      0.58961644
       8207.9459      0.56186451
       8208.9180      0.52647237
       8209.8901      0.71226189
       8210.8622      0.60704530
       8211.8343      0.68807381
       8212.8064      0.61654943
       8213.7784      0.87223900
       8214.7505      0.56120927
       8215.7226      0.49495952
       8216.6947      0.56982611
       8217.6668      0.89624836
       8218.6389      0.64528255
       8219.6109      0.54751830
       8220.5830      0.74122913
       8221.5551      0.71838970
       8222.5272      0.59467818
       8223.4993      0.64917867
       8224.4714      0.65600065
       8225.4434      0.76562662
       8226.4155      0.75208227
       8227.3876      0.59967561
       8228.3597      0.19740835
       8229.3318      0.73643581
       8230.3038      0.88048204
       8231.2759      0.70362580
       8232.2480      0.72271243
       8233.2201      0.70973401
       8234.1922      0.63341196
       8235.1643      0.85449998
       8236.1363      0.55516605
       8237.1084      0.64000395
       8238.0805      0.56424331
       8239.0526      0.67933125
       8240.0247      0.84331079
       8240.9968      0.72034386
       8241.9688      0.46528428
       8242.9409      0.61663539
       8243.9130      0.78992416
       8244.8851      0.42907209
       8245.8572      0.60860607
       8246.8293      0.43998754
       8247.8013      0.80830086
       8248.7734      0.70847805
       8249.7455      0.63773654
       8250.7176      0.64344842
       8251.6897      0.65674924
       8252.6617      0.52936260
       8253.6338      0.55735731
       8254.6059      0.73387723
       8255.5780      0.56713304
       8256.5501      0.52974226
       8257.5222      0.67527530
       8258.4942      0.69642147
       8259.4663      0.49742058
       8260.4384      0.77308704
       8261.4105      0.96930691
       8262.3826      0.80544078
       8263.3547      0.72385959
       8264.3267       1.0515749
       8265.2988      0.94518242
       8266.2709      0.92318789
       8267.2430      0.69698125
       8268.2151      0.88629572
       8269.1872      0.72011084
       8270.1592      0.57402100
       8271.1313      0.64809977
       8272.1034      0.81404904
       8273.0755      0.80704671
       8274.0476      0.75122858
       8275.0196      0.74388877
       8275.9917      0.71125462
       8276.9638      0.58885605
       8277.9359      0.71604259
       8278.9080      0.72607892
