# wavelength flux
       1635.3523     0.091742833
       1635.9141     0.043646643
       1636.4760     0.065139378
       1637.0378     0.053357086
       1637.5997     0.058106330
       1638.1616     0.047207181
       1638.7234      0.10014931
       1639.2853      0.11827418
       1639.8471    0.0024093917
       1640.4090     0.077254417
       1640.9708     0.030392825
       1641.5327     0.032849203
       1642.0945     0.025890904
       1642.6564     0.097226794
       1643.2183      0.10406353
       1643.7801   -0.0026972652
       1644.3420    -0.012214322
       1644.9038     0.032338382
       1645.4657     0.057566506
       1646.0275      0.16898279
       1646.5894     0.056034955
       1647.1513     0.053836926
       1647.7131     0.072207828
       1648.2750     0.019688107
       1648.8368      0.12661241
       1649.3987     0.042646407
       1649.9605     0.023231335
       1650.5224     0.088110611
       1651.0842     0.095437612
       1651.6461     0.063664212
       1652.2080     0.079946503
       1652.7698     0.030829575
       1653.3317     0.039652241
       1653.8935     0.068818176
       1654.4554    0.0083324712
       1655.0172     0.055845864
       1655.5791     0.017536027
       1656.1410     0.043254093
       1656.7028     0.034626270
       1657.2647     0.096224697
       1657.8265   -0.0030091541
       1658.3884     0.023053260
       1658.9502     0.062522131
       1659.5121     0.039032877
       1660.0739    -0.029447984
       1660.6358     0.040099777
       1661.1977     0.065211241
       1661.7595     0.089426551
       1662.3214     0.036106909
       1662.8832      0.10593479
       1663.4451     0.036413647
       1664.0069     0.022793341
       1664.5688     0.063833894
       1665.1307     0.047582364
       1665.6925     0.090255461
       1666.2544     0.041482164
       1666.8162     0.076483554
       1667.3781     0.059056150
       1667.9399     0.056009100
       1668.5018   -0.0092956333
       1669.0636     0.059071031
       1669.6255     0.032342382
       1670.1874     0.019439052
       1670.7492     0.045100772
       1671.3111      0.10937765
       1671.8729     0.080199781
       1672.4348     0.079104803
       1672.9966     0.039113056
       1673.5585     0.052876361
       1674.1204     0.033960721
       1674.6822     0.036325661
       1675.2441     0.012732191
       1675.8059     0.053798466
       1676.3678    0.0090606175
       1676.9296     0.045930416
       1677.4915     0.093062512
       1678.0533      0.10895639
       1678.6152     0.076496836
       1679.1771     0.066506200
       1679.7389   -0.0023660464
       1680.3008     0.025445834
       1680.8626    -0.014544027
       1681.4245     0.066758936
       1681.9863     0.011361860
       1682.5482     0.031529328
       1683.1101     0.097894484
       1683.6719     0.070418695
       1684.2338     0.073609695
       1684.7956     0.070258689
       1685.3575      0.11509350
       1685.9193     0.028280499
       1686.4812     0.034233267
       1687.0430     0.047287090
       1687.6049     0.031918479
       1688.1668     0.047589498
       1688.7286     0.028292910
       1689.2905     0.097770870
       1689.8523     0.075703472
       1690.4142     0.058639908
       1690.9760     0.013935538
       1691.5379     0.010718451
       1692.0998    0.0030374345
       1692.6616    -0.015293937
       1693.2235     0.076613324
       1693.7853     0.090965970
       1694.3472      0.12845806
       1694.9090     0.066883691
       1695.4709     0.075451045
       1696.0327     0.043193103
       1696.5946    0.0047311961
       1697.1565    -0.019374466
       1697.7183    0.0019144492
       1698.2802     0.054751990
       1698.8420     0.060200540
       1699.4039     0.067103895
       1699.9657     0.051859084
       1700.5276     0.026640494
       1701.0895     0.036967262
       1701.6513     0.025625510
       1702.2132     0.099096779
       1702.7750     0.024957311
       1703.3369    0.0074637608
       1703.8987     0.056538814
       1704.4606     0.026420896
       1705.0224     0.084523920
       1705.5843     0.032371931
       1706.1462     0.022228319
       1706.7080     0.074524249
       1707.2699     0.071682371
       1707.8317     0.072313353
       1708.3936     0.053804700
       1708.9554     0.047944848
       1709.5173     0.025634847
       1710.0791     0.082697838
       1710.6410   -0.0034744987
       1711.2029     0.020473665
       1711.7647     0.070278011
       1712.3266     0.047235311
       1712.8884     0.048075002
       1713.4503     0.076537139
       1714.0121      0.11150621
       1714.5740     0.046285386
       1715.1359     0.020651726
       1715.6977    0.0093872170
       1716.2596     0.015697250
       1716.8214     0.039005331
       1717.3833     0.057986319
       1717.9451     0.064265018
       1718.5070     0.020445813
       1719.0688     0.034803993
       1719.6307      0.10503582
       1720.1926     0.028281811
       1720.7544     0.038556111
       1721.3163     0.042555744
       1721.8781     0.068262425
       1722.4400     0.019011455
       1723.0018     0.030699510
       1723.5637      0.10099074
       1724.1256     0.038280929
       1724.6874     0.015632182
       1725.2493     0.036757696
       1725.8111      0.10031540
       1726.3730     0.065227715
       1726.9348     0.024432930
       1727.4967   9.1539767e-05
       1728.0585     0.036280066
       1728.6204     0.052950874
       1729.1823     0.043184355
       1729.7441     0.040020682
       1730.3060     0.037371472
       1730.8678     0.036263974
       1731.4297     0.032151344
       1731.9915     0.027110071
       1732.5534     0.038292513
       1733.1153     0.079662872
       1733.6771     0.029341213
       1734.2390     0.068733167
       1734.8008     0.095834686
       1735.3627     0.029380787
       1735.9245     0.082838321
       1736.4864     0.056829911
       1737.0482     0.082201588
       1737.6101     0.042980579
       1738.1720     0.046655148
       1738.7338     0.022225916
       1739.2957     0.083974014
       1739.8575     0.013326105
       1740.4194     0.049411944
       1740.9812   -0.0073986850
       1741.5431     0.040993330
       1742.1050     0.031642186
       1742.6668     0.079836931
       1743.2287     0.059740392
       1743.7905     0.043799291
       1744.3524     0.039268277
       1744.9142     0.034551893
       1745.4761      0.10357739
       1746.0379     0.071298503
       1746.5998     0.051398146
       1747.1617     0.088167397
       1747.7235     0.081124737
       1748.2854     0.045937200
       1748.8472     0.051760546
       1749.4091     0.089042630
       1749.9709     0.078592436
       1750.5328     0.058636352
       1751.0947     0.063314431
       1751.6565     0.078049984
       1752.2184     0.016899639
       1752.7802     0.049903155
       1753.3421     0.052435018
       1753.9039     0.018886048
       1754.4658     0.071019722
       1755.0276     0.017894941
       1755.5895     0.061356209
       1756.1514    0.0097188612
       1756.7132     0.055631122
       1757.2751     0.024228528
       1757.8369     0.022417944
       1758.3988   0.00070539800
       1758.9606     0.083942694
       1759.5225     0.089919551
       1760.0844     0.062468333
       1760.6462     0.069604991
       1761.2081     0.069666137
       1761.7699     0.043478480
       1762.3318     0.062731418
       1762.8936     0.084770070
       1763.4555     0.071458799
       1764.0173     0.096801309
       1764.5792     0.068714915
       1765.1411     0.041123777
       1765.7029     0.045403533
       1766.2648    0.0081746932
       1766.8266     0.064364274
       1767.3885     0.021647813
       1767.9503     0.026145623
       1768.5122     0.049554378
       1769.0740     0.073329189
       1769.6359    0.0067540078
       1770.1978     0.051369750
       1770.7596     0.025598399
       1771.3215     0.039098310
       1771.8833     0.035822220
       1772.4452     0.078583911
       1773.0070     0.012413943
       1773.5689     0.052354468
       1774.1308     0.088974615
       1774.6926     0.070255753
       1775.2545     0.020988598
       1775.8163     0.038202953
       1776.3782     0.025084204
       1776.9400     0.039606456
       1777.5019     0.076428534
       1778.0637     0.058255481
       1778.6256     0.071450889
       1779.1875   0.00020037330
       1779.7493     0.047213771
       1780.3112     0.087681160
       1780.8730     0.043429368
       1781.4349     0.055411749
       1781.9967     0.045369933
       1782.5586     0.063433519
       1783.1205     0.073584783
       1783.6823     0.073732035
       1784.2442     0.015922240
       1784.8060     0.051960377
       1785.3679     0.046345320
       1785.9297     0.071479646
       1786.4916     0.042142124
       1787.0534     0.083817583
       1787.6153     0.047579034
       1788.1772     0.092152870
       1788.7390     0.046479430
       1789.3009     0.055477375
       1789.8627     0.048245305
       1790.4246     0.080542008
       1790.9864     0.039123612
       1791.5483     0.049454575
       1792.1102     0.075769638
       1792.6720     0.030267157
       1793.2339     0.079791032
       1793.7957     0.093094861
       1794.3576     0.059384291
       1794.9194     0.071731392
       1795.4813      0.11558555
       1796.0431     0.048965061
       1796.6050     0.074919467
       1797.1669     0.083308073
       1797.7287     0.078358237
       1798.2906     0.067117670
       1798.8524     0.061946491
       1799.4143     0.034991855
       1799.9761     0.089627166
       1800.5380     0.094886053
       1801.0999     0.065876426
       1801.6617     0.066426153
       1802.2236     0.080584769
       1802.7854     0.031264533
       1803.3473     0.010217086
       1803.9091     0.072185124
       1804.4710     0.085059204
       1805.0328      0.12082633
       1805.5947     0.048995318
       1806.1566     0.048035341
       1806.7184     0.068801348
       1807.2803     0.052326219
       1807.8421     0.013942617
       1808.4040     0.049859628
       1808.9658     0.046179007
       1809.5277     0.060715888
       1810.0896     0.043666657
       1810.6514     0.036914236
       1811.2133     0.044183508
       1811.7751     0.040195331
       1812.3370     0.035900476
       1812.8988     0.065733194
       1813.4607     0.078819456
       1814.0225     0.050390435
       1814.5844     0.059419281
       1815.1463     0.082650033
       1815.7081     0.041760559
       1816.2700     0.040430502
       1816.8318     0.081793504
       1817.3937     0.078167197
       1817.9555     0.066298187
       1818.5174     0.048314441
       1819.0793     0.073665347
       1819.6411     0.021443625
       1820.2030     0.055726800
       1820.7648     0.063364160
       1821.3267     0.069411399
       1821.8885     0.062967205
       1822.4504     0.077359920
       1823.0122     0.069189305
       1823.5741     0.053412397
       1824.1360     0.067796929
       1824.6978     0.045641343
       1825.2597     0.054223201
       1825.8215     0.052806678
       1826.3834     0.046348622
       1826.9452     0.049945107
       1827.5071     0.078246915
       1828.0690     0.058958315
       1828.6308     0.087832662
       1829.1927     0.065937654
       1829.7545     0.069531021
       1830.3164     0.051595573
       1830.8782     0.071048046
       1831.4401     0.092709668
       1832.0019     0.035796561
       1832.5638     0.089448061
       1833.1257     0.081003742
       1833.6875      0.12632289
       1834.2494     0.081357706
       1834.8112     0.060319249
       1835.3731     0.082467850
       1835.9349     0.093202761
       1836.4968     0.080611843
       1837.0586     0.064319574
       1837.6205     0.063618627
       1838.1824     0.087450131
       1838.7442     0.073311153
       1839.3061     0.087537512
       1839.8679     0.062427621
       1840.4298      0.10759210
       1840.9916     0.020152840
       1841.5535     0.050956588
       1842.1154     0.057574891
       1842.6772     0.053508702
       1843.2391     0.060479259
       1843.8009     0.083478191
       1844.3628     0.046195360
       1844.9246     0.084477601
       1845.4865     0.035043964
       1846.0483     0.060645554
       1846.6102     0.045090199
       1847.1721     0.059665864
       1847.7339     0.091916159
       1848.2958     0.044546343
       1848.8576     0.060290894
       1849.4195     0.098759456
       1849.9813     0.058133863
       1850.5432     0.032300167
       1851.1051     0.031605960
       1851.6669     0.050687443
       1852.2288     0.072554128
       1852.7906     0.031197845
       1853.3525    0.0058422227
       1853.9143     0.026931669
       1854.4762     0.033401445
       1855.0380     0.038043816
       1855.5999     0.059941646
       1856.1618     0.030605443
       1856.7236     0.083207510
       1857.2855     0.051401632
       1857.8473     0.045253784
       1858.4092     0.082066391
       1858.9710     0.077280314
       1859.5329     0.032790462
       1860.0948     0.037883343
       1860.6566     0.040115879
       1861.2185     0.056779213
       1861.7803     0.048810303
       1862.3422     0.077151131
       1862.9040     0.061662529
       1863.4659     0.078654879
       1864.0277     0.043007808
       1864.5896     0.044748431
       1865.1515     0.061184142
       1865.7133     0.040707126
       1866.2752     0.085978494
       1866.8370     0.040750940
       1867.3989     0.032116080
       1867.9607     0.075310423
       1868.5226     0.082361126
       1869.0845     0.058989224
       1869.6463     0.077203072
       1870.2082     0.047713218
       1870.7700      0.10190486
       1871.3319     0.089737807
       1871.8937     0.040837394
       1872.4556     0.049646937
       1873.0174     0.036989728
       1873.5793     0.082887572
       1874.1412     0.068601871
       1874.7030     0.029011094
       1875.2649     0.080278637
       1875.8267     0.077343880
       1876.3886     0.052895129
       1876.9504     0.057558206
       1877.5123     0.098374466
       1878.0742     0.029525580
       1878.6360     0.046136920
       1879.1979     0.048084840
       1879.7597     0.071340784
       1880.3216     0.082113230
       1880.8834     0.050441327
       1881.4453     0.082570513
       1882.0071     0.077784109
       1882.5690     0.095656821
       1883.1309      0.14104868
       1883.6927      0.11290392
       1884.2546      0.10069530
       1884.8164      0.10919384
       1885.3783     0.065040858
       1885.9401     0.089853881
       1886.5020     0.035447773
       1887.0639     0.043088002
       1887.6257     0.094004508
       1888.1876     0.030564254
       1888.7494     0.048983738
       1889.3113     0.072723282
       1889.8731     0.055564222
       1890.4350     0.087326719
       1890.9968     0.049622852
       1891.5587     0.083724067
       1892.1206     0.029697192
       1892.6824     0.072976599
       1893.2443     0.031863481
       1893.8061     0.072281834
       1894.3680     0.085155801
       1894.9298     0.064772617
       1895.4917     0.060931111
       1896.0536     0.066154435
       1896.6154     0.078638553
       1897.1773     0.056834274
       1897.7391     0.062680128
       1898.3010     0.053451551
       1898.8628     0.040314295
       1899.4247     0.059396696
       1899.9865     0.066617642
       1900.5484     0.049723788
       1901.1103     0.045953893
       1901.6721     0.078615974
       1902.2340     0.083420561
       1902.7958     0.058469457
       1903.3577     0.059778932
       1903.9195     0.093455541
       1904.4814     0.040733834
       1905.0432     0.051568814
       1905.6051     0.068030707
       1906.1670     0.066717843
       1906.7288     0.055478748
       1907.2907     0.052674184
       1907.8525    0.0015603536
       1908.4144     0.049567355
       1908.9762     0.073734899
       1909.5381     0.060059978
       1910.1000     0.093614182
       1910.6618     0.063747360
       1911.2237     0.061050953
       1911.7855     0.072461756
       1912.3474     0.083008885
       1912.9092     0.096951008
       1913.4711     0.072908525
       1914.0329     0.054419902
       1914.5948     0.071900196
       1915.1567     0.021643411
       1915.7185     0.080703509
       1916.2804     0.066417003
       1916.8422     0.044878917
       1917.4041      0.10837199
       1917.9659     0.094519774
       1918.5278     0.067370026
       1919.0897     0.075266151
       1919.6515     0.060365264
       1920.2134      0.10376569
       1920.7752     0.050292718
       1921.3371     0.058060852
       1921.8989     0.080320917
       1922.4608     0.058667460
       1923.0226     0.050916472
       1923.5845     0.097330208
       1924.1464     0.040306416
       1924.7082     0.052731542
       1925.2701     0.065573553
       1925.8319     0.073060837
       1926.3938     0.051445359
       1926.9556     0.042542702
       1927.5175     0.061853903
       1928.0794     0.080277267
       1928.6412     0.093354089
       1929.2031     0.050158101
       1929.7649     0.051563059
       1930.3268     0.063397082
       1930.8886     0.092714828
       1931.4505     0.070093964
       1932.0123     0.047834538
       1932.5742     0.056969379
       1933.1361     0.072901520
       1933.6979     0.091671696
       1934.2598     0.075538704
       1934.8216      0.12142266
       1935.3835     0.069042427
       1935.9453      0.11741968
       1936.5072     0.087722697
       1937.0691     0.080409417
       1937.6309     0.028777426
       1938.1928     0.073966101
       1938.7546     0.071210690
       1939.3165     0.093346653
       1939.8783     0.087869012
       1940.4402     0.073602569
       1941.0020     0.087060086
       1941.5639      0.10339252
       1942.1258     0.056198004
       1942.6876     0.054631235
       1943.2495     0.057349418
       1943.8113      0.10415788
       1944.3732     0.022180592
       1944.9350     0.083877699
       1945.4969     0.073612481
       1946.0588     0.045405568
       1946.6206     0.072317894
       1947.1825     0.053679717
       1947.7443     0.048538846
       1948.3062     0.078837073
       1948.8680     0.073702714
       1949.4299     0.052580215
       1949.9917     0.072496548
       1950.5536     0.087902440
       1951.1155     0.065775638
       1951.6773     0.048405309
       1952.2392     0.052470243
       1952.8010     0.049293192
       1953.3629     0.070213291
       1953.9247     0.059094363
       1954.4866     0.064444787
       1955.0485     0.046305987
       1955.6103     0.069361746
       1956.1722     0.057333585
       1956.7340     0.064475783
       1957.2959     0.066388735
       1957.8577     0.078919607
       1958.4196     0.046647176
       1958.9814     0.059962262
       1959.5433     0.054704866
       1960.1052     0.037054490
       1960.6670     0.054203876
       1961.2289     0.050118973
       1961.7907     0.066095012
       1962.3526     0.054256754
       1962.9144     0.095595526
       1963.4763     0.065233654
       1964.0382     0.069901175
       1964.6000     0.054525351
       1965.1619     0.057238662
       1965.7237     0.074669942
       1966.2856     0.074062381
       1966.8474     0.031162350
       1967.4093     0.048872363
       1967.9711     0.047630900
       1968.5330     0.051297395
       1969.0949     0.073347176
       1969.6567     0.052709747
       1970.2186     0.071030680
       1970.7804     0.074016529
       1971.3423     0.077184649
       1971.9041     0.036770083
       1972.4660     0.061290449
       1973.0278     0.079513726
       1973.5897     0.063432745
       1974.1516     0.080877591
       1974.7134     0.053840395
       1975.2753     0.055205339
       1975.8371     0.057681534
       1976.3990     0.070457834
       1976.9608     0.049029479
       1977.5227     0.075870634
       1978.0846     0.090189204
       1978.6464     0.082975083
       1979.2083     0.021049747
       1979.7701     0.083101643
       1980.3320      0.10209839
       1980.8938     0.079782254
       1981.4557     0.044989027
       1982.0175     0.050385086
       1982.5794     0.036547078
       1983.1413     0.073827277
       1983.7031     0.069770907
       1984.2650     0.065955715
       1984.8268     0.035008141
       1985.3887     0.054313774
       1985.9505     0.073477310
       1986.5124     0.066884325
       1987.0743     0.052382688
       1987.6361     0.090536973
       1988.1980     0.065853865
       1988.7598     0.066090242
       1989.3217     0.046808102
       1989.8835     0.057628558
       1990.4454     0.077495134
       1991.0072     0.041638357
       1991.5691     0.071006573
       1992.1310     0.056906597
       1992.6928     0.046557681
       1993.2547     0.058904933
       1993.8165     0.046060939
       1994.3784     0.095103817
       1994.9402     0.047482174
       1995.5021     0.058657281
       1996.0640     0.023870409
       1996.6258     0.030626904
       1997.1877     0.064331804
       1997.7495     0.072841662
       1998.3114     0.055730917
       1998.8732     0.072240718
       1999.4351     0.034185922
       1999.9969     0.061418956
       2000.5588     0.083116917
       2001.1207     0.062078487
       2001.6825     0.054171908
       2002.2444     0.087698580
       2002.8062     0.045959041
       2003.3681     0.076760260
       2003.9299     0.041363586
       2004.4918     0.075490128
       2005.0537     0.027411576
       2005.6155     0.033527184
       2006.1774     0.070259297
       2006.7392     0.040271141
       2007.3011     0.052202875
       2007.8629     0.056755206
       2008.4248     0.041814731
       2008.9866     0.046696972
       2009.5485     0.060945914
       2010.1104     0.060718202
       2010.6722     0.032151737
       2011.2341     0.034779400
       2011.7959     0.047828777
       2012.3578     0.044981893
       2012.9196     0.076356714
       2013.4815     0.053187189
       2014.0434     0.060390961
       2014.6052     0.058866031
       2015.1671     0.037294972
       2015.7289     0.023591978
       2016.2908     0.042933941
       2016.8526     0.044395609
       2017.4145     0.067103100
       2017.9763     0.064593934
       2018.5382     0.072740064
       2019.1001     0.041883719
       2019.6619     0.060854942
       2020.2238     0.062706400
       2020.7856     0.056761532
       2021.3475     0.052132420
       2021.9093     0.058249438
       2022.4712     0.045569173
       2023.0331     0.055030327
       2023.5949     0.079731437
       2024.1568     0.074443603
       2024.7186      0.10786539
       2025.2805     0.071049476
       2025.8423     0.079455056
       2026.4042     0.080247438
       2026.9660     0.030093436
       2027.5279     0.066441677
       2028.0898     0.055089313
       2028.6516     0.035893594
       2029.2135     0.064925327
       2029.7753      0.10893431
       2030.3372      0.10123100
       2030.8990     0.055596360
       2031.4609     0.062696956
       2032.0227     0.053186259
       2032.5846     0.089616802
       2033.1465     0.050930410
       2033.7083     0.063939217
       2034.2702     0.058036029
       2034.8320     0.060843410
       2035.3939     0.053583464
       2035.9557     0.037591550
       2036.5176     0.035771643
       2037.0795     0.060116341
       2037.6413     0.040441563
       2038.2032     0.072564603
       2038.7650     0.069377261
       2039.3269     0.052697439
       2039.8887     0.043817396
       2040.4506     0.071166752
       2041.0124     0.060555394
       2041.5743     0.057024663
       2042.1362     0.051703240
       2042.6980     0.053090762
       2043.2599     0.041167484
       2043.8217     0.050854708
       2044.3836     0.069639971
       2044.9454     0.044407060
       2045.5073     0.050436390
       2046.0692     0.094945595
       2046.6310     0.077840919
       2047.1929     0.054829656
       2047.7547     0.056582574
       2048.3166     0.069370476
       2048.8784     0.057826250
       2049.4403     0.072166555
       2050.0021     0.061675576
       2050.5640     0.065691176
       2051.1259     0.051895801
       2051.6877     0.043791931
       2052.2496     0.036597600
       2052.8114     0.045759526
       2053.3733     0.063529744
       2053.9351     0.076500911
       2054.4970     0.057929726
       2055.0589     0.073352302
       2055.6207     0.049411972
       2056.1826     0.052080961
       2056.7444     0.069216813
       2057.3063     0.050538580
       2057.8681     0.021951538
       2058.4300     0.063319670
       2058.9918     0.044243909
       2059.5537     0.035808123
       2060.1156     0.056032506
       2060.6774     0.033221139
       2061.2393     0.056560882
       2061.8011     0.051853769
       2062.3630     0.058716852
       2062.9248     0.035045774
       2063.4867     0.052902204
       2064.0486     0.043389249
       2064.6104     0.061463855
       2065.1723     0.079535083
       2065.7341     0.031626856
       2066.2960     0.040447852
       2066.8578     0.040960335
       2067.4197     0.077453960
       2067.9815     0.066214406
       2068.5434     0.048498944
       2069.1053     0.063523227
       2069.6671     0.028770339
       2070.2290     0.044746806
       2070.7908     0.060632185
       2071.3527     0.048327057
       2071.9145     0.038047292
       2072.4764     0.062817501
       2073.0383     0.059398008
       2073.6001     0.061843811
       2074.1620     0.041194443
       2074.7238     0.057194143
       2075.2857     0.058432517
       2075.8475     0.038542810
       2076.4094     0.047185104
       2076.9712     0.076050028
       2077.5331     0.073227048
       2078.0950     0.076673798
       2078.6568     0.042241488
       2079.2187     0.064422823
       2079.7805     0.037410639
       2080.3424     0.046570958
       2080.9042     0.079129388
       2081.4661     0.044477618
       2082.0280     0.062797303
       2082.5898     0.089979802
       2083.1517     0.075159670
       2083.7135     0.069846448
       2084.2754     0.069155757
       2084.8372     0.057563365
       2085.3991     0.089057052
       2085.9609     0.095772995
       2086.5228     0.066134509
       2087.0847     0.065022312
       2087.6465     0.097867648
       2088.2084     0.046211474
       2088.7702     0.044637025
       2089.3321     0.053436365
       2089.8939     0.052308383
       2090.4558     0.052079627
       2091.0177     0.069359153
       2091.5795     0.036760803
       2092.1414     0.068037816
       2092.7032     0.058951830
       2093.2651     0.074192067
       2093.8269     0.089401787
       2094.3888     0.065471684
       2094.9506     0.051903203
       2095.5125     0.074105179
       2096.0744     0.047767904
       2096.6362     0.047610763
       2097.1981     0.087899883
       2097.7599     0.040890741
       2098.3218     0.074078080
       2098.8836     0.063621976
       2099.4455     0.050622407
       2100.0073     0.045253166
       2100.5692     0.053962289
       2101.1311     0.077464880
       2101.6929     0.063470470
       2102.2548     0.053081296
       2102.8166     0.059355532
       2103.3785     0.074360654
       2103.9403     0.064560114
       2104.5022     0.043163552
       2105.0641      0.10861810
       2105.6259     0.066213014
       2106.1878     0.049341086
       2106.7496      0.11047862
       2107.3115     0.084782674
       2107.8733     0.090173607
       2108.4352     0.051756683
       2108.9970     0.046916657
       2109.5589     0.064032000
       2110.1208     0.054501608
       2110.6826     0.041914806
       2111.2445     0.053598791
       2111.8063     0.060902599
       2112.3682     0.048037009
       2112.9300     0.056525190
       2113.4919     0.085810830
       2114.0538     0.082856572
       2114.6156     0.070709590
       2115.1775     0.039768237
       2115.7393     0.069307432
       2116.3012     0.036862778
       2116.8630     0.070204448
       2117.4249     0.069036528
       2117.9867     0.087170612
       2118.5486     0.045658580
       2119.1105     0.050052826
       2119.6723     0.065129957
       2120.2342     0.082525805
       2120.7960     0.063538675
       2121.3579     0.054385151
       2121.9197     0.079791286
       2122.4816     0.074913955
       2123.0435     0.066581639
       2123.6053     0.032996171
       2124.1672     0.070509251
       2124.7290     0.040747631
       2125.2909     0.027951031
       2125.8527     0.071100943
       2126.4146     0.039107159
       2126.9764     0.058836442
       2127.5383     0.087635292
       2128.1002     0.049742530
       2128.6620     0.055897103
       2129.2239     0.030543468
       2129.7857     0.075652137
       2130.3476     0.085240680
       2130.9094     0.033393106
       2131.4713     0.090728180
       2132.0332     0.055111184
       2132.5950     0.071362848
       2133.1569     0.056631925
       2133.7187     0.086727266
       2134.2806     0.051395586
       2134.8424     0.044633661
       2135.4043     0.067519941
       2135.9661     0.053595166
       2136.5280     0.050682790
       2137.0899      0.10056659
       2137.6517     0.037540246
       2138.2136     0.091693937
       2138.7754     0.026808824
       2139.3373     0.064539130
       2139.8991     0.051444643
       2140.4610     0.055175150
       2141.0229     0.089035185
       2141.5847     0.022362014
       2142.1466     0.071761048
       2142.7084     0.030926056
       2143.2703     0.093142718
       2143.8321     0.040256378
       2144.3940     0.063654052
       2144.9558     0.088963338
       2145.5177     0.065211427
       2146.0796     0.088851542
       2146.6414     0.071631240
       2147.2033     0.054896169
       2147.7651     0.074290205
       2148.3270     0.020497866
       2148.8888     0.065732040
       2149.4507     0.058045176
       2150.0126     0.048336413
       2150.5744     0.050208536
       2151.1363     0.019059603
       2151.6981     0.054118281
       2152.2600     0.063264914
       2152.8218     0.056573834
       2153.3837     0.056264703
       2153.9455     0.076440948
       2154.5074     0.057475684
       2155.0693     0.048399117
       2155.6311     0.070720921
       2156.1930     0.063280179
       2156.7548     0.087908823
       2157.3167     0.045965230
       2157.8785     0.069937788
       2158.4404     0.076187858
       2159.0023      0.11241437
       2159.5641     0.063614226
       2160.1260     0.071981729
       2160.6878     0.054703039
       2161.2497     0.041334388
       2161.8115     0.053575466
       2162.3734     0.035620751
       2162.9352     0.067239990
       2163.4971     0.060066059
       2164.0590     0.019182000
       2164.6208     0.069251166
       2165.1827     0.058888688
       2165.7445     0.085070979
       2166.3064     0.034244886
       2166.8682     0.096190658
       2167.4301     0.077937660
       2167.9919     0.061846768
       2168.5538     0.069762759
       2169.1157     0.062083347
       2169.6775     0.050265428
       2170.2394     0.080268270
       2170.8012     0.074389026
       2171.3631     0.080886863
       2171.9249     0.071745612
       2172.4868     0.051243236
       2173.0487     0.079882081
       2173.6105     0.092846308
       2174.1724     0.044145295
       2174.7342     0.065839888
       2175.2961     0.064029576
       2175.8579     0.066969523
       2176.4198     0.042495118
       2176.9816     0.051778945
       2177.5435     0.026993884
       2178.1054     0.060964003
       2178.6672     0.058261637
       2179.2291     0.082945588
       2179.7909     0.057905642
       2180.3528     0.043187457
       2180.9146     0.050191755
       2181.4765     0.078203684
       2182.0384     0.062217952
       2182.6002     0.048012593
       2183.1621     0.026057195
       2183.7239     0.079254546
       2184.2858     0.044441322
       2184.8476     0.050189896
       2185.4095     0.044490544
       2185.9713     0.055132949
       2186.5332     0.045498114
       2187.0951     0.058122509
       2187.6569     0.034250429
       2188.2188     0.052397027
       2188.7806      0.11144839
       2189.3425     0.060481663
       2189.9043     0.051605420
       2190.4662     0.089823783
       2191.0281     0.065730329
       2191.5899     0.036544645
       2192.1518     0.044983863
       2192.7136     0.050061095
       2193.2755     0.059121165
       2193.8373     0.068610938
       2194.3992     0.065798788
       2194.9610     0.064091930
       2195.5229     0.017645910
       2196.0848     0.061368380
       2196.6466     0.048663776
       2197.2085     0.063447014
       2197.7703     0.043288322
       2198.3322     0.036162339
       2198.8940     0.057650709
       2199.4559     0.075076528
       2200.0178     0.058860784
       2200.5796     0.065558635
       2201.1415     0.075470134
       2201.7033     0.054070274
       2202.2652     0.078093724
       2202.8270     0.069954346
       2203.3889     0.044609813
       2203.9507     0.043304566
       2204.5126     0.074647105
       2205.0745     0.060460979
       2205.6363     0.060794136
       2206.1982     0.070411696
       2206.7600     0.066199583
       2207.3219     0.061923662
       2207.8837     0.048059798
       2208.4456     0.042690312
       2209.0075     0.064933974
       2209.5693     0.024551109
       2210.1312     0.035966737
       2210.6930     0.069061270
       2211.2549     0.072995791
       2211.8167     0.051882252
       2212.3786     0.044926700
       2212.9404     0.071245535
       2213.5023     0.027371264
       2214.0642     0.090353086
       2214.6260     0.070370798
       2215.1879     0.078653802
       2215.7497     0.054344725
       2216.3116     0.059867116
       2216.8734     0.039791947
       2217.4353     0.091397041
       2217.9972     0.063871976
       2218.5590     0.040166985
       2219.1209     0.069426844
       2219.6827     0.066611325
       2220.2446     0.033706033
       2220.8064     0.056173700
       2221.3683     0.062612804
       2221.9301     0.037543424
       2222.4920     0.037166287
       2223.0539     0.014514730
       2223.6157     0.042587563
       2224.1776     0.049457838
       2224.7394     0.064346480
       2225.3013     0.063808235
       2225.8631     0.083712153
       2226.4250     0.071902252
       2226.9869     0.053214212
       2227.5487     0.020591471
       2228.1106     0.067909407
       2228.6724     0.040152402
       2229.2343     0.044191563
       2229.7961     0.043671657
       2230.3580     0.078590734
       2230.9198     0.074127380
       2231.4817     0.058450216
       2232.0436     0.076653603
       2232.6054     0.050735209
       2233.1673     0.077318633
       2233.7291     0.055812757
       2234.2910     0.036968980
       2234.8528     0.057576539
       2235.4147     0.086009779
       2235.9765     0.069415243
       2236.5384     0.056910372
       2237.1003     0.068984527
       2237.6621     0.057300633
       2238.2240     0.065111440
       2238.7858     0.069537007
       2239.3477     0.024287701
       2239.9095     0.048776670
       2240.4714     0.046313467
       2241.0333     0.056428600
       2241.5951     0.066274060
       2242.1570     0.069278188
       2242.7188     0.083318910
       2243.2807     0.073933983
       2243.8425     0.045272337
       2244.4044     0.030519951
       2244.9662     0.044650580
       2245.5281     0.081569475
       2246.0900     0.075615264
       2246.6518     0.062023690
       2247.2137     0.058420264
       2247.7755     0.038601189
       2248.3374     0.044844070
       2248.8992     0.060899688
       2249.4611     0.061812265
       2250.0230     0.046877873
       2250.5848     0.084259400
       2251.1467     0.041658879
       2251.7085     0.036213588
       2252.2704     0.060771619
       2252.8322     0.094476293
       2253.3941     0.040038020
       2253.9559     0.040295775
       2254.5178     0.034311236
       2255.0797     0.053650464
       2255.6415     0.020974454
       2256.2034     0.085224249
       2256.7652     0.086145674
       2257.3271     0.072461555
       2257.8889     0.069786966
       2258.4508     0.058962046
       2259.0127     0.050978021
       2259.5745     0.083093447
       2260.1364     0.064121945
       2260.6982     0.064734026
       2261.2601     0.062821629
       2261.8219     0.053836393
       2262.3838     0.065645022
       2262.9456     0.058180446
       2263.5075     0.070470218
       2264.0694     0.025323885
       2264.6312     0.081700255
       2265.1931     0.031019069
       2265.7549     0.064159127
       2266.3168     0.057298697
       2266.8786     0.053338014
       2267.4405     0.046774286
       2268.0024     0.070554896
       2268.5642     0.082551227
       2269.1261     0.069436601
       2269.6879     0.075703896
       2270.2498     0.056523891
       2270.8116     0.051789355
       2271.3735     0.066575928
       2271.9353     0.071291513
       2272.4972     0.050038831
       2273.0591     0.059260544
       2273.6209     0.084862188
       2274.1828     0.093692388
       2274.7446     0.043921759
       2275.3065     0.054779478
       2275.8683     0.052372499
       2276.4302     0.064057359
       2276.9921     0.078349096
       2277.5539     0.063375660
       2278.1158     0.058637994
       2278.6776     0.030947444
       2279.2395     0.099805522
       2279.8013     0.028746508
       2280.3632     0.097380996
       2280.9250     0.036223613
       2281.4869     0.043658574
       2282.0488     0.068959878
       2282.6106     0.098266047
       2283.1725     0.062283103
       2283.7343     0.068556100
       2284.2962     0.080866487
       2284.8580     0.067087344
       2285.4199      0.11385898
       2285.9818     0.082266659
       2286.5436     0.058935488
       2287.1055     0.066614019
       2287.6673     0.050219267
       2288.2292     0.069117144
       2288.7910     0.053375796
       2289.3529     0.072631237
       2289.9147     0.053159074
       2290.4766     0.074618148
       2291.0385     0.058246988
       2291.6003     0.093409123
       2292.1622     0.043860849
       2292.7240     0.089106179
       2293.2859     0.062739709
       2293.8477     0.065963460
       2294.4096     0.058074327
       2294.9714     0.065594641
       2295.5333     0.058283505
       2296.0952    0.0073450342
       2296.6570     0.060642192
       2297.2189     0.087192315
       2297.7807     0.055764946
       2298.3426     0.071061292
       2298.9044     0.067064905
       2299.4663     0.093895951
       2300.0282     0.075484491
       2300.5900     0.073696524
       2301.1519     0.041473563
       2301.7137     0.055482336
       2302.2756     0.067906479
       2302.8374     0.052563660
       2303.3993     0.057397778
       2303.9611     0.033855972
       2304.5230     0.071143850
       2305.0849     0.055605111
       2305.6467     0.029046451
       2306.2086     0.026869872
       2306.7704      0.10750897
       2307.3323     0.034684001
       2307.8941     0.052015118
       2308.4560     0.045182217
       2309.0179     0.035713730
       2309.5797     0.043848420
       2310.1416     0.091833415
       2310.7034     0.041603373
       2311.2653     0.058336300
       2311.8271     0.088116236
       2312.3890     0.092277215
       2312.9508     0.065813672
       2313.5127    0.0082268965
       2314.0746      0.10045582
       2314.6364     0.069897994
       2315.1983     0.083761059
       2315.7601     0.064470053
       2316.3220     0.053344618
       2316.8838     0.089679899
       2317.4457     0.070293673
       2318.0076     0.089979042
       2318.5694     0.084233249
       2319.1313     0.059105784
       2319.6931     0.073656975
       2320.2550     0.062948047
       2320.8168     0.074105393
       2321.3787     0.042760695
       2321.9405     0.053495860
       2322.5024     0.056359399
       2323.0643     0.045941657
       2323.6261     0.058887680
       2324.1880     0.026984334
       2324.7498     0.059355282
       2325.3117     0.068087137
       2325.8735     0.060289179
       2326.4354     0.087047333
       2326.9973     0.068014461
       2327.5591     0.082307971
       2328.1210     0.024053720
       2328.6828     0.065279016
       2329.2447     0.063461103
       2329.8065     0.069557331
       2330.3684     0.092978804
       2330.9302     0.028385736
       2331.4921     0.069169034
       2332.0540     0.082670666
       2332.6158     0.088788446
       2333.1777      0.10840595
       2333.7395     0.070137916
       2334.3014     0.057788671
       2334.8632     0.066059582
       2335.4251     0.087460214
       2335.9870     0.061663815
       2336.5488     0.079587777
       2337.1107     0.082310274
       2337.6725     0.067483886
       2338.2344     0.067150502
       2338.7962      0.10840500
       2339.3581     0.041664354
       2339.9199     0.077044421
       2340.4818      0.12926064
       2341.0437     0.071345776
       2341.6055     0.053782041
       2342.1674     0.076566295
       2342.7292     0.074178037
       2343.2911   -0.0025513766
       2343.8529     0.021287518
       2344.4148     0.084453161
       2344.9767     0.058618965
       2345.5385     0.016784305
       2346.1004     0.013579457
       2346.6622     0.016887928
       2347.2241     0.020914066
       2347.7859     0.045826301
       2348.3478     0.035297897
       2348.9096     0.012424339
       2349.4715     0.087290610
       2350.0334     0.063377286
       2350.5952     0.048553869
       2351.1571      0.10621194
       2351.7189     0.075725369
       2352.2808     0.088172006
       2352.8426     0.031496940
       2353.4045     0.054257222
       2353.9664      0.10258039
       2354.5282     0.092069475
       2355.0901     0.046425186
       2355.6519     0.089143534
       2356.2138     0.081154961
       2356.7756     0.065202630
       2357.3375     0.030407206
       2357.8993     0.079052540
       2358.4612     0.090213613
       2359.0231     0.037034841
       2359.5849     0.021459679
       2360.1468     0.095878684
       2360.7086     0.053054680
       2361.2705     0.094950008
       2361.8323     0.050885766
       2362.3942     0.051273332
       2362.9560     0.083533752
       2363.5179     0.038793693
       2364.0798     0.055155760
       2364.6416     0.087358863
       2365.2035     0.063107667
       2365.7653     0.055438643
       2366.3272     0.070165442
       2366.8890     0.051537766
       2367.4509     0.048423347
       2368.0128     0.061359832
       2368.5746     0.060502359
       2369.1365     0.061187861
       2369.6983     0.060782334
       2370.2602     0.082316239
       2370.8220     0.094050997
       2371.3839     0.090982880
       2371.9457     0.048318265
       2372.5076     0.088908633
       2373.0695     0.052918863
       2373.6313     0.044910533
       2374.1932     0.058150858
       2374.7550     0.043416636
       2375.3169     0.035358759
       2375.8787     0.039660020
       2376.4406     0.061165129
       2377.0025     0.018246658
       2377.5643     0.050841433
       2378.1262     0.071721688
       2378.6880     0.036725623
       2379.2499     0.073012719
       2379.8117     0.078224811
       2380.3736     0.056332085
       2380.9354     0.047555226
       2381.4973     0.050310319
       2382.0592     0.074185705
       2382.6210     0.090264070
       2383.1829     0.060532363
       2383.7447     0.024766750
       2384.3066     0.041116274
       2384.8684     0.060408310
       2385.4303     0.042866654
       2385.9922     0.040712121
       2386.5540     0.065422740
       2387.1159     0.068430923
       2387.6777     0.091041180
       2388.2396     0.033657800
       2388.8014     0.066521515
       2389.3633     0.054804644
       2389.9251     0.082382433
       2390.4870     0.071682858
       2391.0489     0.018583074
       2391.6107      0.10263425
       2392.1726      0.11165822
       2392.7344     0.044587719
       2393.2963     0.064688450
       2393.8581     0.065416229
       2394.4200     0.092339218
       2394.9819     0.065026638
       2395.5437     0.054423299
       2396.1056     0.057580199
       2396.6674     0.079763331
       2397.2293     0.088956942
       2397.7911      0.11197898
       2398.3530     0.089718216
       2398.9148     0.063176270
       2399.4767     0.064057477
       2400.0386     0.061755715
       2400.6004     0.046475427
       2401.1623     0.059444228
       2401.7241     0.079411149
       2402.2860     0.077755489
       2402.8478     0.060258231
       2403.4097     0.077963944
       2403.9716     0.075940268
       2404.5334     0.099371316
       2405.0953     0.082449306
       2405.6571     0.097207776
       2406.2190     0.039177578
       2406.7808     0.077731847
       2407.3427     0.096298315
       2407.9045     0.053385945
       2408.4664     0.059307360
       2409.0283     0.071111227
       2409.5901     0.030706771
       2410.1520     0.062898960
       2410.7138     0.086861023
       2411.2757     0.074608158
       2411.8375     0.080328008
       2412.3994     0.082384804
       2412.9613     0.058322781
       2413.5231     0.060193279
       2414.0850     0.095265927
       2414.6468     0.043682156
       2415.2087     0.086836747
       2415.7705     0.069671886
       2416.3324     0.050689859
       2416.8942     0.063886804
       2417.4561     0.090761156
       2418.0180     0.038172682
       2418.5798     0.085560560
       2419.1417     0.062743685
       2419.7035     0.055400643
       2420.2654     0.045765157
       2420.8272     0.059264325
       2421.3891     0.047199532
       2421.9510     0.084297384
       2422.5128     0.066568949
       2423.0747     0.099839182
       2423.6365     0.074590385
       2424.1984     0.067303546
       2424.7602     0.092733437
       2425.3221      0.11332587
       2425.8839     0.090475861
       2426.4458     0.078508969
       2427.0077     0.090534308
       2427.5695     0.081703278
       2428.1314      0.10984127
       2428.6932     0.089244259
       2429.2551     0.040945490
       2429.8169     0.070089817
       2430.3788     0.047371343
       2430.9406     0.095551605
       2431.5025     0.032191235
       2432.0644     0.077728660
       2432.6262     0.036686263
       2433.1881     0.087338439
       2433.7499     0.080733991
       2434.3118     0.040507564
       2434.8736     0.052169025
       2435.4355     0.069737839
       2435.9974     0.084899237
       2436.5592     0.050297160
       2437.1211     0.061333344
       2437.6829     0.017553717
       2438.2448     0.056613982
       2438.8066     0.086401300
       2439.3685     0.037776115
       2439.9303     0.055527399
       2440.4922     0.058868033
       2441.0541      0.11140975
       2441.6159     0.042217689
       2442.1778      0.10016863
       2442.7396     0.039180760
       2443.3015     0.073791481
       2443.8633     0.090546078
       2444.4252     0.086625319
       2444.9871     0.085054798
       2445.5489     0.083170928
       2446.1108     0.082392422
       2446.6726     0.093369571
       2447.2345     0.043920412
       2447.7963     0.058790306
       2448.3582     0.076173593
       2448.9200     0.082933380
       2449.4819     0.070704755
       2450.0438     0.078137853
       2450.6056     0.082561012
       2451.1675     0.037946626
       2451.7293     0.091515658
       2452.2912     0.085847704
       2452.8530     0.074489855
       2453.4149     0.080753732
       2453.9768     0.076485185
       2454.5386     0.088031830
       2455.1005     0.096115547
       2455.6623     0.048047104
       2456.2242     0.075754574
       2456.7860     0.099799464
       2457.3479     0.052709350
       2457.9097     0.059879642
       2458.4716     0.068001334
       2459.0335     0.093592101
       2459.5953     0.076800770
       2460.1572     0.088324509
       2460.7190     0.096843073
       2461.2809     0.062220531
       2461.8427     0.090901987
       2462.4046     0.073667603
       2462.9665     0.078697623
       2463.5283     0.070076552
       2464.0902     0.064029509
       2464.6520     0.036947723
       2465.2139     0.047663236
       2465.7757     0.061070007
       2466.3376     0.078405620
       2466.8994      0.10684624
       2467.4613     0.048132723
       2468.0232     0.078966772
       2468.5850     0.066259711
       2469.1469     0.089659238
       2469.7087     0.065366357
       2470.2706     0.087094892
       2470.8324     0.084889752
       2471.3943     0.092825375
       2471.9562     0.067582262
       2472.5180     0.042096392
       2473.0799     0.042449997
       2473.6417     0.058751203
       2474.2036     0.034062387
       2474.7654     0.067238569
       2475.3273     0.039550705
       2475.8891     0.086093269
       2476.4510     0.037398531
       2477.0129     0.052017699
       2477.5747     0.074663902
       2478.1366     0.058551670
       2478.6984     0.081872043
       2479.2603     0.014575061
       2479.8221     0.091138433
       2480.3840      0.10666324
       2480.9459     0.084533742
       2481.5077     0.046607564
       2482.0696      0.10067122
       2482.6314      0.10230489
       2483.1933     0.085594531
       2483.7551     0.047063768
       2484.3170     0.092658523
       2484.8788     0.061373664
       2485.4407     0.044473666
       2486.0026     0.096226920
       2486.5644     0.074668880
       2487.1263     0.033431249
       2487.6881     0.074261367
       2488.2500     0.099468466
       2488.8118     0.071024869
       2489.3737     0.097326673
       2489.9356     0.079309874
       2490.4974     0.023877203
       2491.0593     0.092124102
       2491.6211      0.12758000
       2492.1830     0.067231083
       2492.7448     0.063005981
       2493.3067     0.064387933
       2493.8685      0.10333696
       2494.4304     0.082244764
       2494.9923     0.080863624
       2495.5541     0.056421840
       2496.1160     0.089956423
       2496.6778     0.073387377
       2497.2397     0.065877608
       2497.8015      0.11174357
       2498.3634     0.050037601
       2498.9252     0.030261706
       2499.4871     0.051049828
       2500.0490     0.085230022
       2500.6108      0.11426252
       2501.1727     0.097259171
       2501.7345     0.050883600
       2502.2964     0.063014534
       2502.8582     0.083123471
       2503.4201     0.092400544
       2503.9820     0.062782789
       2504.5438   -0.0029150332
       2505.1057     0.082610847
       2505.6675     0.074471878
       2506.2294     0.064498514
       2506.7912     0.085156709
       2507.3531     0.070490289
       2507.9149     0.096933463
       2508.4768      0.11314474
       2509.0387     0.039781733
       2509.6005     0.052636491
       2510.1624     0.059530590
       2510.7242     0.053435123
       2511.2861     0.075449434
       2511.8479     0.058265613
       2512.4098     0.096929252
       2512.9717     0.074713832
       2513.5335      0.12362991
       2514.0954     0.069831269
       2514.6572   -0.0019077712
       2515.2191     0.067836955
       2515.7809     0.056773470
       2516.3428     0.095083393
       2516.9046     0.053593568
       2517.4665     0.061225268
       2518.0284     0.032389719
       2518.5902     0.096248716
       2519.1521     0.086072002
       2519.7139     0.076060480
       2520.2758     0.044497849
       2520.8376     0.041955327
       2521.3995     0.071304284
       2521.9614     0.087037816
       2522.5232     0.076834825
       2523.0851     0.061242306
       2523.6469     0.059918732
       2524.2088     0.056113657
       2524.7706     0.050309991
       2525.3325     0.065203196
       2525.8943     0.079335710
       2526.4562     0.053499951
       2527.0181     0.088517198
       2527.5799     0.046684162
       2528.1418      0.10537498
       2528.7036     0.084304166
       2529.2655      0.10834856
       2529.8273     0.032244943
       2530.3892     0.056144556
       2530.9511     0.077067097
       2531.5129     0.088096884
       2532.0748     0.082107910
       2532.6366     0.094406274
       2533.1985     0.037509720
       2533.7603     0.063882251
       2534.3222     0.057540245
       2534.8840     0.054763783
       2535.4459     0.052203730
       2536.0078     0.079958987
       2536.5696     0.076459075
       2537.1315     0.080675609
       2537.6933     0.053558605
       2538.2552     0.046180275
       2538.8170     0.097213522
       2539.3789     0.063146512
       2539.9408     0.043449185
       2540.5026     0.057935333
       2541.0645     0.063462183
       2541.6263     0.077556052
       2542.1882     0.050944482
       2542.7500     0.077279094
       2543.3119     0.040905808
       2543.8737     0.056114049
       2544.4356     0.059406266
       2544.9975     0.066759753
       2545.5593     0.020931586
       2546.1212     0.062021511
       2546.6830      0.11988470
       2547.2449     0.060194481
       2547.8067     0.086549904
       2548.3686     0.078237744
       2548.9305     0.080047971
       2549.4923     0.082877213
       2550.0542     0.086810675
       2550.6160      0.10388541
       2551.1779      0.11162591
       2551.7397     0.077710017
       2552.3016     0.062101557
       2552.8634     0.070312102
       2553.4253     0.063570527
       2553.9872     0.064663867
       2554.5490     0.080107881
       2555.1109     0.070423819
       2555.6727    0.0074255112
       2556.2346      0.10425438
       2556.7964     0.090156958
       2557.3583      0.10828583
       2557.9201     0.074928103
       2558.4820      0.11308843
       2559.0439     0.075138073
       2559.6057      0.10816737
       2560.1676     0.090951361
       2560.7294     0.093532901
       2561.2913     0.083632310
       2561.8531     0.084372012
       2562.4150     0.067530690
       2562.9769      0.10481623
       2563.5387     0.078380340
       2564.1006     0.055767783
       2564.6624     0.030637246
       2565.2243     0.063693430
       2565.7861     0.058089376
       2566.3480     0.064110414
       2566.9098     0.057996740
       2567.4717     0.057097919
       2568.0336     0.086654845
       2568.5954     0.078053901
       2569.1573      0.10113497
       2569.7191     0.055584200
       2570.2810     0.019502270
       2570.8428     0.094965324
       2571.4047     0.065002796
       2571.9666     0.090776277
       2572.5284     0.041186678
       2573.0903     0.085431027
       2573.6521     0.017246073
       2574.2140     0.087364753
       2574.7758     0.064535312
       2575.3377     0.019851272
       2575.8995     0.029734256
       2576.4614    0.0070370621
       2577.0233     0.045012444
       2577.5851     0.077469122
       2578.1470     0.066364032
       2578.7088     0.048303734
       2579.2707     0.072631268
       2579.8325     0.070508421
       2580.3944     0.051970262
       2580.9563     0.012314910
       2581.5181     0.026998213
       2582.0800     0.045661037
       2582.6418     0.013984153
       2583.2037     0.055534534
       2583.7655     0.049571512
       2584.3274     0.068558943
       2584.8892     0.023865556
       2585.4511     0.060802535
       2586.0130     0.087884872
       2586.5748     0.094657805
       2587.1367     0.096323837
       2587.6985     0.075551250
       2588.2604     0.067929297
       2588.8222     0.017735705
       2589.3841     0.043904841
       2589.9460     0.015268904
       2590.5078     0.075431518
       2591.0697    0.0025810025
       2591.6315     0.042624910
       2592.1934     0.042951178
       2592.7552     0.062829968
       2593.3171     0.049830104
       2593.8789     0.053058838
       2594.4408     0.055678595
       2595.0027     0.033081481
       2595.5645     0.022559257
       2596.1264      0.11528510
       2596.6882     0.012445258
       2597.2501     0.065524694
       2597.8119     0.045714303
       2598.3738     0.064874553
       2598.9357     0.067275580
       2599.4975      0.10565792
       2600.0594      0.10520457
       2600.6212     0.069537931
       2601.1831     0.096110663
       2601.7449     0.077629127
       2602.3068    0.0037739356
       2602.8686     0.054216499
       2603.4305     0.082745748
       2603.9924     0.044622545
       2604.5542     0.080932525
       2605.1161     0.049683626
       2605.6779     0.065663784
       2606.2398     0.057385599
       2606.8016      0.10826442
       2607.3635     0.080984972
       2607.9254     0.097084453
       2608.4872      0.10858961
       2609.0491      0.10787630
       2609.6109     0.080585279
       2610.1728     0.096076275
       2610.7346     0.076992753
       2611.2965     0.069409700
       2611.8583     0.090413323
       2612.4202     0.084150764
       2612.9821      0.11935437
       2613.5439      0.10328271
       2614.1058      0.10117205
       2614.6676      0.12854808
       2615.2295      0.11415311
       2615.7913     0.090771352
       2616.3532     0.092633784
       2616.9151     0.098558961
       2617.4769      0.11135278
       2618.0388      0.14162950
       2618.6006     0.096108567
       2619.1625     0.076314994
       2619.7243     0.070514117
       2620.2862     0.078800345
       2620.8480     0.060920178
       2621.4099     0.071695379
       2621.9718     0.034060235
       2622.5336     0.085169884
       2623.0955      0.10651440
       2623.6573     0.094499919
       2624.2192     0.065822058
       2624.7810     0.053455492
       2625.3429     0.093097998
       2625.9047     0.067729037
       2626.4666     0.072308783
       2627.0285     0.063251550
       2627.5903     0.020158946
       2628.1522     0.057408629
       2628.7140     0.073705337
       2629.2759     0.036629407
       2629.8377      0.10940754
       2630.3996     0.089328114
       2630.9615      0.10828665
       2631.5233     0.068084194
       2632.0852     0.051035269
       2632.6470     0.077364098
       2633.2089     0.059800491
       2633.7707     0.075392012
       2634.3326      0.10681753
       2634.8944      0.10027460
       2635.4563     0.078023393
       2636.0182     0.078337599
       2636.5800     0.097790456
       2637.1419     0.069267205
       2637.7037     0.096994651
       2638.2656     0.088513594
       2638.8274     0.097246323
       2639.3893     0.091345882
       2639.9512      0.12014949
       2640.5130     0.064097888
       2641.0749     0.067996382
       2641.6367      0.11231033
       2642.1986      0.16448988
       2642.7604     0.068271286
       2643.3223     0.040799050
       2643.8841     0.083918875
       2644.4460      0.12807452
       2645.0079     0.087032345
       2645.5697      0.12522851
       2646.1316     0.053384385
       2646.6934     0.096357803
       2647.2553     0.048191988
       2647.8171     0.044279576
       2648.3790     0.073496761
       2648.9409     0.075643099
       2649.5027     0.037383114
       2650.0646      0.10270976
       2650.6264     0.091879562
       2651.1883     0.056290800
       2651.7501     0.062363303
       2652.3120      0.10292883
       2652.8738     0.068158262
       2653.4357     0.056990631
       2653.9976     0.068434088
       2654.5594      0.10222419
       2655.1213      0.10905357
       2655.6831     0.098128927
       2656.2450     0.081762659
       2656.8068     0.049511073
       2657.3687     0.087612893
       2657.9306     0.090219684
       2658.4924      0.10937399
       2659.0543     0.067957674
       2659.6161     0.051202795
       2660.1780     0.074383287
       2660.7398     0.060797048
       2661.3017     0.071411055
       2661.8635     0.050978975
       2662.4254     0.049481340
       2662.9873     0.074433285
       2663.5491     0.032539852
       2664.1110     0.030381627
       2664.6728     0.019269287
       2665.2347     0.076411072
       2665.7965     0.040813194
       2666.3584     0.059158567
       2666.9203     0.020691301
       2667.4821      0.13113892
       2668.0440     0.086996155
       2668.6058     0.044137423
       2669.1677     0.046011163
       2669.7295     0.036484972
       2670.2914     0.067495081
       2670.8532      0.11443268
       2671.4151     0.048138263
       2671.9770     0.082075415
       2672.5388     0.087955713
       2673.1007     0.074693894
       2673.6625     0.076495751
       2674.2244     0.069867860
       2674.7862     0.026631990
       2675.3481      0.11037306
       2675.9100     0.086308354
       2676.4718     0.091054692
       2677.0337     0.075778054
       2677.5955     0.087891986
       2678.1574     0.083803206
       2678.7192     0.094980117
       2679.2811      0.10504741
       2679.8429     0.087884889
       2680.4048     0.080926539
       2680.9667      0.12248434
       2681.5285     0.076162082
       2682.0904     0.068115143
       2682.6522      0.10027742
       2683.2141     0.089682350
       2683.7759     0.049540675
       2684.3378      0.10179078
       2684.8997     0.067702348
       2685.4615     0.073289551
       2686.0234     0.020163233
       2686.5852     0.065601495
       2687.1471     0.075300268
       2687.7089     0.078969540
       2688.2708     0.057734788
       2688.8326     0.079120441
       2689.3945      0.11346975
       2689.9564     0.038035750
       2690.5182     0.080026355
       2691.0801     0.091366663
       2691.6419     0.094941021
       2692.2038      0.10961529
       2692.7656     0.074913139
       2693.3275    0.0038116676
       2693.8893     0.061750498
       2694.4512     0.060826382
       2695.0131      0.10354579
       2695.5749     0.074066353
       2696.1368     0.072461096
       2696.6986     0.013616058
       2697.2605      0.11038384
       2697.8223     0.065469871
       2698.3842     0.080764900
       2698.9461     0.060314432
       2699.5079      0.10059857
       2700.0698     0.060747016
       2700.6316      0.12312003
       2701.1935     0.084145610
       2701.7553      0.13622888
       2702.3172      0.14288374
       2702.8790      0.11528333
       2703.4409     0.097098468
       2704.0028      0.11184361
       2704.5646     0.084446163
       2705.1265     0.066597886
       2705.6883      0.10155558
       2706.2502     0.033316856
       2706.8120     0.063077898
       2707.3739     0.067301489
       2707.9358     0.060146685
       2708.4976     0.069274254
       2709.0595      0.10512373
       2709.6213     0.075474323
       2710.1832     0.091941951
       2710.7450     0.085441682
       2711.3069      0.11624856
       2711.8687     0.086012980
       2712.4306     0.055873918
       2712.9925     0.086159321
       2713.5543     0.072962193
       2714.1162     0.077236998
       2714.6780     0.044409906
       2715.2399     0.053989902
       2715.8017     0.054564679
       2716.3636     0.078977435
       2716.9255     0.098056120
       2717.4873     0.086431445
       2718.0492     0.041900546
       2718.6110     0.091587186
       2719.1729     0.040538199
       2719.7347     0.096824914
       2720.2966      0.10288846
       2720.8584     0.044206367
       2721.4203     0.091121549
       2721.9822     0.068107377
       2722.5440     0.052531877
       2723.1059     0.093256913
       2723.6677     0.082055000
       2724.2296     0.082456502
       2724.7914     0.054672465
       2725.3533     0.027460491
       2725.9152     0.069911978
       2726.4770     0.049500982
       2727.0389     0.089895286
       2727.6007     0.065166478
       2728.1626     0.038001193
       2728.7244      0.10250320
       2729.2863      0.12757361
       2729.8481     0.090075598
       2730.4100     0.083524591
       2730.9719     0.056300999
       2731.5337     0.086803282
       2732.0956      0.11923740
       2732.6574      0.10565062
       2733.2193      0.11091524
       2733.7811     0.076736253
       2734.3430      0.11248483
       2734.9049     0.074684121
       2735.4667     0.032818841
       2736.0286     0.097475292
       2736.5904     0.091744238
       2737.1523     0.083554757
       2737.7141     0.037739627
       2738.2760     0.093861900
       2738.8378     0.070870466
       2739.3997     0.064311010
       2739.9616     0.066811744
       2740.5234      0.10362769
       2741.0853     0.061634797
       2741.6471    -0.033642315
       2742.2090     0.083404148
       2742.7708     0.086650481
       2743.3327     0.087134456
       2743.8946      0.13985141
       2744.4564      0.10112267
       2745.0183     0.047909806
       2745.5801     0.092070529
       2746.1420     0.064089492
       2746.7038     0.051894586
       2747.2657     0.091070950
       2747.8275     0.078511980
       2748.3894     0.048117360
       2748.9513     0.079969799
       2749.5131     0.068109679
       2750.0750     0.088231593
       2750.6368     0.067179165
       2751.1987     0.064998864
       2751.7605     0.066803019
       2752.3224      0.12672317
       2752.8843      0.10198748
       2753.4461     0.086274142
       2754.0080     0.033090154
       2754.5698      0.11525185
       2755.1317     0.056432772
       2755.6935     0.049354726
       2756.2554     0.079997008
       2756.8172     0.080926172
       2757.3791     0.019104361
       2757.9410     0.076714176
       2758.5028     0.081907873
       2759.0647     0.070365516
       2759.6265     0.030703855
       2760.1884     0.054211198
       2760.7502     0.052525075
       2761.3121     0.086335461
       2761.8739     0.050706455
       2762.4358     0.071142218
       2762.9977     0.035063484
       2763.5595     0.097774970
       2764.1214      0.10808906
       2764.6832     0.073780677
       2765.2451     0.092991199
       2765.8069      0.10301961
       2766.3688      0.10909140
       2766.9307      0.10535893
       2767.4925     0.044344169
       2768.0544     0.051862832
       2768.6162    0.0034545355
       2769.1781     0.049536610
       2769.7399      0.14115126
       2770.3018     0.088578400
       2770.8636      0.10183306
       2771.4255     0.061698591
       2771.9874      0.11188002
       2772.5492     0.054745559
       2773.1111     0.061232534
       2773.6729     0.057464200
       2774.2348     0.070006358
       2774.7966      0.10764243
       2775.3585      0.13952355
       2775.9204     0.079607408
       2776.4822     0.062156911
       2777.0441     0.028034821
       2777.6059     0.065230930
       2778.1678     0.049725042
       2778.7296     0.024631415
       2779.2915     0.090234851
       2779.8533     0.063173851
       2780.4152     0.099274372
       2780.9771     0.012540508
       2781.5389     0.042931700
       2782.1008     0.047404767
       2782.6626     0.060365805
       2783.2245     0.073997089
       2783.7863    0.0091860502
       2784.3482     0.019828276
       2784.9101     0.031700868
       2785.4719     0.046525262
       2786.0338     0.048631612
       2786.5956     0.037109350
       2787.1575     0.035732353
       2787.7193     0.043652862
       2788.2812     0.054290822
       2788.8430     0.042416359
       2789.4049     0.017256056
       2789.9668     0.027887346
       2790.5286   -0.0053891428
       2791.0905    -0.013297090
       2791.6523     0.022235350
       2792.2142     0.017640836
       2792.7760    0.0029969518
       2793.3379     0.054852828
       2793.8998     0.088864645
       2794.4616     0.079317750
       2795.0235     0.086151825
       2795.5853      0.10444925
       2796.1472     0.073959093
       2796.7090     0.083271573
       2797.2709     0.052613215
       2797.8327     0.088906175
       2798.3946     0.095086129
       2798.9565     0.049517318
       2799.5183     0.031347354
       2800.0802     0.094334692
       2800.6420     0.061928637
       2801.2039     0.083436133
       2801.7657     0.042630257
       2802.3276      0.10472267
       2802.8895     0.090915140
       2803.4513     0.069129685
       2804.0132     0.055939199
       2804.5750     0.069405931
       2805.1369      0.11177973
       2805.6987     0.065140868
       2806.2606      0.11189602
       2806.8224     0.048361619
       2807.3843     0.057728890
       2807.9462     0.067572874
       2808.5080     0.075027294
       2809.0699     0.052358767
       2809.6317      0.11521688
       2810.1936      0.10839439
       2810.7554     0.082049728
       2811.3173     0.066852486
       2811.8792     0.051019447
       2812.4410     0.033100862
       2813.0029     0.061942696
       2813.5647     0.075478040
       2814.1266     0.081298816
       2814.6884     0.063701116
       2815.2503     0.059845683
       2815.8121     0.065047378
       2816.3740     0.098128727
       2816.9359     0.050694122
       2817.4977     0.088073351
       2818.0596     0.058292641
       2818.6214     0.060769262
       2819.1833     0.091186042
       2819.7451     0.085331644
       2820.3070     0.075483043
       2820.8688     0.078178156
       2821.4307     0.086644716
       2821.9926     0.047485778
       2822.5544     0.070838914
       2823.1163     0.038808816
       2823.6781     0.037473848
       2824.2400     0.084000494
       2824.8018     0.056177586
       2825.3637     0.041418209
       2825.9256     0.021256970
       2826.4874     0.060449702
       2827.0493     0.040726124
       2827.6111     0.094207452
       2828.1730      0.13966963
       2828.7348      0.10036548
       2829.2967    0.0085005141
       2829.8585     0.081199388
       2830.4204     0.094418894
       2830.9823      0.10403533
       2831.5441     0.080107349
       2832.1060     0.082000269
       2832.6678     0.099492471
       2833.2297     0.069531164
       2833.7915      0.11378120
       2834.3534     0.068196407
       2834.9153     0.052863675
       2835.4771     0.049006029
       2836.0390     0.055954664
       2836.6008     0.083866544
       2837.1627     0.041197467
       2837.7245     0.056010334
       2838.2864     0.042926878
       2838.8482     0.058129169
       2839.4101     0.064673234
       2839.9720     0.075189116
       2840.5338     0.065462436
       2841.0957     0.045629289
       2841.6575     0.040685542
       2842.2194     0.076021550
       2842.7812     0.010545444
       2843.3431     0.072290999
       2843.9050     0.071864106
       2844.4668     0.034012840
       2845.0287     0.071718364
       2845.5905     0.063816243
       2846.1524     0.086518362
       2846.7142      0.12140612
       2847.2761      0.10788473
       2847.8379     0.092227390
       2848.3998     0.085035367
       2848.9617      0.10035478
       2849.5235     0.048100490
       2850.0854     0.069479130
       2850.6472     0.074913632
       2851.2091     0.091555641
       2851.7709     0.015612731
       2852.3328     0.025209267
       2852.8947     0.072025200
       2853.4565     0.095665981
       2854.0184     0.066993139
       2854.5802     0.068049714
       2855.1421     0.055722237
       2855.7039     0.044028514
       2856.2658     0.085429403
       2856.8276     0.047306456
       2857.3895     0.040636452
       2857.9514     0.076888735
       2858.5132     0.084506022
       2859.0751     0.058187651
       2859.6369     0.033395858
       2860.1988     0.051856473
       2860.7606     0.073001392
       2861.3225      0.10289484
       2861.8844     0.071616929
       2862.4462      0.12885885
       2863.0081      0.12782500
       2863.5699     0.045341096
       2864.1318      0.13292613
       2864.6936     0.085820344
       2865.2555     0.055858562
       2865.8173     0.068075057
       2866.3792     0.060205733
       2866.9411      0.13160674
       2867.5029      0.16786237
       2868.0648      0.17684219
       2868.6266      0.21489063
       2869.1885      0.22047253
       2869.7503      0.14716924
       2870.3122      0.20274749
       2870.8741      0.10190488
       2871.4359      0.22385015
       2871.9978      0.13006606
       2872.5596     0.077367922
       2873.1215     0.069245844
       2873.6833     0.067332923
       2874.2452     0.084572152
       2874.8070      0.12163785
       2875.3689      0.10464985
       2875.9308     0.066242097
       2876.4926     0.097732437
       2877.0545     0.095190920
       2877.6163     0.090831175
       2878.1782     0.053438162
       2878.7400     0.081493167
       2879.3019      0.10762026
       2879.8638      0.11578608
       2880.4256      0.15885947
       2880.9875     0.073442935
       2881.5493     0.090976657
       2882.1112     0.044172810
       2882.6730   -0.0076839098
       2883.2349     0.018749694
       2883.7967      0.10952721
       2884.3586     0.078289426
       2884.9205     0.074919163
       2885.4823     0.032642609
       2886.0442     0.088838781
       2886.6060     0.025601863
       2887.1679   -0.0055212623
       3499.1873      0.14399999
       3499.7994      0.11731635
       3500.4116     0.080928905
       3501.0237     0.066600405
       3501.6359      0.10844903
       3502.2481      0.13487083
       3502.8602     0.061379637
       3503.4724      0.20875231
       3504.0845     0.095504448
       3504.6967     0.066382001
       3505.3088      0.10776536
       3505.9210     0.071368990
       3506.5331      0.11135840
       3507.1453      0.13560684
       3507.7574     0.060095477
       3508.3696      0.15274786
       3508.9817      0.16104672
       3509.5939     0.071991231
       3510.2061     0.069914455
       3510.8182     0.043794280
       3511.4304      0.12592129
       3512.0425      0.11896780
       3512.6547     0.037896407
       3513.2668      0.14428448
       3513.8790      0.10973168
       3514.4911     0.085878987
       3515.1033     0.079064594
       3515.7154     0.025527692
       3516.3276      0.11524083
       3516.9397     0.069268174
       3517.5519      0.13259705
       3518.1641      0.11016276
       3518.7762      0.15685878
       3519.3884      0.14978138
       3520.0005      0.16565230
       3520.6127     0.056448189
       3521.2248      0.20913508
       3521.8370      0.27564448
       3522.4491      0.21626751
       3523.0613      0.11158509
       3523.6734      0.23915804
       3524.2856      0.13132015
       3524.8977      0.12903617
       3525.5099     0.078056097
       3526.1221      0.13964577
       3526.7342     0.045134521
       3527.3464      0.10120085
       3527.9585      0.22001210
       3528.5707      0.11729316
       3529.1828     0.088698811
       3529.7950     0.073268568
       3530.4071    0.0087733185
       3531.0193     0.038489553
       3531.6314      0.22849822
       3532.2436     0.049408759
       3532.8557      0.13620683
       3533.4679     0.077944973
       3534.0801      0.17346498
       3534.6922      0.21829193
       3535.3044      0.12847533
       3535.9165      0.21608524
       3536.5287      0.14587740
       3537.1408      0.21901029
       3537.7530      0.13631839
       3538.3651      0.21054990
       3538.9773      0.12780967
       3539.5894      0.16508308
       3540.2016      0.17579237
       3540.8137     0.087427384
       3541.4259      0.17282222
       3542.0381      0.16034005
       3542.6502      0.12208211
       3543.2624     0.048450709
       3543.8745      0.19215094
       3544.4867      0.14668313
       3545.0988      0.16669926
       3545.7110   -0.0048675674
       3546.3231      0.14477931
       3546.9353     0.038484134
       3547.5474     0.096871668
       3548.1596      0.17759815
       3548.7717      0.11194761
       3549.3839      0.13218479
       3549.9961     0.095995318
       3550.6082      0.12011774
       3551.2204      0.29291383
       3551.8325      0.15188433
       3552.4447      0.25505904
       3553.0568      0.14705929
       3553.6690     0.090655686
       3554.2811      0.10739037
       3554.8933      0.14094834
       3555.5054      0.11299964
       3556.1176      0.13243805
       3556.7297      0.16258788
       3557.3419      0.11937564
       3557.9541      0.10429460
       3558.5662     0.084605698
       3559.1784      0.16378931
       3559.7905      0.17083170
       3560.4027      0.12561884
       3561.0148      0.20833577
       3561.6270      0.13172025
       3562.2391      0.14401513
       3562.8513     0.051987716
       3563.4634      0.14761533
       3564.0756     0.095322497
       3564.6877      0.15440265
       3565.2999      0.20129306
       3565.9121      0.10939042
       3566.5242      0.17368415
       3567.1364      0.15620402
       3567.7485      0.17254510
       3568.3607      0.15923622
       3568.9728      0.20881698
       3569.5850      0.18377841
       3570.1971      0.23752110
       3570.8093      0.23896657
       3571.4214      0.24880647
       3572.0336      0.21802571
       3572.6457     0.069662995
       3573.2579     0.093342548
       3573.8701     0.076461004
       3574.4822     0.095294001
       3575.0944     0.058432708
       3575.7065      0.16329601
       3576.3187      0.15638090
       3576.9308     0.062152879
       3577.5430     0.093461834
       3578.1551      0.10534279
       3578.7673      0.13392765
       3579.3794      0.11603064
       3579.9916      0.12747065
       3580.6037      0.10956310
       3581.2159      0.10864942
       3581.8281      0.14267062
       3582.4402      0.16372925
       3583.0524     0.033551990
       3583.6645     0.028417188
       3584.2767     0.080516602
       3584.8888      0.17453202
       3585.5010      0.13527044
       3586.1131     0.067917409
       3586.7253      0.16535511
       3587.3374      0.10011953
       3587.9496     0.088330127
       3588.5617      0.13308136
       3589.1739      0.16682854
       3589.7861     0.054962101
       3590.3982      0.19670282
       3591.0104     0.098300913
       3591.6225      0.11487592
       3592.2347     0.086076993
       3592.8468      0.11976256
       3593.4590      0.13984829
       3594.0711     0.067383676
       3594.6833      0.15725109
       3595.2954     0.096074771
       3595.9076      0.14825731
       3596.5197      0.10132540
       3597.1319      0.10376555
       3597.7441      0.16270083
       3598.3562      0.19484976
       3598.9684      0.21147644
       3599.5805     0.079481537
       3600.1927      0.12937515
       3600.8048      0.22999100
       3601.4170      0.16208977
       3602.0291      0.14070333
       3602.6413     0.077043528
       3603.2534     0.014145554
       3603.8656      0.15123107
       3604.4777     0.086374132
       3605.0899     0.066063772
       3605.7021      0.12371381
       3606.3142      0.13447057
       3606.9264      0.19759015
       3607.5385      0.21728356
       3608.1507      0.19259341
       3608.7628      0.18878858
       3609.3750      0.13426663
       3609.9871      0.13997821
       3610.5993      0.25506117
       3611.2114      0.16876365
       3611.8236      0.18599238
       3612.4357      0.14584481
       3613.0479     0.097218788
       3613.6601      0.12269956
       3614.2722     0.073643845
       3614.8844     0.018772924
       3615.4965      0.11896253
       3616.1087     0.085133822
       3616.7208      0.21642716
       3617.3330      0.11546901
       3617.9451      0.13351251
       3618.5573     0.098520105
       3619.1694     0.088130052
       3619.7816      0.15759738
       3620.3937     0.090108440
       3621.0059      0.21790616
       3621.6181      0.16210626
       3622.2302      0.15967162
       3622.8424      0.15809478
       3623.4545      0.25741358
       3624.0667      0.16938413
       3624.6788      0.15695835
       3625.2910      0.19354114
       3625.9031      0.10684805
       3626.5153      0.16823270
       3627.1274      0.26701038
       3627.7396      0.17767052
       3628.3517      0.11884420
       3628.9639      0.11368565
       3629.5761      0.17080235
       3630.1882      0.14921535
       3630.8004      0.11307378
       3631.4125      0.13507665
       3632.0247      0.15657057
       3632.6368      0.21352257
       3633.2490      0.16022986
       3633.8611      0.17713971
       3634.4733      0.11255282
       3635.0854      0.22766823
       3635.6976      0.21326005
       3636.3097     0.066275896
       3636.9219     0.086452200
       3637.5340      0.18681531
       3638.1462      0.18369883
       3638.7584      0.15701442
       3639.3705      0.18745079
       3639.9827      0.13165221
       3640.5948      0.24323884
       3641.2070      0.18152414
       3641.8191      0.14209129
       3642.4313      0.24400930
       3643.0434      0.16778444
       3643.6556      0.10624441
       3644.2677      0.16148353
       3644.8799     0.049049522
       3645.4920      0.16486508
       3646.1042      0.18556988
       3646.7164      0.21039176
       3647.3285     0.091486958
       3647.9407      0.18063606
       3648.5528      0.23119084
       3649.1650     0.081557888
       3649.7771      0.20868298
       3650.3893      0.16539971
       3651.0014      0.22015035
       3651.6136      0.22482944
       3652.2257      0.17881557
       3652.8379      0.13201952
       3653.4500     0.064680585
       3654.0622      0.10847737
       3654.6744      0.20264678
       3655.2865      0.15652376
       3655.8987      0.15369653
       3656.5108      0.17896953
       3657.1230      0.13620726
       3657.7351      0.17973472
       3658.3473      0.15382475
       3658.9594      0.14306449
       3659.5716     0.096864129
       3660.1837      0.14015407
       3660.7959      0.12455927
       3661.4080      0.16443339
       3662.0202      0.17074134
       3662.6324      0.12342138
       3663.2445      0.11611758
       3663.8567      0.14158680
       3664.4688      0.11711947
       3665.0810      0.23840137
       3665.6931      0.14064715
       3666.3053     0.080051357
       3666.9174      0.17707737
       3667.5296      0.20113306
       3668.1417      0.18708468
       3668.7539      0.20371767
       3669.3660     0.070772971
       3669.9782      0.10835788
       3670.5904      0.11238474
       3671.2025     0.077540210
       3671.8147     0.097135520
       3672.4268      0.11442245
       3673.0390     0.090556913
       3673.6511      0.11231986
       3674.2633      0.14360589
       3674.8754      0.15797711
       3675.4876      0.15756914
       3676.0997      0.12386192
       3676.7119      0.11314153
       3677.3240      0.14584655
       3677.9362      0.13435536
       3678.5484      0.23906507
       3679.1605      0.22005121
       3679.7727      0.15652021
       3680.3848      0.11224540
       3680.9970      0.23187176
       3681.6091      0.20813508
       3682.2213      0.16145596
       3682.8334      0.12162083
       3683.4456      0.22127565
       3684.0577      0.17895706
       3684.6699      0.18391693
       3685.2820      0.25445633
       3685.8942      0.19638463
       3686.5064     0.053918513
       3687.1185      0.20348275
       3687.7307      0.18666610
       3688.3428      0.16308525
       3688.9550      0.18137062
       3689.5671      0.22042784
       3690.1793      0.16946941
       3690.7914      0.19720766
       3691.4036      0.21648931
       3692.0157      0.20243513
       3692.6279      0.17601876
       3693.2400      0.13681772
       3693.8522      0.14968858
       3694.4644     0.078062685
       3695.0765     0.076934061
       3695.6887      0.17936882
       3696.3008      0.16551924
       3696.9130      0.14590860
       3697.5251      0.12467200
       3698.1373      0.10709410
       3698.7494     0.094145910
       3699.3616      0.10864551
       3699.9737      0.12074132
       3700.5859      0.21833505
       3701.1980      0.14015560
       3701.8102      0.20289090
       3702.4224     0.088462196
       3703.0345     0.097832724
       3703.6467     0.036977111
       3704.2588      0.10960451
       3704.8710      0.14686353
       3705.4831      0.15848869
       3706.0953      0.15827276
       3706.7074      0.18431424
       3707.3196      0.16629694
       3707.9317      0.21777435
       3708.5439      0.13649364
       3709.1560      0.23726142
       3709.7682     0.078569274
       3710.3804     0.068601298
       3710.9925      0.17106792
       3711.6047      0.15086799
       3712.2168      0.19196445
       3712.8290     0.073147717
       3713.4411      0.18479478
       3714.0533      0.11148205
       3714.6654      0.14110216
       3715.2776      0.17887833
       3715.8897      0.16112312
       3716.5019      0.12052334
       3717.1140     0.060886793
       3717.7262     0.069966498
       3718.3384      0.16521275
       3718.9505      0.12749371
       3719.5627      0.18797630
       3720.1748      0.21428363
       3720.7870      0.28521189
       3721.3991      0.28473396
       3722.0113      0.35519286
       3722.6234      0.46957510
       3723.2356      0.64349323
       3723.8477      0.72162253
       3724.4599      0.91763156
       3725.0720      0.99695739
       3725.6842       1.1428878
       3726.2964       1.3403386
       3726.9085       1.3204481
       3727.5207       1.1751783
       3728.1328       1.0637177
       3728.7450       1.1308772
       3729.3571      0.86865744
       3729.9693      0.75813361
       3730.5814      0.60892751
       3731.1936      0.40331924
       3731.8057      0.35694624
       3732.4179      0.23147723
       3733.0300      0.18956735
       3733.6422      0.11472370
       3734.2544      0.12760646
       3734.8665      0.17185004
       3735.4787      0.13894672
       3736.0908      0.19037782
       3736.7030      0.18228441
       3737.3151      0.13118310
       3737.9273      0.13397788
       3738.5394      0.16108830
       3739.1516      0.21588310
       3739.7637     0.098620836
       3740.3759      0.19972204
       3740.9880      0.15528134
       3741.6002      0.13405868
       3742.2124      0.16008839
       3742.8245      0.23757762
       3743.4367      0.21163470
       3744.0488      0.20306332
       3744.6610      0.18082380
       3745.2731      0.15804001
       3745.8853     0.036927787
       3746.4974      0.19622497
       3747.1096     0.056395647
       3747.7217     0.022562339
       3748.3339     0.025236568
       3748.9460      0.13921455
       3749.5582      0.15809651
       3750.1704     0.098683446
       3750.7825      0.16610161
       3751.3947      0.16369416
       3752.0068      0.16140357
       3752.6190      0.20428409
       3753.2311      0.22396637
       3753.8433      0.17428286
       3754.4554      0.12595060
       3755.0676      0.23655741
       3755.6797      0.15008525
       3756.2919     0.078487267
       3756.9040      0.23931944
       3757.5162      0.18800425
       3758.1284      0.32513607
       3758.7405      0.23570769
       3759.3527      0.22254642
       3759.9648      0.31819933
       3760.5770      0.18940003
       3761.1891      0.15965650
       3761.8013      0.13301151
       3762.4134      0.13748586
       3763.0256     0.085536975
       3763.6377      0.11311709
       3764.2499      0.18052281
       3764.8620     0.026262071
       3765.4742      0.18446365
       3766.0864     0.035225216
       3766.6985      0.13897240
       3767.3107      0.12233923
       3767.9228      0.18723644
       3768.5350      0.13265594
       3769.1471      0.13375149
       3769.7593      0.15785310
       3770.3714      0.18452682
       3770.9836     0.099381938
       3771.5957      0.14889806
       3772.2079      0.15033988
       3772.8200      0.12333019
       3773.4322      0.15520426
       3774.0444      0.23853655
       3774.6565      0.17533721
       3775.2687      0.17039244
       3775.8808      0.17348997
       3776.4930     0.074821472
       3777.1051     0.077067041
       3777.7173      0.24065309
       3778.3294      0.20238987
       3778.9416      0.16151492
       3779.5537      0.17363620
       3780.1659      0.15788153
       3780.7780      0.19209480
       3781.3902      0.16315254
       3782.0024      0.17968672
       3782.6145      0.23395222
       3783.2267      0.31007183
       3783.8388      0.23523142
       3784.4510     0.080442288
       3785.0631      0.15176533
       3785.6753      0.27137493
       3786.2874      0.14047672
       3786.8996      0.22529291
       3787.5117      0.24608398
       3788.1239      0.23226904
       3788.7360      0.22525116
       3789.3482      0.19323499
       3789.9604      0.14868275
       3790.5725      0.12911749
       3791.1847     0.070893552
       3791.7968      0.17946767
       3792.4090      0.17777908
       3793.0211      0.20908517
       3793.6333      0.28744971
       3794.2454      0.27672868
       3794.8576      0.13358042
       3795.4697      0.12556029
       3796.0819      0.14785176
       3796.6940     0.085128352
       3797.3062     0.048592660
       3797.9184     0.094086635
       3798.5305     0.044307815
       3799.1427     0.041612730
       3799.7548      0.18387117
       3800.3670      0.16494206
       3800.9791      0.13635852
       3801.5913      0.14341439
       3802.2034      0.29368102
       3802.8156      0.13018438
       3803.4277      0.22946732
       3804.0399      0.23280941
       3804.6520      0.25521387
       3805.2642      0.17810045
       3805.8764      0.23947223
       3806.4885      0.10321844
       3807.1007      0.27542937
       3807.7128      0.14750210
       3808.3250      0.28157696
       3808.9371      0.15412026
       3809.5493      0.22733040
       3810.1614      0.22804849
       3810.7736      0.14954019
       3811.3857      0.16444134
       3811.9979      0.15002729
       3812.6100      0.24272740
       3813.2222      0.15982214
       3813.8344      0.24840769
       3814.4465      0.25438271
       3815.0587      0.24663616
       3815.6708      0.26501549
       3816.2830      0.23952226
       3816.8951      0.21850962
       3817.5073      0.16122526
       3818.1194      0.23005431
       3818.7316      0.10063832
       3819.3437      0.16939358
       3819.9559      0.17212928
       3820.5680      0.27880205
       3821.1802      0.13079619
       3821.7924      0.32794416
       3822.4045      0.25045605
       3823.0167      0.16717714
       3823.6288      0.16535486
       3824.2410      0.27658822
       3824.8531      0.26929275
       3825.4653      0.29365489
       3826.0774      0.18407027
       3826.6896      0.25993065
       3827.3017      0.12121699
       3827.9139      0.20667883
       3828.5260      0.24347165
       3829.1382      0.23049601
       3829.7504      0.17408542
       3830.3625      0.20619689
       3830.9747      0.15341291
       3831.5868      0.12627691
       3832.1990      0.12864498
       3832.8111      0.20679315
       3833.4233     0.098602592
       3834.0354      0.22871680
       3834.6476      0.11552562
       3835.2597      0.22445793
       3835.8719      0.17744396
       3836.4840     0.070415713
       3837.0962     0.051311340
       3837.7084      0.14439192
       3838.3205      0.13722182
       3838.9327      0.11761555
       3839.5448     0.010132138
       3840.1570      0.13003000
       3840.7691     0.097385048
       3841.3813     0.096158529
       3841.9934     0.094331463
       3842.6056      0.20888039
       3843.2177      0.25825970
       3843.8299      0.20128742
       3844.4420      0.15105668
       3845.0542      0.16903337
       3845.6664      0.29074778
       3846.2785      0.22680136
       3846.8907      0.31018569
       3847.5028      0.25712462
       3848.1150      0.13822091
       3848.7271      0.29691948
       3849.3393      0.18929017
       3849.9514      0.19251305
       3850.5636      0.19808519
       3851.1757      0.22072714
       3851.7879      0.18386612
       3852.4000      0.26185078
       3853.0122      0.19740146
       3853.6244      0.16986408
       3854.2365      0.22922119
       3854.8487      0.24083847
       3855.4608      0.30157729
       3856.0730      0.26956279
       3856.6851      0.19019571
       3857.2973      0.25027523
       3857.9094      0.18613612
       3858.5216      0.32328364
       3859.1337      0.33580031
       3859.7459      0.16635221
       3860.3580      0.27971249
       3860.9702      0.23519150
       3861.5824      0.15218921
       3862.1945      0.21792380
       3862.8067      0.21855282
       3863.4188      0.15855973
       3864.0310      0.18999938
       3864.6431      0.13782714
       3865.2553      0.25801072
       3865.8674      0.23855208
       3866.4796      0.22513769
       3867.0917      0.25481326
       3867.7039      0.28592114
       3868.3160      0.21914066
       3868.9282      0.21222603
       3869.5404      0.22141705
       3870.1525      0.23233158
       3870.7647      0.22124960
       3871.3768      0.31804585
       3871.9890      0.10614837
       3872.6011      0.25534627
       3873.2133      0.17384976
       3873.8254      0.19128258
       3874.4376      0.23400989
       3875.0497      0.30941578
       3875.6619      0.16465923
       3876.2740      0.22952150
       3876.8862      0.20703085
       3877.4984      0.13608210
       3878.1105      0.18737462
       3878.7227      0.23755945
       3879.3348      0.18289572
       3879.9470      0.24206350
       3880.5591      0.23674233
       3881.1713      0.21194258
       3881.7834      0.26308380
       3882.3956      0.19942301
       3883.0077      0.23530429
       3883.6199      0.17146982
       3884.2320      0.15432786
       3884.8442      0.30427702
       3885.4564      0.27317848
       3886.0685      0.21580610
       3886.6807      0.13176845
       3887.2928      0.23109234
       3887.9050      0.13097844
       3888.5171      0.21620321
       3889.1293      0.22468177
       3889.7414      0.14903504
       3890.3536      0.22568047
       3890.9657      0.30810271
       3891.5779      0.26556983
       3892.1900      0.15823650
       3892.8022      0.22829359
       3893.4144      0.20776042
       3894.0265      0.10492630
       3894.6387      0.14376638
       3895.2508    0.0091262411
       3895.8630      0.10424844
       3896.4751      0.10188322
       3897.0873     0.023290144
       3897.6994      0.19326683
       3898.3116      0.20428440
       3898.9237      0.28818726
       3899.5359      0.20804794
       3900.1480      0.18361732
       3900.7602      0.34600405
       3901.3724      0.38296678
       3901.9845      0.35251083
       3902.5967      0.22825740
       3903.2088      0.28244336
       3903.8210      0.21700787
       3904.4331      0.20003585
       3905.0453      0.20804970
       3905.6574      0.30357755
       3906.2696      0.20329028
       3906.8817      0.22078727
       3907.4939      0.27602600
       3908.1060      0.33888664
       3908.7182      0.30533001
       3909.3304      0.29990271
       3909.9425      0.30158465
       3910.5547      0.29460566
       3911.1668      0.16858155
       3911.7790      0.18567760
       3912.3911      0.19794479
       3913.0033      0.20072123
       3913.6154      0.19133356
       3914.2276      0.22213597
       3914.8397      0.32607286
       3915.4519      0.37602660
       3916.0640      0.30829246
       3916.6762      0.28069570
       3917.2884      0.13977349
       3917.9005      0.27155649
       3918.5127     0.085860701
       3919.1248      0.20038513
       3919.7370      0.17462923
       3920.3491      0.27367320
       3920.9613      0.23065791
       3921.5734      0.28485469
       3922.1856      0.19036434
       3922.7977      0.24459255
       3923.4099      0.15872244
       3924.0220      0.20266987
       3924.6342      0.29063673
       3925.2464      0.16450914
       3925.8585      0.14231569
       3926.4707      0.11769136
       3927.0828      0.22402717
       3927.6950      0.17873117
       3928.3071      0.23445063
       3928.9193      0.24705017
       3929.5314      0.19528182
       3930.1436      0.18343824
       3930.7557      0.20798005
       3931.3679             NaN
       3931.9800             NaN
       3932.5922             NaN
       3933.2044             NaN
       3933.8165             NaN
       3934.4287             NaN
       3935.0408             NaN
       3935.6530             NaN
       3936.2651             NaN
       3936.8773             NaN
       3937.4894             NaN
       3938.1016             NaN
       3938.7137             NaN
       3939.3259             NaN
       3939.9380             NaN
       3940.5502             NaN
       3941.1623             NaN
       3941.7745             NaN
       3942.3867             NaN
       3942.9988             NaN
       3943.6110             NaN
       3944.2231             NaN
       3944.8353             NaN
       3945.4474             NaN
       3946.0596             NaN
       3946.6717             NaN
       3947.2839             NaN
       3947.8960             NaN
       3948.5082             NaN
       3949.1203             NaN
       3949.7325             NaN
       3950.3447             NaN
       3950.9568             NaN
       3951.5690             NaN
       3952.1811             NaN
       3952.7933             NaN
       3953.4054             NaN
       3954.0176             NaN
       3954.6297             NaN
       3955.2419             NaN
       3955.8540             NaN
       3956.4662             NaN
       3957.0783             NaN
       3957.6905             NaN
       3958.3027             NaN
       3958.9148             NaN
       3959.5270             NaN
       3960.1391             NaN
       3960.7513             NaN
       3961.3634             NaN
       3961.9756             NaN
       3962.5877             NaN
       3963.1999             NaN
       3963.8120             NaN
       3964.4242             NaN
       3965.0363             NaN
       3965.6485             NaN
       3966.2607             NaN
       3966.8728             NaN
       3967.4850             NaN
       3968.0971             NaN
       3968.7093             NaN
       3969.3214             NaN
       3969.9336             NaN
       3970.5457             NaN
       3971.1579             NaN
       3971.7700             NaN
       3972.3822             NaN
       3972.9943             NaN
       3973.6065             NaN
       3974.2187             NaN
       3974.8308             NaN
       3975.4430             NaN
       3976.0551             NaN
       3976.6673             NaN
       3977.2794             NaN
       3977.8916             NaN
       3978.5037             NaN
       3979.1159             NaN
       3979.7280             NaN
       3980.3402             NaN
       3980.9523             NaN
       3981.5645             NaN
       3982.1767             NaN
       3982.7888             NaN
       3983.4010             NaN
       3984.0131             NaN
       3984.6253             NaN
       3985.2374             NaN
       3985.8496      0.32493575
       3986.4617      0.19755815
       3987.0739     0.062624764
       3987.6860      0.12892676
       3988.2982     0.088170179
       3988.9103      0.17527042
       3989.5225      0.11809554
       3990.1347      0.22240082
       3990.7468      0.31754344
       3991.3590      0.31107235
       3991.9711      0.53905653
       3992.5833      0.24973496
       3993.1954      0.25547018
       3993.8076      0.20199008
       3994.4197      0.37588998
       3995.0319      0.33828862
       3995.6440     0.025533687
       3996.2562      0.12724295
       3996.8683      0.10464437
       3997.4805      0.21600727
       3998.0927      0.24445565
       3998.7048      0.17647907
       3999.3170      0.18372517
       3999.9291      0.16309591
       4000.5413      0.31025818
       4001.1534      0.39493738
       4001.7656      0.35222404
       4002.3777      0.28993590
       4002.9899      0.25657310
       4003.6020      0.16127251
       4004.2142      0.31648133
       4004.8263      0.20254612
       4005.4385      0.27187095
       4006.0507      0.30261726
       4006.6628      0.34162753
       4007.2750      0.40242423
       4007.8871      0.38466710
       4008.4993      0.38364286
       4009.1114      0.41868385
       4009.7236      0.42668785
       4010.3357      0.33367281
       4010.9479      0.10549803
       4011.5600      0.43728347
       4012.1722      0.38558417
       4012.7843     0.071546887
       4013.3965      0.26908778
       4014.0087      0.14726195
       4014.6208      0.39427239
       4015.2330      0.11608671
       4015.8451     0.041419287
       4016.4573      0.27839061
       4017.0694      0.22123017
       4017.6816      0.19925192
       4018.2937      0.30610120
       4018.9059      0.27472443
       4019.5180      0.28299603
       4020.1302      0.20476322
       4020.7423      0.34980266
       4021.3545      0.32869030
       4021.9667      0.10698900
       4022.5788      0.27336520
       4023.1910      0.15262241
       4023.8031      0.14330305
       4024.4153      0.29479828
       4025.0274      0.16457575
       4025.6396      0.26093901
       4026.2517      0.30241767
       4026.8639      0.26377304
       4027.4760      0.29293408
       4028.0882      0.24392811
       4028.7003      0.23360066
       4029.3125      0.21634898
       4029.9247      0.29056144
       4030.5368      0.32888064
       4031.1490      0.21781809
       4031.7611      0.37746401
       4032.3733      0.76599837
       4032.9854      0.71283446
       4033.5976      0.55030569
       4034.2097      0.32119353
       4034.8219     0.063791171
       4035.4340    -0.076989375
       4036.0462     0.064219317
       4036.6583      0.19484820
       4037.2705      0.15473340
       4037.8827      0.23622862
       4038.4948      0.22302817
       4039.1070      0.24436894
       4039.7191      0.22441014
       4040.3313      0.23069908
       4040.9434      0.18008970
       4041.5556      0.11839907
       4042.1677      0.19168862
       4042.7799      0.35540494
       4043.3920      0.25368900
       4044.0042      0.16004723
       4044.6163      0.13706329
       4045.2285      0.34017530
       4045.8407      0.33565988
       4046.4528      0.30942240
       4047.0650      0.32882754
       4047.6771      0.21560097
       4048.2893      0.36378344
       4048.9014      0.29706862
       4049.5136      0.19437862
       4050.1257      0.31979476
       4050.7379      0.14628150
       4051.3500      0.23974666
       4051.9622     0.093872412
       4052.5743      0.24225196
       4053.1865      0.24475703
       4053.7987      0.29306471
       4054.4108      0.19281267
       4055.0230      0.10598002
       4055.6351      0.26595094
       4056.2473      0.28238904
       4056.8594      0.17459374
       4057.4716      0.30083434
       4058.0837      0.31071390
       4058.6959      0.24951867
       4059.3080      0.12718052
       4059.9202      0.18212679
       4060.5323      0.28250468
       4061.1445      0.24151352
       4061.7567      0.24631860
       4062.3688      0.49142217
       4062.9810      0.39079437
       4063.5931      0.41748456
       4064.2053      0.36264614
       4064.8174      0.42272730
       4065.4296      0.21053340
       4066.0417    -0.012611252
       4066.6539      0.22608120
       4067.2660      0.14941787
       4067.8782      0.13375879
       4068.4903      0.29278485
       4069.1025    -0.011940664
       4069.7147      0.34645649
       4070.3268      0.20672262
       4070.9390      0.19238464
       4071.5511      0.20740486
       4072.1633      0.32239054
       4072.7754      0.40199575
       4073.3876      0.10960540
       4073.9997      0.28062863
       4074.6119      0.12333485
       4075.2240      0.36547194
       4075.8362      0.17397448
       4076.4483      0.22538470
       4077.0605      0.16329541
       4077.6727      0.33657891
       4078.2848      0.31897804
       4078.8970      0.16076915
       4079.5091     0.026678249
       4080.1213      0.23599017
       4080.7334     0.043935282
       4081.3456      0.22458144
       4081.9577      0.13314162
       4082.5699      0.32771178
       4083.1820      0.28897120
       4083.7942      0.25706978
       4084.4063      0.26104845
       4085.0185      0.27286063
       4085.6307     0.082827512
       4086.2428      0.18761645
       4086.8550      0.29838423
       4087.4671      0.29058706
       4088.0793      0.18510192
       4088.6914      0.28591427
       4089.3036      0.19309400
       4089.9157      0.28181010
       4090.5279      0.29345512
       4091.1400      0.31552417
       4091.7522      0.29834650
       4092.3643      0.23984382
       4092.9765      0.24057311
       4093.5887      0.24911259
       4094.2008      0.32152483
       4094.8130      0.22893609
       4095.4251      0.31195863
       4096.0373      0.14153703
       4096.6494      0.46059281
       4097.2616      0.15740179
       4097.8737     -0.10471012
       4098.4859    -0.037769665
       4099.0980      0.18316560
       4099.7102      0.25942752
       4100.3223      0.16744594
       4100.9345      0.29924588
       4101.5467     0.071155831
       4102.1588      0.19844355
       4102.7710      0.11991395
       4103.3831      0.21139266
       4103.9953      0.36756460
       4104.6074      0.25568544
       4105.2196      0.17727618
       4105.8317      0.32643070
       4106.4439      0.39807782
       4107.0560      0.23822233
       4107.6682      0.31823388
       4108.2803      0.15563468
       4108.8925      0.29069697
       4109.5047      0.24341100
       4110.1168      0.35157191
       4110.7290      0.15568201
       4111.3411      0.25464467
       4111.9533      0.23212659
       4112.5654      0.16129550
       4113.1776      0.19066074
       4113.7897      0.21155181
       4114.4019      0.20121968
       4115.0140      0.15612649
       4115.6262      0.12452902
       4116.2383      0.23382400
       4116.8505      0.17631151
       4117.4627     0.056467273
       4118.0748     0.045738124
       4118.6870      0.21832215
       4119.2991      0.21915415
       4119.9113      0.29134954
       4120.5234      0.22562147
       4121.1356      0.17502680
       4121.7477      0.17089922
       4122.3599      0.25282558
       4122.9720     0.018466399
       4123.5842      0.16639877
       4124.1963      0.15588998
       4124.8085     0.094096385
       4125.4207    -0.013542268
       4126.0328     0.098085541
       4126.6450      0.17149873
       4127.2571      0.28994896
       4127.8693      0.17464025
       4128.4814      0.15286051
       4129.0936      0.16104719
       4129.7057      0.33626884
       4130.3179      0.20987474
       4130.9300     0.076399823
       4131.5422      0.20847181
       4132.1543      0.13034580
       4132.7665     0.089709481
       4133.3787      0.23148761
       4133.9908      0.21795018
       4134.6030      0.19746130
       4135.2151      0.32478931
       4135.8273      0.38267945
       4136.4394      0.22488542
       4137.0516      0.35632329
       4137.6637    -0.079109348
       4138.2759    -0.097528814
       4138.8880     0.047538435
       4139.5002    -0.034455008
       4140.1123     0.096587666
       4140.7245     0.027991814
       4141.3367      0.18097971
       4141.9488      0.13926269
       4142.5610      0.28296409
       4143.1731      0.20812174
       4143.7853      0.26884145
       4144.3974      0.20596272
       4145.0096      0.22597702
       4145.6217      0.23768795
       4146.2339      0.25205140
       4146.8460      0.22317467
       4147.4582      0.19574971
       4148.0703      0.27230936
       4148.6825      0.15849483
       4149.2947      0.28323045
       4149.9068      0.27771462
       4150.5190      0.28779086
       4151.1311      0.30344495
       4151.7433      0.15667164
       4152.3554      0.32339298
       4152.9676      0.29259309
       4153.5797      0.27165619
       4154.1919      0.15329115
       4154.8040      0.10456300
       4155.4162      0.20088019
       4156.0283      0.28934583
       4156.6405      0.14163296
       4157.2527      0.10506944
       4157.8648      0.18205406
       4158.4770      0.26036859
       4159.0891      0.18442366
       4159.7013      0.13322853
       4160.3134      0.21970492
       4160.9256      0.16710199
       4161.5377      0.26635432
       4162.1499      0.32568935
       4162.7620      0.14815017
       4163.3742      0.29372247
       4163.9863      0.22742030
       4164.5985      0.17351937
       4165.2107      0.24963646
       4165.8228      0.22988442
       4166.4350      0.26070563
       4167.0471      0.31367412
       4167.6593      0.20045847
       4168.2714      0.16313767
       4168.8836      0.23284845
       4169.4957      0.21727970
       4170.1079      0.20874514
       4170.7200      0.27652459
       4171.3322      0.29765883
       4171.9443      0.20445286
       4172.5565      0.29568844
       4173.1687      0.19001790
       4173.7808      0.16962164
       4174.3930      0.40637301
       4175.0051      0.11283427
       4175.6173      0.14597145
       4176.2294      0.24470856
       4176.8416     0.058480268
       4177.4537      0.17103682
       4178.0659      0.20389767
       4178.6780      0.25667314
       4179.2902      0.28152383
       4179.9023      0.23015572
       4180.5145      0.22478203
       4181.1267      0.23643055
       4181.7388      0.19143192
       4182.3510      0.22542504
       4182.9631      0.23409405
       4183.5753      0.21774055
       4184.1874      0.21210508
       4184.7996      0.21347815
       4185.4117      0.14427211
       4186.0239      0.26410829
       4186.6360      0.26597989
       4187.2482      0.24748405
       4187.8603      0.15190446
       4188.4725      0.26962920
       4189.0847      0.24153183
       4189.6968      0.36077434
       4190.3090      0.27646905
       4190.9211      0.21126472
       4191.5333      0.15944432
       4192.1454      0.15342292
       4192.7576      0.20710330
       4193.3697      0.28890357
       4193.9819      0.18511285
       4194.5940      0.26582211
       4195.2062      0.33451501
       4195.8183      0.21711500
       4196.4305      0.24249784
       4197.0427      0.25441080
       4197.6548      0.16938899
       4198.2670      0.25012839
       4198.8791      0.27881074
       4199.4913      0.20930170
       4200.1034      0.21968573
       4200.7156      0.22347144
       4201.3277      0.17444158
       4201.9399      0.34565944
       4202.5520      0.21449467
       4203.1642      0.22272716
       4203.7763      0.18449467
       4204.3885      0.21528523
       4205.0007      0.20789797
       4205.6128      0.14348641
       4206.2250      0.13975262
       4206.8371      0.21653372
       4207.4493      0.25035924
       4208.0614      0.21036119
       4208.6736      0.23386830
       4209.2857      0.27787143
       4209.8979      0.10652125
       4210.5100      0.23420348
       4211.1222      0.22263617
       4211.7343      0.30303575
       4212.3465      0.23054918
       4212.9587      0.27778048
       4213.5708      0.26451165
       4214.1830      0.26314205
       4214.7951      0.29422738
       4215.4073      0.23443729
       4216.0194      0.21684064
       4216.6316      0.21966350
       4217.2437      0.22687900
       4217.8559      0.19666837
       4218.4680      0.26529450
       4219.0802      0.30968094
       4219.6923      0.19789537
       4220.3045      0.33140377
       4220.9167      0.27843042
       4221.5288      0.17810189
       4222.1410      0.17661179
       4222.7531      0.22816517
       4223.3653      0.13748012
       4223.9774      0.19010678
       4224.5896      0.18843989
       4225.2017      0.33504219
       4225.8139      0.22314649
       4226.4260      0.20337531
       4227.0382      0.13294255
       4227.6503      0.20343615
       4228.2625      0.24921522
       4228.8747      0.27367193
       4229.4868      0.21838247
       4230.0990      0.10051882
       4230.7111      0.26490105
       4231.3233      0.28314273
       4231.9354      0.31148763
       4232.5476      0.15930515
       4233.1597      0.23501458
       4233.7719      0.14838080
       4234.3840      0.26259080
       4234.9962      0.17308224
       4235.6083      0.38569263
       4236.2205      0.35365909
       4236.8327      0.33661555
       4237.4448      0.29819653
       4238.0570      0.25547711
       4238.6691      0.23686939
       4239.2813      0.28114023
       4239.8934      0.23313290
       4240.5056      0.29266067
       4241.1177      0.26128820
       4241.7299      0.29669168
       4242.3420      0.20902056
       4242.9542      0.15321439
       4243.5663      0.23489171
       4244.1785      0.30688053
       4244.7906      0.26063001
       4245.4028      0.38226613
       4246.0150      0.21831256
       4246.6271      0.30109899
       4247.2393      0.38750189
       4247.8514      0.28005092
       4248.4636      0.27993368
       4249.0757      0.21748717
       4249.6879      0.24147413
       4250.3000      0.31266978
       4250.9122      0.26619191
       4251.5243      0.25544420
       4252.1365      0.22725072
       4252.7486      0.23825993
       4253.3608      0.21495712
       4253.9730      0.23150820
       4254.5851      0.25200506
       4255.1973      0.21805675
       4255.8094      0.22378986
       4256.4216      0.27567184
       4257.0337      0.25565262
       4257.6459      0.23611004
       4258.2580      0.21446663
       4258.8702      0.22897383
       4259.4823      0.23498849
       4260.0945      0.19746154
       4260.7066      0.23532340
       4261.3188      0.18544760
       4261.9310      0.28360584
       4262.5431      0.32779676
       4263.1553      0.26915734
       4263.7674      0.31951141
       4264.3796      0.20514086
       4264.9917      0.18340085
       4265.6039      0.24470940
       4266.2160      0.26312671
       4266.8282      0.17661411
       4267.4403      0.18006437
       4268.0525      0.15009599
       4268.6646      0.19197589
       4269.2768      0.22236287
       4269.8890      0.28197187
       4270.5011      0.21408762
       4271.1133      0.21952851
       4271.7254      0.22924041
       4272.3376      0.20596560
       4272.9497      0.17906834
       4273.5619      0.22631105
       4274.1740      0.20458516
       4274.7862      0.16110159
       4275.3983      0.29011498
       4276.0105      0.23459938
       4276.6226      0.18806876
       4277.2348      0.15809300
       4277.8470      0.24021954
       4278.4591      0.19227384
       4279.0713      0.27657084
       4279.6834      0.17175892
       4280.2956      0.19986307
       4280.9077      0.13333460
       4281.5199      0.20654877
       4282.1320      0.27116437
       4282.7442      0.31036267
       4283.3563      0.28116429
       4283.9685      0.34108119
       4284.5806      0.39193019
       4285.1928      0.15585201
       4285.8050      0.44101387
       4286.4171      0.34225084
       4287.0293      0.24166016
       4287.6414      0.40547248
       4288.2536      0.19282472
       4288.8657      0.32846874
       4289.4779      0.39170942
       4290.0900      0.23474426
       4290.7022      0.16292711
       4291.3143      0.21928323
       4291.9265      0.13778345
       4292.5386      0.14013366
       4293.1508      0.27331023
       4293.7630      0.34183526
       4294.3751      0.37955831
       4294.9873      0.27037403
       4295.5994      0.21180115
       4296.2116     0.096673186
       4296.8237    -0.016098443
       4297.4359     0.088112286
       4298.0480      0.19483354
       4298.6602      0.37132179
       4299.2723      0.17708045
       4299.8845      0.27715791
       4300.4966      0.22820187
       4301.1088      0.25356332
       4301.7210     0.087746901
       4302.3331      0.16554902
       4302.9453      0.28635501
       4303.5574      0.27473051
       4304.1696      0.10654349
       4304.7817      0.25760175
       4305.3939      0.30198262
       4306.0060      0.23924285
       4306.6182      0.30982163
       4307.2303      0.30123725
       4307.8425      0.24223389
       4308.4546      0.25513200
       4309.0668      0.23286399
       4309.6790      0.25313288
       4310.2911      0.22212024
       4310.9033      0.11322607
       4311.5154      0.18917687
       4312.1276      0.18028399
       4312.7397      0.26388724
       4313.3519      0.21352812
       4313.9640      0.10402764
       4314.5762      0.24047934
       4315.1883      0.21945102
       4315.8005      0.21803983
       4316.4126      0.25726114
       4317.0248      0.26647339
       4317.6370      0.42983290
       4318.2491      0.27632852
       4318.8613      0.23104838
       4319.4734     -0.24309229
       4320.0856      0.36983481
       4320.6977    -0.064112235
       4321.3099    -0.084125294
       4321.9220      0.11447600
       4322.5342    -0.021254654
       4323.1463     0.086273748
       4323.7585      0.15349908
       4324.3706      0.26730386
       4324.9828     0.052906343
       4325.5950     0.090138624
       4326.2071      0.14879047
       4326.8193      0.26202769
       4327.4314      0.14225334
       4328.0436      0.10875357
       4328.6557     0.084794709
       4329.2679      0.21929141
       4329.8800      0.25365851
       4330.4922      0.10144766
       4331.1043     0.075269510
       4331.7165      0.14869472
       4332.3286      0.21654667
       4332.9408      0.19454881
       4333.5530      0.30484236
       4334.1651      0.22967156
       4334.7773      0.28763164
       4335.3894      0.28845528
       4336.0016      0.28013046
       4336.6137      0.28254054
       4337.2259      0.30770733
       4337.8380      0.18871042
       4338.4502      0.28953831
       4339.0623      0.29662254
       4339.6745      0.19976754
       4340.2866      0.24493457
       4340.8988      0.35638127
       4341.5110      0.23172179
       4342.1231      0.14004182
       4342.7353      0.27404124
       4343.3474      0.28792177
       4343.9596      0.26902731
       4344.5717      0.32018506
       4345.1839      0.44698501
       4345.7960      0.58036233
       4346.4082      0.61142529
       4347.0203      0.35131296
       4347.6325      0.31524949
       4348.2446      0.31360965
       4348.8568      0.32911545
       4349.4690      0.33967605
       4350.0811     0.098237261
       4350.6933      0.21756895
       4351.3054      0.35832665
       4351.9176      0.11330229
       4352.5297      0.20432576
       4353.1419      0.12572132
       4353.7540      0.18844611
       4354.3662      0.32941784
       4354.9783      0.30258441
       4355.5905      0.31352627
       4356.2026     0.098839615
       4356.8148     0.046955912
       4357.4270      0.12186437
       4358.0391      0.11069477
       4358.6513      0.26535816
       4359.2634      0.10345532
       4359.8756      0.19332942
       4360.4877      0.34999590
       4361.0999      0.34213963
       4361.7120      0.26966253
       4362.3242      0.28715070
       4362.9363      0.29302699
       4363.5485      0.43411189
       4364.1606      0.28968722
       4364.7728      0.35017623
       4365.3850      0.18527622
       4365.9971      0.14236827
       4366.6093     0.075127112
       4367.2214      0.22646653
       4367.8336      0.15699809
       4368.4457      0.19109783
       4369.0579      0.22612506
       4369.6700      0.22583698
       4370.2822      0.25612267
       4370.8943      0.16655099
       4371.5065      0.25748773
       4372.1186      0.16317777
       4372.7308      0.29718511
       4373.3430      0.17842325
       4373.9551      0.40473300
       4374.5673      0.21696734
       4375.1794      0.19693575
       4375.7916      0.16615503
       4376.4037      0.24003314
       4377.0159      0.19240616
       4377.6280      0.13780979
       4378.2402      0.22039033
       4378.8523      0.19354884
       4379.4645      0.41469804
       4380.0766      0.31606039
       4380.6888      0.46185174
       4381.3010      0.26732432
       4381.9131      0.34124183
       4382.5253      0.20221874
       4383.1374      0.11015052
       4383.7496      0.11267748
       4384.3617      0.18568387
       4384.9739      0.20019980
       4385.5860      0.17743274
       4386.1982      0.16664534
       4386.8103      0.25875017
       4387.4225      0.17766687
       4388.0346      0.22306825
       4388.6468      0.22309385
       4389.2590      0.18559425
       4389.8711      0.25812714
       4390.4833      0.20152658
       4391.0954      0.30834668
       4391.7076      0.16547206
       4392.3197      0.30051493
       4392.9319      0.29230237
       4393.5440      0.19139530
       4394.1562      0.19512262
       4394.7683      0.18683175
       4395.3805      0.23816150
       4395.9926      0.34300897
       4396.6048      0.17985546
       4397.2170      0.24715698
       4397.8291      0.15550810
       4398.4413      0.21133910
       4399.0534      0.23787096
       4399.6656      0.20416946
       4400.2777      0.25383051
       4400.8899      0.30409040
       4401.5020      0.21044069
       4402.1142      0.33114598
       4402.7263     0.098738600
       4403.3385      0.20683717
       4403.9506      0.13335380
       4404.5628      0.13620409
       4405.1750      0.12761208
       4405.7871      0.25840086
       4406.3993      0.31927305
       4407.0114      0.18917890
       4407.6236      0.25112790
       4408.2357      0.16747748
       4408.8479      0.28546056
       4409.4600      0.12750947
       4410.0722      0.21681808
       4410.6843      0.26477465
       4411.2965      0.34035659
       4411.9086      0.27527185
       4412.5208      0.22450600
       4413.1330      0.20240677
       4413.7451      0.15002217
       4414.3573      0.21896757
       4414.9694      0.19505465
       4415.5816      0.24070210
       4416.1937      0.23076169
       4416.8059      0.13721146
       4417.4180      0.29173303
       4418.0302      0.33933946
       4418.6423      0.30607446
       4419.2545      0.28612648
       4419.8666      0.24668570
       4420.4788      0.19099691
       4421.0910      0.17928684
       4421.7031      0.19352741
       4422.3153      0.28596223
       4422.9274      0.29348161
       4423.5396      0.30778942
       4424.1517      0.38441394
       4424.7639      0.37498320
       4425.3760      0.18556200
       4425.9882      0.18602252
       4426.6003      0.17886413
       4427.2125      0.27648715
       4427.8246      0.22940521
       4428.4368      0.17391793
       4429.0490      0.27203253
       4429.6611      0.20173744
       4430.2733      0.30023115
       4430.8854      0.30736129
       4431.4976      0.24870463
       4432.1097      0.24754079
       4432.7219      0.21690367
       4433.3340      0.22001070
       4433.9462      0.22100520
       4434.5583      0.17726685
       4435.1705      0.14225689
       4435.7826      0.21603415
       4436.3948      0.27672543
       4437.0070      0.19351215
       4437.6191      0.29196100
       4438.2313      0.32755257
       4438.8434      0.20575528
       4439.4556      0.23963351
       4440.0677      0.24303714
       4440.6799      0.33759254
       4441.2920      0.25289923
       4441.9042      0.19670849
       4442.5163      0.15617709
       4443.1285      0.25579514
       4443.7406      0.15489614
       4444.3528      0.24678488
       4444.9650      0.21756990
       4445.5771      0.25991681
       4446.1893      0.31881397
       4446.8014      0.13743539
       4447.4136      0.18300442
       4448.0257      0.26523300
       4448.6379      0.27096081
       4449.2500      0.19775740
       4449.8622      0.31759590
       4450.4743      0.26222904
       4451.0865      0.19387645
       4451.6986      0.21573789
       4452.3108      0.20098698
       4452.9230      0.10182109
       4453.5351      0.28200085
       4454.1473      0.22539727
       4454.7594      0.21007435
       4455.3716      0.36850351
       4455.9837      0.19880417
       4456.5959      0.30475876
       4457.2080      0.27872246
       4457.8202      0.25094366
       4458.4323      0.37469974
       4459.0445     0.075023075
       4459.6566      0.35810322
       4460.2688     0.098536085
       4460.8810      0.18464753
       4461.4931      0.29319307
       4462.1053      0.29510468
       4462.7174      0.28269979
       4463.3296      0.27373291
       4463.9417      0.25096768
       4464.5539   -0.0074542727
       4465.1660     -0.22891491
       4465.7782    -0.081908276
       4466.3903      0.22141736
       4467.0025     0.016928806
       4467.6146     0.015284522
       4468.2268      0.12578611
       4468.8390     0.051723462
       4469.4511     0.068083873
       4470.0633      0.24152800
       4470.6754      0.33232816
       4471.2876      0.26730991
       4471.8997      0.17255733
       4472.5119      0.39382126
       4473.1240      0.24931719
       4473.7362      0.31697591
       4474.3483      0.27288419
       4474.9605      0.35541995
       4475.5726      0.36094170
       4476.1848      0.36942549
       4476.7970      0.47088461
       4477.4091      0.54464591
       4478.0213      0.44126372
       4478.6334      0.26957616
       4479.2456      0.29453585
       4479.8577    -0.058636589
       4480.4699      0.18572192
       4481.0820      0.11414552
       4481.6942      0.23225556
       4482.3063      0.16124637
       4482.9185    -0.059952462
       4483.5306      0.19434653
       4484.1428      0.26721765
       4484.7550      0.41711146
       4485.3671      0.33638685
       4485.9793      0.39028343
       4486.5914      0.10703661
       4487.2036      0.16247697
       4487.8157      0.15853409
       4488.4279      0.20694540
       4489.0400      0.31674845
       4489.6522      0.23383131
       4490.2643     0.095588630
       4490.8765      0.34967023
       4491.4886     0.021051958
       4492.1008      0.24964467
       4492.7130      0.14479273
       4493.3251      0.11253635
       4493.9373      0.36410016
       4494.5494      0.28974828
       4495.1616      0.35387758
       4495.7737      0.19333391
       4496.3859      0.18805444
       4496.9980      0.15726991
       4497.6102      0.20960775
       4498.2223      0.24507449
       4498.8345      0.30852856
       4499.4466      0.17976809
       4500.0588      0.20722082
       4500.6710      0.35078250
       4501.2831      0.25228841
       4501.8953      0.16225035
       4502.5074      0.26330740
       4503.1196      0.22416656
       4503.7317      0.26393478
       4504.3439      0.23453268
       4504.9560      0.17425866
       4505.5682      0.25162031
       4506.1803      0.29653724
       4506.7925      0.29064317
       4507.4046      0.21323652
       4508.0168      0.26375581
       4508.6290      0.28692340
       4509.2411      0.30634708
       4509.8533      0.26473637
       4510.4654      0.26014466
       4511.0776      0.30898306
       4511.6897      0.31204358
       4512.3019      0.29367016
       4512.9140      0.30523339
       4513.5262      0.33088643
       4514.1383      0.32624420
       4514.7505      0.28651447
       4515.3626      0.29748777
       4515.9748      0.25046697
       4516.5870      0.28779703
       4517.1991      0.12818430
       4517.8113      0.19331218
       4518.4234      0.26662713
       4519.0356      0.26140545
       4519.6477      0.25962498
       4520.2599      0.19087239
       4520.8720      0.28280713
       4521.4842      0.23905157
       4522.0963      0.32342460
       4522.7085      0.27816981
       4523.3206      0.18033999
       4523.9328      0.25270370
       4524.5450      0.26598918
       4525.1571      0.23080569
       4525.7693      0.31774771
       4526.3814      0.17464252
       4526.9936      0.22243823
       4527.6057      0.33069139
       4528.2179      0.20654670
       4528.8300      0.28606181
       4529.4422      0.22305981
       4530.0543      0.26688604
       4530.6665      0.24320441
       4531.2786      0.25312394
       4531.8908      0.26566236
       4532.5030      0.34961320
       4533.1151      0.40202458
       4533.7273     0.091719257
       4534.3394      0.22277657
       4534.9516      0.28164753
       4535.5637      0.46411475
       4536.1759      0.13983366
       4536.7880     0.039734011
       4537.4002      0.40237613
       4538.0123     0.036865346
       4538.6245    -0.044904507
       4539.2366      0.16975613
       4539.8488     0.044210026
       4540.4609      0.20357807
       4541.0731      0.20549486
       4541.6853    -0.029301227
       4542.2974      0.25007740
       4542.9096     0.023658795
       4543.5217   -0.0068945746
       4544.1339     -0.12318498
       4544.7460   -0.0090715631
       4545.3582      0.19475160
       4545.9703      0.21966474
       4546.5825      0.25288531
       4547.1946      0.30325509
       4547.8068      0.36160488
       4548.4189      0.41228009
       4549.0311      0.44868216
       4549.6433      0.38169468
       4550.2554      0.30905161
       4550.8676      0.20444206
       4551.4797      0.20982731
       4552.0919      0.29417436
       4552.7040      0.19798841
       4553.3162      0.27656267
       4553.9283      0.16613813
       4554.5405      0.26765752
       4555.1526      0.26856058
       4555.7648      0.19191653
       4556.3769      0.18588330
       4556.9891      0.35954916
       4557.6013      0.29572035
       4558.2134      0.26487980
       4558.8256      0.33592498
       4559.4377      0.40936314
       4560.0499      0.29752725
       4560.6620      0.34261476
       4561.2742      0.13295568
       4561.8863      0.19659562
       4562.4985      0.17783914
       4563.1106      0.32523695
       4563.7228      0.25708812
       4564.3349      0.30344350
       4564.9471      0.36974164
       4565.5593      0.40293110
       4566.1714      0.45274439
       4566.7836      0.68624364
       4567.3957      0.42074761
       4568.0079      0.47636981
       4568.6200      0.37807199
       4569.2322     -0.15420867
       4569.8443     0.086197817
       4570.4565      0.30826093
       4571.0686    -0.076845501
       4571.6808      0.29081976
       4572.2929      0.25424151
       4572.9051      0.32928851
       4573.5173      0.19360532
       4574.1294      0.32039409
       4574.7416      0.16375225
       4575.3537      0.17680295
       4575.9659     0.069340316
       4576.5780      0.18979191
       4577.1902      0.33530406
       4577.8023      0.24300894
       4578.4145      0.29624035
       4579.0266      0.27263626
       4579.6388      0.12452058
       4580.2509      0.16578388
       4580.8631      0.40421617
       4581.4753      0.29937193
       4582.0874      0.37027720
       4582.6996      0.32547602
       4583.3117      0.24405167
       4583.9239      0.27873343
       4584.5360      0.30553957
       4585.1482      0.33655122
       4585.7603      0.32036674
       4586.3725      0.31712358
       4586.9846      0.42958451
       4587.5968      0.36760770
       4588.2089      0.31179314
       4588.8211      0.29954279
       4589.4333      0.24281728
       4590.0454      0.24235944
       4590.6576     0.018977814
       4591.2697     0.098799200
       4591.8819      0.27522267
       4592.4940      0.29106869
       4593.1062      0.22049301
       4593.7183      0.29146716
       4594.3305      0.36967094
       4594.9426      0.33835286
       4595.5548      0.28877202
       4596.1669      0.30078041
       4596.7791      0.38872600
       4597.3913      0.51011119
       4598.0034      0.53479762
       4598.6156      0.62562812
       4599.2277      0.77351984
       4599.8399      0.78208770
       4600.4520      0.47099506
       4601.0642      0.54635402
       4601.6763      0.51689249
       4602.2885      0.46882610
       4602.9006      0.32417804
       4603.5128      0.26152802
       4604.1249      0.39021458
       4604.7371      0.45539633
       4605.3493      0.45162486
       4605.9614      0.55108413
       4606.5736      0.39930867
       4607.1857      0.33459446
       4607.7979      0.17905973
       4608.4100      0.15230805
       4609.0222      0.15344254
       4609.6343      0.22516014
       4610.2465     0.089109418
       4610.8586      0.20909644
       4611.4708      0.27191624
       4612.0829      0.36056081
       4612.6951      0.34604701
       4613.3073      0.39175586
       4613.9194      0.50951974
       4614.5316      0.20650795
       4615.1437      0.52996943
       4615.7559      0.32149439
       4616.3680     0.091983587
       4616.9802      0.12277189
       4617.5923      0.19231979
       4618.2045     0.041478631
       4618.8166     0.053608539
       4619.4288      0.22924899
       4620.0409      0.15060686
       4620.6531      0.30394115
       4621.2653      0.29255284
       4621.8774      0.27022173
       4622.4896      0.26007462
       4623.1017      0.32088351
       4623.7139      0.32634727
       4624.3260      0.39232953
       4624.9382      0.35840656
       4625.5503      0.28875524
       4626.1625      0.38049441
       4626.7746      0.33572147
       4627.3868      0.43341153
       4627.9989      0.16881714
       4628.6111      0.25462973
       4629.2233     0.092077966
       4629.8354      0.29979267
       4630.4476      0.15210055
       4631.0597      0.17329199
       4631.6719      0.15407496
       4632.2840      0.26784128
       4632.8962      0.50726946
       4633.5083      0.54739937
       4634.1205      0.26174347
       4634.7326     0.020688455
       4635.3448      0.39268994
       4635.9569      0.32532478
       4636.5691      0.24575840
       4637.1813      0.27572496
       4637.7934      0.13825331
       4638.4056      0.26603224
       4639.0177     0.036069196
       4639.6299      0.23033197
       4640.2420      0.21480527
       4640.8542      0.14981264
       4641.4663      0.34071362
       4642.0785      0.30469559
       4642.6906      0.24246653
       4643.3028      0.18296961
       4643.9149      0.14972154
       4644.5271      0.15511319
       4645.1393      0.19903078
       4645.7514      0.17594630
       4646.3636      0.20628091
       4646.9757      0.27186895
       4647.5879      0.25072443
       4648.2000      0.38642285
       4648.8122      0.33953491
       4649.4243      0.30386502
       4650.0365      0.20878423
       4650.6486      0.22837999
       4651.2608      0.32924081
       4651.8729     0.035453610
       4652.4851     0.048951403
       4653.0973      0.28294201
       4653.7094      0.19697224
       4654.3216      0.24139177
       4654.9337      0.37058820
       4655.5459      0.45069692
       4656.1580      0.23235179
       4656.7702      0.12137647
       4657.3823      0.27055379
       4657.9945      0.22227114
       4658.6066      0.19541608
       4659.2188     0.027275718
       4659.8309      0.11972194
       4660.4431      0.16989745
       4661.0553      0.23965061
       4661.6674      0.20032673
       4662.2796      0.19657819
       4662.8917      0.26686857
       4663.5039      0.26852354
       4664.1160      0.26055004
       4664.7282      0.33026917
       4665.3403      0.32348499
       4665.9525      0.30230482
       4666.5646      0.15926356
       4667.1768      0.29766746
       4667.7889      0.26776525
       4668.4011      0.21542399
       4669.0133      0.23746525
       4669.6254      0.21362195
       4670.2376      0.15349680
       4670.8497      0.28978523
       4671.4619      0.28519124
       4672.0740      0.20746020
       4672.6862      0.21883485
       4673.2983      0.24367597
       4673.9105      0.36204378
       4674.5226      0.30857069
       4675.1348      0.34211006
       4675.7469      0.28578536
       4676.3591      0.23562218
       4676.9713     0.034242423
       4677.5834      0.20464949
       4678.1956      0.13578085
       4678.8077      0.29315255
       4679.4199      0.37282260
       4680.0320      0.19459253
       4680.6442      0.34965574
       4681.2563      0.38056028
       4681.8685      0.31388749
       4682.4806      0.42341460
       4683.0928     0.027345564
       4683.7049      0.17098740
       4684.3171      0.16880475
       4684.9293      0.17344888
       4685.5414      0.12239619
       4686.1536      0.30817887
       4686.7657      0.34488358
       4687.3779      0.28793637
       4687.9900      0.38374384
       4688.6022      0.33523374
       4689.2143      0.28958951
       4689.8265      0.34461744
       4690.4386      0.40611060
       4691.0508      0.29678923
       4691.6629      0.29583782
       4692.2751      0.38352037
       4692.8873      0.34275705
       4693.4994      0.20520904
       4694.1116      0.24358276
       4694.7237      0.19249295
       4695.3359      0.27417546
       4695.9480      0.27205054
       4696.5602      0.27923462
       4697.1723      0.37243897
       4697.7845      0.29123645
       4698.3966      0.30997809
       4699.0088      0.41081532
       4699.6209      0.25930767
       4700.2331      0.29970317
       4700.8453      0.32109321
       4701.4574      0.22350791
       4702.0696      0.26866136
       4702.6817      0.24822929
       4703.2939      0.30531460
       4703.9060      0.28732285
       4704.5182      0.16344542
       4705.1303      0.22140821
       4705.7425      0.13324840
       4706.3546      0.19629017
       4706.9668      0.33796299
       4707.5789      0.30988076
       4708.1911      0.35863707
       4708.8033      0.30070275
       4709.4154      0.42100423
       4710.0276      0.29064644
       4710.6397      0.22941595
       4711.2519      0.22281999
       4711.8640      0.17749200
       4712.4762      0.20581056
       4713.0883      0.25256620
       4713.7005      0.30500547
       4714.3126      0.19751766
       4714.9248      0.27770700
       4715.5369      0.34631532
       4716.1491      0.24390195
       4716.7613      0.31279996
       4717.3734      0.29307675
       4717.9856      0.23942693
       4718.5977      0.33745560
       4719.2099      0.31070567
       4719.8220      0.32213960
       4720.4342      0.30468209
       4721.0463      0.35273225
       4721.6585      0.32848135
       4722.2706      0.23921298
       4722.8828      0.36195848
       4723.4949      0.23827379
       4724.1071      0.21645421
       4724.7193      0.27296371
       4725.3314      0.27716092
       4725.9436      0.26714609
       4726.5557      0.31640049
       4727.1679      0.24091608
       4727.7800      0.23776270
       4728.3922      0.28652030
       4729.0043      0.22979493
       4729.6165      0.29486940
       4730.2286      0.20519309
       4730.8408      0.36157435
       4731.4529      0.39492780
       4732.0651      0.47557634
       4732.6773      0.31407527
       4733.2894      0.20687018
       4733.9016      0.32823969
       4734.5137      0.29751528
       4735.1259      0.20254552
       4735.7380      0.23698276
       4736.3502      0.26499817
       4736.9623      0.24790993
       4737.5745      0.43004407
       4738.1866      0.25276160
       4738.7988      0.26619733
       4739.4109      0.41466979
       4740.0231      0.38260224
       4740.6353      0.25049314
       4741.2474      0.32517207
       4741.8596      0.28934591
       4742.4717      0.20044587
       4743.0839      0.36344631
       4743.6960      0.37614328
       4744.3082      0.29280159
       4744.9203      0.30858719
       4745.5325      0.25822678
       4746.1446      0.23263344
       4746.7568      0.33974866
       4747.3689      0.33855471
       4747.9811      0.29129915
       4748.5933      0.31271957
       4749.2054      0.22284314
       4749.8176      0.26196197
       4750.4297      0.23740421
       4751.0419      0.39348762
       4751.6540      0.25274892
       4752.2662      0.30247527
       4752.8783      0.31056097
       4753.4905      0.29916336
       4754.1026      0.37113381
       4754.7148      0.22960935
       4755.3269      0.32773848
       4755.9391      0.30886079
       4756.5513      0.21636379
       4757.1634      0.38917305
       4757.7756      0.34625768
       4758.3877      0.34167159
       4758.9999      0.27280045
       4759.6120      0.32663371
       4760.2242      0.28854435
       4760.8363      0.27106968
       4761.4485      0.28301036
       4762.0606      0.36805960
       4762.6728      0.29933335
       4763.2849      0.18788391
       4763.8971      0.30979503
       4764.5093      0.42632268
       4765.1214      0.43702298
       4765.7336      0.30249237
       4766.3457      0.37921271
       4766.9579      0.40926874
       4767.5700      0.31847556
       4768.1822      0.37563867
       4768.7943      0.18807469
       4769.4065      0.24522056
       4770.0186      0.24798822
       4770.6308      0.28944016
       4771.2429      0.29116835
       4771.8551      0.23018356
       4772.4673      0.32018720
       4773.0794      0.36368669
       4773.6916      0.32748784
       4774.3037      0.38624127
       4774.9159      0.24743042
       4775.5280      0.25896329
       4776.1402      0.23477631
       4776.7523      0.35635965
       4777.3645      0.30378385
       4777.9766      0.22384591
       4778.5888      0.32284475
       4779.2009      0.29561030
       4779.8131      0.33665145
       4780.4253      0.27028876
       4781.0374      0.24256097
       4781.6496      0.33567670
       4782.2617      0.33739793
       4782.8739      0.29109497
       4783.4860      0.22194717
       4784.0982      0.25379078
       4784.7103      0.27374793
       4785.3225      0.32257190
       4785.9346      0.24175134
       4786.5468      0.16238287
       4787.1589      0.24894873
       4787.7711      0.35851463
       4788.3833      0.27343427
       4788.9954      0.32781520
       4789.6076      0.25538986
       4790.2197      0.23162638
       4790.8319      0.29621092
       4791.4440      0.29778530
       4792.0562      0.16393921
       4792.6683      0.19968067
       4793.2805      0.28191358
       4793.8926      0.39338081
       4794.5048      0.29921886
       4795.1169      0.26692622
       4795.7291      0.32445985
       4796.3413      0.33972685
       4796.9534      0.40802744
       4797.5656      0.28502365
       4798.1777      0.34392106
       4798.7899      0.45264871
       4799.4020      0.31076429
       4800.0142      0.33433956
       4800.6263      0.28329224
       4801.2385      0.43363534
       4801.8506      0.37263653
       4802.4628      0.29549193
       4803.0749      0.26576045
       4803.6871      0.36386095
       4804.2993      0.38639924
       4804.9114      0.25953426
       4805.5236      0.27968457
       4806.1357      0.46476214
       4806.7479      0.40655806
       4807.3600      0.41753001
       4807.9722      0.43927348
       4808.5843      0.39832497
       4809.1965     0.088872469
       4809.8086      0.27991063
       4810.4208      0.42322868
       4811.0329      0.30070457
       4811.6451      0.11352617
       4812.2573      0.14615888
       4812.8694     0.062702270
       4813.4816      0.26655611
       4814.0937      0.23506692
       4814.7059      0.55275962
       4815.3180      0.44877836
       4815.9302      0.34463792
       4816.5423     0.022667943
       4817.1545     -0.17485504
       4817.7666      0.16245986
       4818.3788      0.30522363
       4818.9909     -0.24305215
       4819.6031     0.039326797
       4820.2153     0.055784149
       4820.8274      0.16821773
       4821.4396      0.29675254
       4822.0517      0.29841648
       4822.6639      0.22265144
       4823.2760      0.10342361
       4823.8882      0.19835947
       4824.5003     0.041451471
       4825.1125     0.068753550
       4825.7246      0.20987271
       4826.3368      0.16623790
       4826.9489      0.23519052
       4827.5611      0.26449007
       4828.1733      0.34612460
       4828.7854  -0.00066372880
       4829.3976      0.27083321
       4830.0097      0.25044357
       4830.6219      0.32375190
       4831.2340      0.28218878
       4831.8462      0.10755658
       4832.4583     0.057296102
       4833.0705      0.16984300
       4833.6826      0.17986345
       4834.2948      0.31249669
       4834.9069      0.28732768
       4835.5191      0.27754112
       4836.1313      0.37248141
       4836.7434      0.30370328
       4837.3556      0.24039471
       4837.9677      0.20621054
       4838.5799      0.30013120
       4839.1920      0.26849501
       4839.8042      0.17074979
       4840.4163      0.20100892
       4841.0285      0.24288885
       4841.6406      0.29473620
       4842.2528      0.19931906
       4842.8649      0.18979376
       4843.4771      0.19922102
       4844.0892      0.17225322
       4844.7014      0.15312007
       4845.3136      0.23963361
       4845.9257      0.32604178
       4846.5379      0.47553312
       4847.1500      0.51679958
       4847.7622      0.27689615
       4848.3743     0.052302139
       4848.9865     0.063499548
       4849.5986   -0.0031093015
       4850.2108      0.31548336
       4850.8229     0.032233861
       4851.4351      0.26831449
       4852.0472     0.077425040
       4852.6594      0.23791746
       4853.2716      0.11989352
       4853.8837      0.23692864
       4854.4959      0.22542201
       4855.1080      0.33258450
       4855.7202      0.25455885
       4856.3323      0.24577910
       4856.9445      0.28386191
       4857.5566      0.10021898
       4858.1688      0.32476466
       4858.7809      0.27415055
       4859.3931      0.45215046
       4860.0052      0.49406017
       4860.6174      0.91949709
       4861.2296      0.52860834
       4861.8417      0.74609213
       4862.4539       1.3415619
       4863.0660       1.0090321
       4863.6782      0.95885486
       4864.2903      0.96541796
       4864.9025      0.68790957
       4865.5146      0.70755109
       4866.1268      0.46181456
       4866.7389      0.36712335
       4867.3511      0.37371027
       4867.9632      0.34693041
       4868.5754      0.26103814
       4869.1876      0.31409566
       4869.7997      0.33294474
       4870.4119      0.14301172
       4871.0240      0.34981084
       4871.6362     0.093688189
       4872.2483      0.16078245
       4872.8605      0.30636972
       4873.4726      0.17232903
       4874.0848      0.15007679
       4874.6969      0.20263924
       4875.3091      0.11315922
       4875.9212      0.21814443
       4876.5334      0.29026596
       4877.1456      0.23298021
       4877.7577      0.32205654
       4878.3699      0.36730859
       4878.9820      0.36682855
       4879.5942      0.36909033
       4880.2063      0.90605843
       4880.8185      0.61867412
       4881.4306      0.40059861
       4882.0428      0.29901302
       4882.6549     -0.10778440
       4883.2671     -0.15436626
       4883.8792     -0.73979028
       4884.4914     -0.30661719
       4885.1036      0.28503507
       4885.7157      0.50979735
       4886.3279      0.39387085
       4886.9400      0.22627039
       4887.5522      0.20871083
       4888.1643      0.15148430
       4888.7765      0.32298701
       4889.3886      0.47616321
       4890.0008     0.037383610
       4890.6129      0.11974232
       4891.2251      0.10504901
       4891.8372      0.19936169
       4892.4494      0.29363532
       4893.0616      0.17689954
       4893.6737      0.12256116
       4894.2859      0.15550771
       4894.8980      0.34389351
       4895.5102      0.18045985
       4896.1223      0.22211870
       4896.7345      0.33718662
       4897.3466      0.17525423
       4897.9588      0.24995512
       4898.5709      0.54277351
       4899.1831      0.51389412
       4899.7952      0.33766718
       4900.4074      0.64986203
       4901.0196      0.34649279
       4901.6317      0.29404125
       4902.2439      0.43220751
       4902.8560     0.067478705
       4903.4682      0.19900115
       4904.0803      0.18160819
       4904.6925      0.25991842
       4905.3046      0.32316960
       4905.9168      0.31508996
       4906.5289      0.39958533
       4907.1411      0.25828665
       4907.7532      0.18089442
       4908.3654      0.20305529
       4908.9776      0.18686846
       4909.5897      0.15948028
       4910.2019      0.16867841
       4910.8140      0.40045790
       4911.4262      0.38800774
       4912.0383      0.44208350
       4912.6505      0.35319506
       4913.2626      0.49797745
       4913.8748      0.10211265
       4914.4869      0.40541474
       4915.0991      0.31707806
       4915.7112      0.36746183
       4916.3234      0.18198381
       4916.9356      0.28145919
       4917.5477      0.35480582
       4918.1599      0.20798799
       4918.7720      0.40571714
       4919.3842      0.33369684
       4919.9963      0.48577420
       4920.6085      0.11014894
       4921.2206      0.16917333
       4921.8328    0.0054484652
       4922.4449      0.27295208
       4923.0571      0.15192628
       4923.6692    -0.017182771
       4924.2814      0.39333809
       4924.8936      0.29983499
       4925.5057      0.23418123
       4926.1179      0.23578629
       4926.7300      0.17899618
       4927.3422      0.20962712
       4927.9543      0.37036650
       4928.5665      0.25786058
       4929.1786      0.17096836
       4929.7908      0.31787281
       4930.4029      0.25619502
       4931.0151      0.27900774
       4931.6272      0.34095969
       4932.2394      0.35245856
       4932.8516      0.27853476
       4933.4637      0.20949612
       4934.0759      0.21785297
       4934.6880      0.21906406
       4935.3002      0.25157685
       4935.9123      0.27665939
       4936.5245      0.35711366
       4937.1366      0.36129656
       4937.7488      0.38305239
       4938.3609      0.29295289
       4938.9731      0.22259562
       4939.5852   -0.0094110653
       4940.1974      0.22892252
       4940.8096      0.32024358
       4941.4217      0.23646703
       4942.0339      0.28231506
       4942.6460      0.21773663
       4943.2582      0.39999029
       4943.8703      0.33219940
       4944.4825      0.41965207
       4945.0946      0.49050685
       4945.7068      0.46140168
       4946.3189     0.053266298
       4946.9311      0.39495657
       4947.5432      0.16944282
       4948.1554     -0.14273333
       4948.7676      0.19484090
       4949.3797      0.25364569
       4949.9919      0.18725281
       4950.6040      0.25006937
       4951.2162      0.36771535
       4951.8283      0.29878095
       4952.4405      0.25140067
       4953.0526      0.25335871
       4953.6648      0.18225479
       4954.2769      0.33743191
       4954.8891      0.35818653
       4955.5012      0.39864038
       4956.1134      0.49892351
       4956.7256      0.40212654
       4957.3377      0.44934352
       4957.9499      0.57268445
       4958.5620      0.56399385
       4959.1742      0.56758908
       4959.7863      0.53626469
       4960.3985      0.63134614
       4961.0106      0.51208152
       4961.6228      0.42815241
       4962.2349      0.41522691
       4962.8471      0.34750056
       4963.4592      0.32288253
       4964.0714      0.24814865
       4964.6836      0.36961829
       4965.2957      0.26109865
       4965.9079      0.36590306
       4966.5200      0.44645320
       4967.1322      0.26870402
       4967.7443      0.24122026
       4968.3565      0.18982135
       4968.9686      0.38511204
       4969.5808      0.34927998
       4970.1929      0.18622641
       4970.8051      0.12167130
       4971.4172      0.43562201
       4972.0294      0.40479422
       4972.6416      0.23314448
       4973.2537      0.20184670
       4973.8659      0.22073524
       4974.4780      0.15218397
       4975.0902      0.32330080
       4975.7023      0.14686998
       4976.3145     0.094619833
       4976.9266      0.23358118
       4977.5388      0.32630889
       4978.1509      0.27958672
       4978.7631      0.15533458
       4979.3752      0.21538878
       4979.9874      0.27462798
       4980.5996      0.35902700
       4981.2117      0.42040779
       4981.8239      0.29500198
       4982.4360      0.31715289
       4983.0482      0.29034686
       4983.6603      0.23390609
       4984.2725      0.27380874
       4984.8846      0.19367341
       4985.4968      0.27363294
       4986.1089      0.37262368
       4986.7211      0.43414952
       4987.3332      0.31593130
       4987.9454      0.36178348
       4988.5576      0.33008350
       4989.1697      0.20119416
       4989.7819      0.26513793
       4990.3940      0.30977607
       4991.0062      0.39071930
       4991.6183      0.33115563
       4992.2305      0.31428984
       4992.8426      0.47159589
       4993.4548      0.29919350
       4994.0669      0.35017278
       4994.6791      0.24191358
       4995.2912      0.26997273
       4995.9034      0.42888616
       4996.5156      0.31173746
       4997.1277      0.27040480
       4997.7399      0.41564351
       4998.3520      0.49138957
       4998.9642      0.44320886
       4999.5763      0.23676935
       5000.1885      0.14788975
       5000.8006      0.35686810
       5001.4128      0.44933755
       5002.0249      0.53350238
       5002.6371      0.46987448
       5003.2492      0.78400131
       5003.8614      0.84664921
       5004.4736      0.91295718
       5005.0857      0.82458602
       5005.6979       1.3707842
       5006.3100       1.4135732
       5006.9222       1.3643830
       5007.5343       1.2101872
       5008.1465       1.0928314
       5008.7586      0.70046143
       5009.3708      0.63875432
       5009.9829      0.18722276
       5010.5951      0.11053947
       5011.2072      0.20506220
       5011.8194      0.39646755
       5012.4316      0.23352680
       5013.0437      0.40753530
       5013.6559      0.15390575
       5014.2680      0.17356130
       5014.8802      0.15218666
       5015.4923      0.15407090
       5016.1045      0.24796296
       5016.7166      0.29891477
       5017.3288      0.38269789
       5017.9409      0.29991943
       5018.5531      0.45685732
       5019.1652      0.43701052
       5019.7774      0.19743540
       5020.3896      0.34947212
       5021.0017      0.14225110
       5021.6139     0.027236216
       5022.2260      0.38127928
       5022.8382     0.094763535
       5023.4503      0.13956171
       5024.0625      0.10982305
       5024.6746      0.23800252
       5025.2868      0.35898425
       5025.8989      0.39273380
       5026.5111      0.27938912
       5027.1232      0.27812871
       5027.7354      0.35342916
       5028.3476      0.42480122
       5028.9597      0.39001043
       5029.5719      0.35289521
       5030.1840      0.31580411
       5030.7962      0.27194589
       5031.4083      0.44035851
       5032.0205      0.41001565
       5032.6326      0.17481517
       5033.2448      0.45601147
       5033.8569      0.17926688
       5034.4691      0.18065097
       5035.0812     0.062188939
       5035.6934      0.25931895
       5036.3056      0.48234444
       5036.9177      0.39940040
       5037.5299      0.38586220
       5038.1420      0.39903963
       5038.7542      0.26678906
       5039.3663      0.41481032
       5039.9785      0.34235644
       5040.5906      0.38829021
       5041.2028      0.38183626
       5041.8149      0.32285275
       5042.4271      0.31010473
       5043.0392      0.35562779
       5043.6514      0.26738780
       5044.2636      0.23177615
       5044.8757      0.29438460
       5045.4879      0.38962533
       5046.1000      0.30655224
       5046.7122      0.18124519
       5047.3243      0.32695156
       5047.9365      0.38644337
       5048.5486      0.26758084
       5049.1608      0.32536684
       5049.7729      0.25032620
       5050.3851      0.32894294
       5050.9972      0.35215535
       5051.6094      0.34691356
       5052.2216      0.37429626
       5052.8337      0.30803654
       5053.4459      0.17964608
       5054.0580      0.19819502
       5054.6702      0.23615446
       5055.2823      0.41727394
       5055.8945      0.20986446
       5056.5066      0.28414053
       5057.1188      0.32390538
       5057.7309      0.44250477
       5058.3431      0.56531287
       5058.9552      0.68255245
       5059.5674      0.31784365
       5060.1796    -0.010875570
       5060.7917      0.43794806
       5061.4039      0.43871299
       5062.0160      0.14528673
       5062.6282      0.13298743
       5063.2403      0.48312612
       5063.8525      0.13447972
       5064.4646      0.38879140
       5065.0768     -0.18264603
       5065.6889      0.25509332
       5066.3011    -0.015203162
       5066.9132      0.18690528
       5067.5254      0.16092047
       5068.1376      0.36556158
       5068.7497      0.40472446
       5069.3619      0.22522852
       5069.9740      0.39780787
       5070.5862      0.49252815
       5071.1983      0.34570959
       5071.8105      0.19986515
       5072.4226      0.15783467
       5073.0348      0.19610610
       5073.6469      0.15763489
       5074.2591      0.39542198
       5074.8712      0.40293074
       5075.4834      0.18635819
       5076.0956      0.36476732
       5076.7077      0.42816663
       5077.3199      0.26840281
       5077.9320      0.32601334
       5078.5442      0.30604575
       5079.1563      0.35287235
       5079.7685      0.32247672
       5080.3806      0.24980639
       5080.9928      0.25618068
       5081.6049      0.35506048
       5082.2171      0.44219960
       5082.8292      0.24000246
       5083.4414      0.23924693
       5084.0536      0.29264178
       5084.6657      0.40970941
       5085.2779      0.35041232
       5085.8900      0.32295188
       5086.5022      0.36993076
       5087.1143      0.40358328
       5087.7265      0.42409026
       5088.3386      0.31578655
       5088.9508      0.34800186
       5089.5629     0.010033823
       5090.1751    0.0033561016
       5090.7872    -0.014076083
       5091.3994     0.015644289
       5092.0116      0.30973014
       5092.6237      0.45105558
       5093.2359      0.33359108
       5093.8480      0.29916877
       5094.4602      0.53641458
       5095.0723      0.38605020
       5095.6845      0.39391872
       5096.2966      0.31087065
       5096.9088      0.35231740
       5097.5209      0.29930993
       5098.1331      0.32562341
       5098.7452      0.29872659
       5099.3574      0.35493651
       5099.9696      0.25435442
       5100.5817      0.48688964
       5101.1939      0.15155838
       5101.8060      0.19420018
       5102.4182     -0.21702922
       5103.0303      0.12575949
       5103.6425      0.44611448
       5104.2546      0.28244205
       5104.8668     0.077791037
       5105.4789      0.26644364
       5106.0911      0.23107314
       5106.7032      0.32342994
       5107.3154      0.42943616
       5107.9276      0.38123219
       5108.5397      0.28221832
       5109.1519      0.36148348
       5109.7640      0.43345902
       5110.3762      0.39026423
       5110.9883      0.64425027
       5111.6005      0.57359058
       5112.2126      0.60237648
       5112.8248      0.27228490
       5113.4369    -0.013868145
       5114.0491      0.32249926
       5114.6612      0.19587363
       5115.2734     0.053734565
       5115.8856      0.19895218
       5116.4977      0.26940775
       5117.1099      0.35115650
       5117.7220      0.24986218
       5118.3342      0.27737510
       5118.9463      0.29535917
       5119.5585      0.39640120
       5120.1706      0.28678086
       5120.7828      0.49499003
       5121.3949      0.38064567
       5122.0071      0.12246134
       5122.6192      0.21249046
       5123.2314      0.68023412
       5123.8436      0.41561403
       5124.4557      0.55181430
       5125.0679      0.22666213
       5125.6800      0.26994968
       5126.2922      0.11626633
       5126.9043      0.16587561
       5127.5165      0.30292359
       5128.1286      0.31250281
       5128.7408      0.46420235
       5129.3529      0.38632683
       5129.9651      0.40001895
       5130.5772      0.32921290
       5131.1894      0.33791390
       5131.8016      0.53808771
       5132.4137      0.31019106
       5133.0259      0.20790094
       5133.6380      0.21391773
       5134.2502      0.36159291
       5134.8623      0.52918009
       5135.4745      0.36747857
       5136.0866      0.46868817
       5136.6988      0.61814601
       5137.3109      0.88046275
       5137.9231      0.67269963
       5138.5352      0.39808012
       5139.1474      0.44800678
       5139.7595     -0.26933405
       5140.3717      0.10959198
       5140.9839      0.30496613
       5141.5960      0.32051185
       5142.2082      0.49501201
       5142.8203      0.52099405
       5143.4325      0.52821366
       5144.0446    -0.013375680
       5144.6568      0.23632054
       5145.2689      0.49352404
       5145.8811     0.078930029
       5146.4932      0.17820858
       5147.1054     0.078866036
       5147.7175      0.50315897
       5148.3297   -0.0065390231
       5148.9419      0.10775433
       5149.5540      0.20379255
       5150.1662      0.43753464
       5150.7783      0.58690627
       5151.3905      0.54075200
       5152.0026      0.44041996
       5152.6148      0.54086665
       5153.2269      0.51914523
       5153.8391      0.57262224
       5154.4512      0.26439773
       5155.0634     0.097780917
       5155.6755      0.24970877
       5156.2877      0.19460804
       5156.8999      0.34706128
       5157.5120      0.24493666
       5158.1242      0.15802019
       5158.7363      0.21563005
       5159.3485      0.26920792
       5159.9606      0.26403108
       5160.5728      0.14264546
       5161.1849      0.18452067
       5161.7971      0.25056592
       5162.4092      0.31161638
       5163.0214      0.18139101
       5163.6335     0.079008451
       5164.2457      0.35120690
       5164.8579      0.70013752
       5165.4700      0.55620976
       5166.0822      0.70711983
       5166.6943      0.89725158
       5167.3065      0.50214606
       5167.9186      0.41586018
       5168.5308      0.45134815
       5169.1429      0.53587480
       5169.7551      0.66071146
       5170.3672      0.77749319
       5170.9794       1.1672514
       5171.5915      0.70976207
       5172.2037      0.68360964
       5172.8159      0.47179761
       5173.4280     -0.11447621
       5174.0402     -0.55722541
       5174.6523      -1.4267834
       5175.2645     -0.82501783
       5175.8766     -0.29984074
       5176.4888      0.54978731
       5177.1009      0.35652737
       5177.7131      0.51388214
       5178.3252      0.42026076
       5178.9374      0.36199098
       5179.5495      0.34814434
       5180.1617   -0.0069888887
       5180.7739      0.12886561
       5181.3860     -0.15458385
       5181.9982     0.083975715
       5182.6103      0.31507633
       5183.2225      0.27736265
       5183.8346      0.37801026
       5184.4468      0.37074977
       5185.0589      0.32845505
       5185.6711      0.35139006
       5186.2832      0.30026302
       5186.8954      0.35686782
       5187.5075      0.55389635
       5188.1197      0.33038146
       5188.7319      0.39630793
       5189.3440      0.37786822
       5189.9562    -0.050504272
       5190.5683     0.041955686
       5191.1805      0.10317287
       5191.7926      0.17515936
       5192.4048      0.40071953
       5193.0169      0.35121838
       5193.6291      0.43901070
       5194.2412      0.27232561
       5194.8534      0.42431826
       5195.4655      0.59708704
       5196.0777      0.48051344
       5196.6899      0.54584562
       5197.3020     0.061618461
       5197.9142      0.12047966
       5198.5263     0.079544951
       5199.1385     -0.18901633
       5199.7506     -0.15933084
       5200.3628    -0.056011333
       5200.9749      0.47636284
       5201.5871      0.65626559
       5202.1992     0.082771440
       5202.8114      0.14478344
       5203.4235      0.42800962
       5204.0357      0.22075577
       5204.6479      0.17442601
       5205.2600      0.26017315
       5205.8722      0.27916561
       5206.4843      0.43226406
       5207.0965      0.30020876
       5207.7086      0.37696188
       5208.3208     -0.13217408
       5208.9329      0.43143537
       5209.5451      0.74222709
       5210.1572      0.76978448
       5210.7694       1.2469588
       5211.3815      0.64318518
       5211.9937      0.77456793
       5212.6059      0.45251447
       5213.2180      0.44469405
       5213.8302      0.56773843
       5214.4423      0.44877923
       5215.0545      0.34066127
       5215.6666      0.26873643
       5216.2788      0.30847035
       5216.8909      0.40425126
       5217.5031      0.67016033
       5218.1152      0.63853405
       5218.7274      0.74916101
       5219.3395      0.56480062
       5219.9517      0.88965554
       5220.5639      0.44183566
       5221.1760      0.60993285
       5221.7882      0.51091895
       5222.4003      0.26692077
       5223.0125      0.50191973
       5223.6246      0.31925554
       5224.2368      0.34765496
       5224.8489      0.52226079
       5225.4611      0.56857848
       5226.0732      0.41471498
       5226.6854      0.49450231
       5227.2975      0.67208612
       5227.9097       1.0326880
       5228.5219       1.0377083
       5229.1340       1.1815515
       5229.7462     -0.21025361
       5230.3583      0.36433994
       5230.9705      0.53963707
       5231.5826       1.7868400
       5232.1948      0.92537113
       5232.8069      0.23935226
       5233.4191     0.036039822
       5234.0312     0.093862217
       5234.6434      0.15105014
       5235.2555     0.033161780
       5235.8677      0.30628496
       5236.4799      0.12621498
       5237.0920      0.34853541
       5237.7042      0.44371677
       5238.3163      0.46200374
       5238.9285      0.23147311
       5239.5406      0.39705793
       5240.1528      0.28803957
       5240.7649      0.20505810
       5241.3771      0.20186538
       5241.9892     0.049784410
       5242.6014      0.23497698
       5243.2135      0.45432129
       5243.8257      0.23056351
       5244.4379      0.11154502
       5245.0500      0.42053768
       5245.6622      0.41421541
       5246.2743      0.57725232
       5246.8865      0.51256351
       5247.4986      0.19672067
       5248.1108      0.48538529
       5248.7229      0.13442360
       5249.3351      0.40970585
       5249.9472     0.040654703
       5250.5594      0.13425244
       5251.1715     0.039318557
       5251.7837      0.15435720
       5252.3959      0.82758362
       5253.0080      0.35292990
       5253.6202      0.26326350
       5254.2323      0.65694115
       5254.8445      0.35615754
       5255.4566      0.49092750
       5256.0688      0.38653740
       5256.6809      0.33126473
       5257.2931      0.21648622
       5257.9052      0.13028578
       5258.5174      0.20730852
       5259.1295     0.074878958
       5259.7417      0.31790510
       5260.3539      0.13574444
       5260.9660      0.50448252
