# wavelength flux
       2613.0493     0.019806030
       2613.9367    -0.038462765
       2614.8242     0.039298910
       2615.7116   -0.0069934332
       2616.5990    -0.077786198
       2617.4864    -0.021163063
       2618.3738     0.075480458
       2619.2613  -0.00095404514
       2620.1487     0.012850109
       2621.0361     0.028984956
       2621.9235     0.011021483
       2622.8109     0.037315570
       2623.6984     0.017512333
       2624.5858    -0.016412419
       2625.4732    -0.031526097
       2626.3606    -0.030164610
       2627.2480     0.012153011
       2628.1355     0.013362644
       2629.0229   -0.0013896475
       2629.9103    -0.016950584
       2630.7977    -0.034053888
       2631.6851     0.051392636
       2632.5726    -0.030567692
       2633.4600     0.013122867
       2634.3474     0.028580921
       2635.2348     0.033399197
       2636.1223     0.030509007
       2637.0097    -0.028129289
       2637.8971    0.0014393451
       2638.7845    -0.049537510
       2639.6719    -0.020817550
       2640.5594    -0.013326945
       2641.4468     0.026340977
       2642.3342     0.054352430
       2643.2216    0.0088431886
       2644.1090    -0.016116547
       2644.9965     0.065154667
       2645.8839    0.0045556403
       2646.7713    0.0022035961
       2647.6587    -0.025938164
       2648.5461    -0.029674701
       2649.4336   -0.0074460771
       2650.3210    -0.036651307
       2651.2084    -0.015070226
       2652.0958   -0.0056674351
       2652.9833     0.033950245
       2653.8707    0.0084753145
       2654.7581    0.0069163171
       2655.6455     0.058887258
       2656.5329     0.052220791
       2657.4204     0.023317654
       2658.3078    -0.024807511
       2659.1952    -0.026233293
       2660.0826   -0.0080280501
       2660.9700  -0.00019005532
       2661.8575     0.024268344
       2662.7449    -0.024518232
       2663.6323    -0.033201867
       2664.5197    0.0044631852
       2665.4071     0.024718449
       2666.2946    -0.043730396
       2667.1820     0.013029409
       2668.0694     0.033672797
       2668.9568     0.015004904
       2669.8442    -0.023077132
       2670.7317   -0.0087642549
       2671.6191     0.053695574
       2672.5065     0.021071759
       2673.3939   -0.0026754465
       2674.2814   -0.0064358636
       2675.1688    -0.017661820
       2676.0562    -0.035413178
       2676.9436    -0.057427554
       2677.8310   -0.0020859424
       2678.7185     0.032957126
       2679.6059     0.015509025
       2680.4933     0.032641127
       2681.3807     0.033069542
       2682.2681    -0.040593793
       2683.1556    -0.069770344
       2684.0430    -0.036353327
       2684.9304     0.012288017
       2685.8178    -0.017001455
       2686.7052    -0.017953574
       2687.5927     0.080324995
       2688.4801     0.046458361
       2689.3675     0.018130293
       2690.2549     0.010543790
       2691.1424    -0.029673233
       2692.0298    -0.010833358
       2692.9172   -0.0047805132
       2693.8046     0.019086172
       2694.6920    -0.015620635
       2695.5795     0.011135176
       2696.4669     0.038922418
       2697.3543     0.016619997
       2698.2417     0.015925128
       2699.1291    0.0039651458
       2700.0166     0.013366956
       2700.9040    -0.037801327
       2701.7914     0.024879440
       2702.6788    0.0022632648
       2703.5662     0.053023611
       2704.4537     0.017544850
       2705.3411    -0.015468501
       2706.2285     0.017820978
       2707.1159    0.0043119852
       2708.0033     0.044167099
       2708.8908   -0.0024047138
       2709.7782    0.0022404635
       2710.6656    -0.019997241
       2711.5530     0.024514597
       2712.4405    -0.017049921
       2713.3279     0.019378608
       2714.2153     0.033182702
       2715.1027    0.0024172833
       2715.9901    0.0027901217
       2716.8776    -0.032767617
       2717.7650     0.054367156
       2718.6524     0.029090053
       2719.5398     0.014448980
       2720.4272     0.018909886
       2721.3147     0.013102176
       2722.2021    0.0079946170
       2723.0895   -0.0067961981
       2723.9769     0.015947160
       2724.8643    0.0099904856
       2725.7518    -0.022286542
       2726.6392  -3.3175833e-05
       2727.5266    0.0095585100
       2728.4140     0.014097312
       2729.3015    -0.015538781
       2730.1889   -0.0099983598
       2731.0763    0.0028695451
       2731.9637     0.013856913
       2732.8511     0.024864915
       2733.7386     0.022376909
       2734.6260     0.045178761
       2735.5134     0.028290954
       2736.4008    0.0057191054
       2737.2882     0.011616625
       2738.1757    -0.029926664
       2739.0631    -0.032147483
       2739.9505  -4.5272466e-05
       2740.8379   -0.0036815992
       2741.7253     0.023801313
       2742.6128    0.0042167336
       2743.5002     0.032764255
       2744.3876     0.016672530
       2745.2750     0.014624041
       2746.1625    -0.029922349
       2747.0499     0.014737590
       2747.9373    -0.018782112
       2748.8247    -0.026860091
       2749.7121     0.017127883
       2750.5996     0.011332778
       2751.4870     0.015032378
       2752.3744    0.0093600406
       2753.2618     0.024134350
       2754.1492    -0.021407766
       2755.0367    0.0016937982
       2755.9241    -0.020900506
       2756.8115     0.037493423
       2757.6989     0.042712604
       2758.5863    0.0056993242
       2759.4738     0.013408948
       2760.3612     0.023490663
       2761.2486     0.024468877
       2762.1360    0.0080571646
       2763.0234    -0.014252372
       2763.9109   0.00087203296
       2764.7983    -0.018897103
       2765.6857   0.00054973329
       2766.5731     0.023434019
       2767.4606     0.029419740
       2768.3480   -0.0067833442
       2769.2354     0.022725896
       2770.1228   -0.0055697788
       2771.0102     0.016432005
       2771.8977     0.051562049
       2772.7851     0.020222656
       2773.6725    0.0096365348
       2774.5599   -0.0088067452
       2775.4473   -0.0090190116
       2776.3348   -0.0065639333
       2777.2222     0.023186805
       2778.1096   -0.0020122007
       2778.9970     0.015750642
       2779.8844     0.031845810
       2780.7719   -0.0057441552
       2781.6593   -0.0096118848
       2782.5467     0.034002136
       2783.4341     0.015664205
       2784.3216     0.024666181
       2785.2090     0.021660122
       2786.0964     0.024561469
       2786.9838     0.026755249
       2787.8712     0.026828975
       2788.7587   -0.0051078910
       2789.6461   -0.0011537581
       2790.5335    0.0032310755
       2791.4209   -0.0065556598
       2792.3083    0.0050487709
       2793.1958   7.5777107e-05
       2794.0832    -0.032436458
       2794.9706     0.013239664
       2795.8580   -0.0013282229
       2796.7454     0.025266783
       2797.6329   -0.0051829942
       2798.5203     0.035170121
       2799.4077     0.017775408
       2800.2951     0.027731545
       2801.1825   -0.0036688929
       2802.0700   -0.0052568293
       2802.9574    -0.012580229
       2803.8448     0.012898071
       2804.7322    0.0080892214
       2805.6197   -0.0056429104
       2806.5071     0.015543621
       2807.3945     0.017936383
       2808.2819     0.023061642
       2809.1693    0.0082321727
       2810.0568  -9.5059872e-05
       2810.9442    -0.011743852
       2811.8316    0.0035857389
       2812.7190     0.012503661
       2813.6064     0.010594011
       2814.4939     0.022652949
       2815.3813    0.0046428041
       2816.2687     0.011768640
       2817.1561     0.027290120
       2818.0435     0.012769482
       2818.9310     0.043994237
       2819.8184     0.035005087
       2820.7058     0.015940568
       2821.5932     0.026679965
       2822.4807     0.014709829
       2823.3681    -0.052556954
       2824.2555     0.023428402
       2825.1429     0.015938806
       2826.0303     0.068008623
       2826.9178    -0.023579930
       2827.8052    -0.019127184
       2828.6926     0.026505200
       2829.5800     0.032559948
       2830.4674   0.00049678050
       2831.3549     0.010377359
       2832.2423     0.012304839
       2833.1297     0.020325664
       2834.0171   -0.0070518947
       2834.9045     0.024537503
       2835.7920     0.011596198
       2836.6794   -0.0098192076
       2837.5668     0.026616767
       2838.4542    0.0066770991
       2839.3416     0.012860543
       2840.2291    0.0078278438
       2841.1165   0.00017670015
       2842.0039   -0.0011551640
       2842.8913     0.049694399
       2843.7788     0.025837663
       2844.6662     0.031155441
       2845.5536    -0.021644427
       2846.4410     0.023686715
       2847.3284  -1.0191138e-05
       2848.2159     0.010926806
       2849.1033    -0.015311778
       2849.9907     0.029625309
       2850.8781     0.020414231
       2851.7655    0.0093500298
       2852.6530     0.031647298
       2853.5404     0.015507322
       2854.4278     0.026523644
       2855.3152   0.00025690381
       2856.2026     0.041960794
       2857.0901     0.016755889
       2857.9775     0.031677603
       2858.8649     0.016082149
       2859.7523    -0.019164834
       2860.6398  -0.00049089501
       2861.5272   -0.0094781602
       2862.4146     0.020238371
       2863.3020     0.041991152
       2864.1894    -0.020153384
       2865.0769     0.015163364
       2865.9643     0.020238854
       2866.8517     0.020267420
       2867.7391     0.021057940
       2868.6265     0.034808345
       2869.5140   -0.0090556560
       2870.4014     0.022053143
       2871.2888     0.026334357
       2872.1762     0.025409314
       2873.0636   -0.0095788524
       2873.9511     0.014076841
       2874.8385     0.010546817
       2875.7259    -0.012540744
       2876.6133    -0.013036063
       2877.5007     0.018521958
       2878.3882    -0.031555515
       2879.2756    0.0056979106
       2880.1630    -0.013358883
       2881.0504    -0.012797958
       2881.9379     0.038249791
       2882.8253     0.026178291
       2883.7127     0.035975090
       2884.6001     0.042537525
       2885.4875    0.0018151891
       2886.3750   -0.0039831587
       2887.2624   -0.0053974586
       2888.1498    0.0069541166
       2889.0372     0.027115118
       2889.9246    -0.024040333
       2890.8121     0.034844128
       2891.6995    0.0038280257
       2892.5869     0.032578285
       2893.4743     0.040444793
       2894.3617     0.022563277
       2895.2492     0.011140093
       2896.1366     0.039524543
       2897.0240     0.023993593
       2897.9114     0.048810889
       2898.7989     0.025174916
       2899.6863    0.0099646613
       2900.5737     0.027692754
       2901.4611     0.031861440
       2902.3485     0.073821178
       2903.2360     0.038087799
       2904.1234     0.033080026
       2905.0108     0.016207169
       2905.8982     0.015054175
       2906.7856     0.034522347
       2907.6731     0.018940603
       2908.5605    0.0017091755
       2909.4479  -0.00052484956
       2910.3353   -0.0059160758
       2911.2227  -0.00076963258
       2912.1102     0.039110315
       2912.9976    0.0085201957
       2913.8850     0.010865851
       2914.7724   -0.0093424402
       2915.6599     0.036101622
       2916.5473     0.018913526
       2917.4347    0.0064033852
       2918.3221     0.057591309
       2919.2095    0.0057118778
       2920.0970     0.015499791
       2920.9844     0.032126361
       2921.8718     0.045953935
       2922.7592     0.064495479
       2923.6466     0.063770413
       2924.5341     0.022659512
       2925.4215    -0.021804675
       2926.3089     0.014128243
       2927.1963    -0.027671037
       2928.0837     0.010764198
       2928.9712     0.016844545
       2929.8586     0.017736166
       2930.7460     0.019948286
       2931.6334     0.010646029
       2932.5208     0.026255584
       2933.4083     0.043874288
       2934.2957     0.019036590
       2935.1831     0.027120037
       2936.0705     0.012229839
       2936.9580    -0.010457576
       2937.8454    0.0021098968
       2938.7328     0.026860888
       2939.6202   -0.0039349609
       2940.5076    0.0083336589
       2941.3951     0.032240936
       2942.2825    0.0096524024
       2943.1699     0.029584494
       2944.0573   -0.0055412110
       2944.9447    0.0012048096
       2945.8322    0.0012805796
       2946.7196     0.017225494
       2947.6070     0.029424751
       2948.4944    0.0015440210
       2949.3818   -0.0082275005
       2950.2693    0.0099062716
       2951.1567     0.038677681
       2952.0441     0.024530560
       2952.9315     0.033999560
       2953.8190     0.036347429
       2954.7064   0.00040248457
       2955.5938    0.0094294094
       2956.4812    -0.015523078
       2957.3686    0.0064513050
       2958.2561     0.028905379
       2959.1435     0.035013897
       2960.0309    -0.021473008
       2960.9183     0.045321283
       2961.8057    0.0039307040
       2962.6932     0.032063133
       2963.5806    -0.021943972
       2964.4680    -0.010217175
       2965.3554   -0.0087862640
       2966.2428    0.0036634091
       2967.1303     0.016357724
       2968.0177     0.046929731
       2968.9051     0.030988973
       2969.7925     0.016993666
       2970.6799    0.0027073395
       2971.5674   -0.0039829679
       2972.4548     0.016139059
       2973.3422    0.0049489094
       2974.2296     0.016523496
       2975.1171    -0.011710200
       2976.0045     0.033564190
       2976.8919     0.031439098
       2977.7793     0.018709705
       2978.6667     0.039814662
       2979.5542     0.026811812
       2980.4416    -0.027940465
       2981.3290     0.017559972
       2982.2164     0.047358618
       2983.1038     0.027038737
       2983.9913    0.0073049937
       2984.8787   -0.0087885625
       2985.7661    -0.010699310
       2986.6535     0.033847707
       2987.5409     0.034809933
       2988.4284     0.019759903
       2989.3158      0.10054920
       2990.2032     0.060648852
       2991.0906  -0.00063239811
       2991.9781     0.021946110
       2992.8655     0.041545587
       2993.7529     0.010281543
       2994.6403     0.056126403
       2995.5277   -0.0035306590
       2996.4152     0.010097807
       2997.3026     0.014253929
       2998.1900     0.038505525
       2999.0774     0.045987426
       2999.9648   -0.0014732757
       3000.8523    0.0044727149
       3001.7397     0.034517037
       3002.6271     0.016714522
       3003.5145     0.027402396
       3004.4019     0.019962680
       3005.2894     0.014355608
       3006.1768     0.017320926
       3007.0642     0.034351056
       3007.9516     0.047941917
       3008.8390     0.025386312
       3009.7265     0.014836180
       3010.6139     0.031603547
       3011.5013     0.020144989
       3012.3887   -0.0026186727
       3013.2762    0.0034465631
       3014.1636     0.035272160
       3015.0510     0.024462262
       3015.9384    0.0029459615
       3016.8258     0.058757876
       3017.7133    0.0027998507
       3018.6007     0.044569852
       3019.4881     0.020757909
       3020.3755     0.017503779
       3021.2629    -0.020672632
       3022.1504     0.014123358
       3023.0378   -0.0035928590
       3023.9252    -0.021275551
       3024.8126     0.028900099
       3025.7000     0.011842125
       3026.5875     0.010257015
       3027.4749    -0.015911911
       3028.3623    0.0085072809
       3029.2497     0.046550046
       3030.1372     0.062196768
       3031.0246    0.0046381918
       3031.9120    0.0098086431
       3032.7994     0.017367237
       3033.6868     0.019039450
       3034.5743   -0.0082939733
       3035.4617   -0.0088371107
       3036.3491     0.016901876
       3037.2365   -0.0063922349
       3038.1239     0.018672193
       3039.0114    0.0047550472
       3039.8988     0.018530041
       3040.7862   -0.0038725803
       3041.6736     0.028893490
       3042.5610    0.0076309194
       3043.4485    0.0065471937
       3044.3359    0.0054934340
       3045.2233   -0.0098379508
       3046.1107    0.0061986262
       3046.9981     0.035299864
       3047.8856     0.039677493
       3048.7730     0.023635458
       3049.6604     0.050958710
       3050.5478     0.052896908
       3051.4353     0.018471547
       3052.3227     0.012160521
       3053.2101    0.0026896240
       3054.0975     0.037237881
       3054.9849     0.037200512
       3055.8724    0.0094520654
       3056.7598     0.027897459
       3057.6472     0.023989753
       3058.5346   -0.0073600793
       3059.4220    -0.030844289
       3060.3095     0.020011356
       3061.1969     0.044525410
       3062.0843     0.031896632
       3062.9717     0.030897243
       3063.8591     0.010273019
       3064.7466    0.0019835977
       3065.6340    0.0084287058
       3066.5214   -0.0041521137
       3067.4088     0.042585710
       3068.2963     0.027891304
       3069.1837   -0.0054635930
       3070.0711   -0.0058670825
       3070.9585    0.0085183536
       3071.8459    -0.014721019
       3072.7334     0.038640853
       3073.6208   -0.0033604669
       3074.5082     0.029418062
       3075.3956     0.020961707
       3076.2830     0.037970077
       3077.1705     0.032080016
       3078.0579   -0.0065307667
       3078.9453     0.020803937
       3079.8327     0.022913176
       3080.7201     0.027301465
       3081.6076     0.014646783
       3082.4950    -0.011165107
       3083.3824     0.044912587
       3084.2698     0.037177549
       3085.1573     0.045633316
       3086.0447     0.026007122
       3086.9321     0.023386793
       3087.8195    0.0028526073
       3088.7069    0.0051699659
       3089.5944     0.043465706
       3090.4818     0.018036244
       3091.3692   0.00094633165
       3092.2566     0.010775076
       3093.1440     0.027777663
       3094.0315     0.058765812
       3094.9189     0.016551146
       3095.8063     0.017870854
       3096.6937     0.055255003
       3097.5811     0.029831184
       3098.4686     0.014960690
       3099.3560     0.028176658
       3100.2434     0.041260179
       3101.1308     0.029401541
       3102.0182     0.020390826
       3102.9057   0.00059437905
       3103.7931    0.0048327994
       3104.6805   0.00077499603
       3105.5679     0.020655318
       3106.4554   -0.0052647477
       3107.3428    -0.010860797
       3108.2302     0.011557903
       3109.1176     0.024155950
       3110.0050     0.026285932
       3110.8925    0.0040324701
       3111.7799  -0.00087603196
       3112.6673   -0.0075703051
       3113.5547    0.0016846164
       3114.4421    0.0012629886
       3115.3296     0.038985298
       3116.2170     0.038964448
       3117.1044     0.029422504
       3117.9918     0.026837522
       3118.8792     0.034731318
       3119.7667     0.017522480
       3120.6541     0.035249864
       3121.5415    0.0099963289
       3122.4289     0.044005030
       3123.3164     0.038029064
       3124.2038     0.029765968
       3125.0912   -0.0033235235
       3125.9786     0.020489549
       3126.8660     0.023360501
       3127.7535     0.038768960
       3128.6409     0.021196440
       3129.5283     0.058182515
       3130.4157     0.022966503
       3131.3031     0.025390433
       3132.1906     0.045414389
       3133.0780     0.034284581
       3133.9654     0.012080704
       3134.8528     0.013545648
       3135.7402     0.025532284
       3136.6277     0.018475998
       3137.5151   -0.0012699145
       3138.4025     0.023476354
       3139.2899     0.018857174
       3140.1773    -0.012276944
       3141.0648     0.028077431
       3141.9522     0.010306433
       3142.8396     0.030171545
       3143.7270    0.0037300825
       3144.6145     0.032001613
       3145.5019     0.033866844
       3146.3893     0.029603188
       3147.2767   -0.0064373381
       3148.1641     0.012925909
       3149.0516     0.018630362
       3149.9390     0.015041934
       3150.8264     0.037672489
       3151.7138     0.016290892
       3152.6012     0.028017642
       3153.4887     0.018072939
       3154.3761     0.048139167
       3155.2635   -0.0036177680
       3156.1509    0.0043066556
       3157.0383     0.024549366
       3157.9258     0.018230965
       3158.8132     0.023087056
       3159.7006     0.027778427
       3160.5880     0.020554725
       3161.4755     0.026353020
       3162.3629   -0.0091198481
       3163.2503     0.028735357
       3164.1377     0.010776436
       3165.0251     0.029717736
       3165.9126     0.017677398
       3166.8000    0.0090130553
       3167.6874    0.0049486121
       3168.5748     0.034127928
       3169.4622     0.012617128
       3170.3497     0.031220923
       3171.2371     0.020528286
       3172.1245     0.042427550
       3173.0119     0.052324155
       3173.8993     0.020958215
       3174.7868     0.067515542
       3175.6742     0.051564422
       3176.5616     0.027077346
       3177.4490   -0.0053502080
       3178.3364    0.0025385080
       3179.2239     0.014626900
       3180.1113     0.030529858
       3180.9987     0.026478969
       3181.8861   4.7230354e-05
       3182.7736     0.031545972
       3183.6610    -0.014167223
       3184.5484     0.025962125
       3185.4358    0.0054741066
       3186.3232  -0.00038894247
       3187.2107     0.023449067
       3188.0981     0.042782474
       3188.9855     0.023561616
       3189.8729     0.012289284
       3190.7603     0.033342648
       3191.6478     0.019148392
       3192.5352     0.025695469
       3193.4226     0.026563187
       3194.3100     0.043564974
       3195.1974    0.0019648330
       3196.0849     0.032411092
       3196.9723     0.031035206
       3197.8597     0.013208597
       3198.7471     0.037248780
       3199.6346   -0.0045529794
       3200.5220     0.031219660
       3201.4094     0.022540814
       3202.2968     0.027628521
       3203.1842     0.028685293
       3204.0717     0.048653079
       3204.9591     0.011720913
       3205.8465     0.034617036
       3206.7339     0.016158476
       3207.6213   -0.0054249918
       3208.5088     0.022340014
       3209.3962     0.032058020
       3210.2836     0.020866644
       3211.1710     0.047296902
       3212.0584    0.0060905349
       3212.9459   -0.0072724993
       3213.8333     0.010859625
       3214.7207  -0.00066253265
       3215.6081    0.0093044465
       3216.4956     0.013352108
       3217.3830     0.020583271
       3218.2704     0.017984770
       3219.1578     0.019206364
       3220.0452     0.010658592
       3220.9327     0.010315894
       3221.8201     0.041402981
       3222.7075     0.026771120
       3223.5949     0.023536714
       3224.4823     0.012631263
       3225.3698     0.011783071
       3226.2572     0.033364672
       3227.1446     0.035736457
       3228.0320     0.026904272
       3228.9194     0.028458674
       3229.8069     0.014901737
       3230.6943     0.027066184
       3231.5817     0.031316266
       3232.4691     0.021791903
       3233.3565   0.00059977989
       3234.2440   -0.0059330636
       3235.1314     0.045963620
       3236.0188     0.027004900
       3236.9062     0.032319879
       3237.7937     0.029023394
       3238.6811    -0.020858477
       3239.5685   -0.0092993381
       3240.4559     0.029779310
       3241.3433    0.0052871159
       3242.2308    -0.010768168
       3243.1182     0.021555587
       3244.0056     0.022749054
       3244.8930     0.021338066
       3245.7804     0.039382089
       3246.6679    0.0095176683
       3247.5553     0.012001467
       3248.4427     0.020125090
       3249.3301     0.031664757
       3250.2175     0.017202381
       3251.1050     0.013458201
       3251.9924    0.0074634462
       3252.8798     0.034289298
       3253.7672     0.034036962
       3254.6547     0.031217313
       3255.5421     0.038290166
       3256.4295     0.031091888
       3257.3169     0.017091722
       3258.2043     0.030153280
       3259.0918     0.044326967
       3259.9792     0.032287714
       3260.8666     0.045577991
       3261.7540     0.029298660
       3262.6414     0.024227655
       3263.5289     0.017566648
       3264.4163     0.032043033
       3265.3037     0.030444532
       3266.1911     0.019352041
       3267.0785    0.0046568027
       3267.9660     0.045901414
       3268.8534    0.0089390367
       3269.7408     0.024563314
       3270.6282     0.012571679
       3271.5156    0.0093126247
       3272.4031    0.0041695396
       3273.2905     0.027628694
       3274.1779     0.031669174
       3275.0653     0.014368209
       3275.9528     0.017285252
       3276.8402     0.030744338
       3277.7276     0.026970007
       3278.6150   -0.0089420826
       3279.5024     0.047451200
       3280.3899     0.029464516
       3281.2773     0.018914090
       3282.1647    0.0012893740
       3283.0521     0.028630961
       3283.9395     0.022701009
       3284.8270    -0.014260872
       3285.7144     0.033797150
       3286.6018     0.016851481
       3287.4892   -0.0017815245
       3288.3766     0.029365234
       3289.2641     0.029901366
       3290.1515     0.019183736
       3291.0389     0.011750482
       3291.9263     0.033220806
       3292.8138     0.027485947
       3293.7012     0.054934536
       3294.5886     0.020811947
       3295.4760     0.026686770
       3296.3634    0.0037569484
       3297.2509     0.048107218
       3298.1383     0.047346497
       3299.0257     0.041644904
       3299.9131     0.031712375
       3300.8005     0.040987097
       3301.6880     0.017180307
       3302.5754     0.038483017
       3303.4628     0.061506848
       3304.3502     0.025540067
       3305.2376    0.0050404120
       3306.1251     0.034800149
       3307.0125     0.020451337
       3307.8999     0.047691501
       3308.7873     0.048336183
       3309.6747     0.018928363
       3310.5622     0.030186663
       3311.4496    0.0090314835
       3312.3370     0.048641324
       3313.2244     0.022122431
       3314.1119     0.012829239
       3314.9993     0.057399818
       3315.8867    0.0065899596
       3316.7741     0.030825941
       3317.6615     0.022653414
       3318.5490    0.0029973241
       3319.4364   -0.0053046020
       3320.3238     0.035739322
       3321.2112     0.029984702
       3322.0986   -0.0010286008
       3322.9861     0.010365499
       3323.8735     0.011404842
       3324.7609     0.034416253
       3325.6483     0.015167713
       3326.5357     0.017500510
       3327.4232     0.027447659
       3328.3106     0.046569598
       3329.1980     0.073886919
       3330.0854     0.040915622
       3330.9729     0.057520049
       3331.8603     0.026860284
       3332.7477    0.0050618060
       3333.6351     0.043788594
       3334.5225     0.015718969
       3335.4100     0.046972093
       3336.2974     0.028337334
       3337.1848    -0.015301113
       3338.0722     0.032233980
       3338.9596     0.039989352
       3339.8471     0.012741690
       3340.7345     0.025918536
       3341.6219     0.057619075
       3342.5093    0.0073685388
       3343.3967     0.025183617
       3344.2842     0.027044692
       3345.1716     0.021095867
       3346.0590     0.025975360
       3346.9464     0.019555630
       3347.8338     0.052050255
       3348.7213     0.048468526
       3349.6087     0.016589843
       3350.4961     0.028170791
       3351.3835     0.013736934
       3352.2710     0.053652258
       3353.1584     0.025515117
       3354.0458     0.033130635
       3354.9332     0.018400044
       3355.8206     0.025031267
       3356.7081     0.011269619
       3357.5955     0.044080472
       3358.4829    0.0073052430
       3359.3703     0.017298863
       3360.2577     0.021592277
       3361.1452     0.011171923
       3362.0326     0.020460712
       3362.9200     0.025585699
       3363.8074     0.032993221
       3364.6948     0.045825952
       3365.5823   -0.0061780373
       3366.4697     0.018152680
       3367.3571    0.0070048265
       3368.2445     0.036670395
       3369.1320     0.031430154
       3370.0194     0.028097444
       3370.9068     0.029054975
       3371.7942    0.0077902419
       3372.6816     0.051730588
       3373.5691     0.034564254
       3374.4565     0.046030513
       3375.3439     0.069092281
       3376.2313     0.044988112
       3377.1187     0.025026136
       3378.0062    0.0061049580
       3378.8936     0.032473389
       3379.7810     0.021700447
       3380.6684     0.022286753
       3381.5558     0.047905363
       3382.4433     0.028913408
       3383.3307     0.023370127
       3384.2181     0.039811704
       3385.1055     0.030053857
       3385.9930    0.0020293867
       3386.8804     0.015270737
       3387.7678     0.022732065
       3388.6552     0.037440190
       3389.5426     0.041528342
       3390.4301     0.011072694
       3391.3175     0.051224100
       3392.2049     0.038518928
       3393.0923     0.016636435
       3393.9797     0.052766735
       3394.8672    0.0050051305
       3395.7546     0.063122917
       3396.6420    0.0049047286
       3397.5294     0.058709468
       3398.4168     0.020470368
       3399.3043     0.030787232
       3400.1917     0.036796446
       3401.0791     0.033105336
       3401.9665     0.046895791
       3402.8539     0.015336553
       3403.7414     0.032809266
       3404.6288     0.043972514
       3405.5162     0.018614684
       3406.4036     0.054036781
       3407.2911     0.032886522
       3408.1785     0.016558856
       3409.0659     0.025408266
       3409.9533     0.038793211
       3410.8407     0.065638651
       3411.7282     0.027263854
       3412.6156     0.022258504
       3413.5030     0.036924096
       3414.3904     0.046814712
       3415.2778     0.026269266
       3416.1653     0.044611121
       3417.0527     0.047106993
       3417.9401     0.089320794
       3418.8275     0.056911776
       3419.7149     0.048016665
       3420.6024     0.059118636
       3421.4898    0.0066212445
       3422.3772    0.0062083624
       3423.2646     0.067717800
       3424.1521     0.038737297
       3425.0395     0.060350600
       3425.9269     0.054561198
       3426.8143     0.032133544
       3427.7017     0.010858936
       3428.5892     0.036739121
       3429.4766     0.056726955
       3430.3640     0.028894993
       3431.2514     0.020421562
       3432.1388     0.035409213
       3433.0263     0.038487541
       3433.9137     0.025002521
       3434.8011     0.030788348
       3435.6885     0.021542965
       3436.5759     0.043519104
       3437.4634     0.028672397
       3438.3508     0.043174570
       3439.2382     0.025338798
       3440.1256     0.049256995
       3441.0130     0.036032566
       3441.9005     0.027679766
       3442.7879     0.022490216
       3443.6753     0.014381087
       3444.5627     0.028034178
       3445.4502     0.040523015
       3446.3376     0.057944935
       3447.2250     0.019053899
       3448.1124     0.028214209
       3448.9998    0.0061771645
       3449.8873     0.025048723
       3450.7747     0.023648942
       3451.6621     0.032433001
       3452.5495     0.031843434
       3453.4369     0.026065888
       3454.3244     0.028934184
       3455.2118     0.049086551
       3456.0992     0.011395012
       3456.9866     0.030215703
       3457.8740    -0.019375590
       3458.7615     0.030265819
       3459.6489     0.058134682
       3460.5363     0.028137403
       3461.4237     0.044447565
       3462.3112     0.023375481
       3463.1986     0.043228156
       3464.0860     0.061201672
       3464.9734     0.045889815
       3465.8608     0.020961222
       3466.7483     0.036131642
       3467.6357     0.037021651
       3468.5231     0.046715438
       3469.4105     0.036485680
       3470.2979     0.045459502
       3471.1854     0.052122635
       3472.0728    0.0029019939
       3472.9602     0.038402243
       3473.8476    0.0095302669
       3474.7350     0.026320461
       3475.6225    0.0091136449
       3476.5099     0.037440047
       3477.3973     0.082475232
       3478.2847     0.062064137
       3479.1721     0.023724934
       3480.0596     0.066686995
       3480.9470     0.031732319
       3481.8344     0.011070098
       3482.7218     0.036662847
       3483.6093     0.039963400
       3484.4967     0.050329809
       3485.3841     0.043494842
       3486.2715     0.014591708
       3487.1589     0.038328572
       3488.0464     0.013511832
       3488.9338     0.047277940
       3489.8212    0.0023489659
       3490.7086     0.035295157
       3491.5960     0.034879410
       3492.4835     0.042945034
       3493.3709     0.048384199
       3494.2583     0.042723630
       3495.1457     0.030813753
       3496.0331     0.046211463
       3496.9206     0.010969750
       3497.8080     0.021978563
       3498.6954     0.016782559
       3499.5828     0.017523433
       3500.4703     0.018634257
       3501.3577     0.029515634
       3502.2451   0.00072106118
       3503.1325   -0.0022600294
       3504.0199     0.030771312
       3504.9074     0.041710183
       3505.7948     0.027739537
       3506.6822     0.078342676
       3507.5696     0.073778118
       3508.4570     0.062166051
       3509.3445     0.069719513
       3510.2319     0.061496663
       3511.1193     0.068894250
       3512.0067     0.042405667
       3512.8941     0.028199683
       3513.7816     0.063424035
       3514.6690     0.033963784
       3515.5564     0.041316032
       3516.4438     0.061102517
       3517.3313     0.042905144
       3518.2187     0.033339123
       3519.1061     0.014832985
       3519.9935     0.045938251
       3520.8809  -0.00017043317
       3521.7684    0.0037248904
       3522.6558     0.045694897
       3523.5432     0.046189147
       3524.4306     0.055289527
       3525.3180     0.033039040
       3526.2055    0.0069491314
       3527.0929     0.047970076
       3527.9803     0.038834348
       3528.8677     0.046378934
       3529.7551     0.099671593
       3530.6426     0.054069717
       3531.5300     0.032623415
       3532.4174     0.031096143
       3533.3048     0.027306472
       3534.1922     0.056704524
       3535.0797     0.067504507
       3535.9671     0.039991668
       3536.8545     0.025668020
       3537.7419     0.034920180
       3538.6294     0.024487078
       3539.5168     0.024335832
       3540.4042     0.017297715
       3541.2916     0.074294256
       3542.1790     0.024205938
       3543.0665     0.081647198
       3543.9539    0.0070084002
       3544.8413     0.073130166
       3545.7287     0.043366419
       3546.6161     0.023084347
       3547.5036     0.027715766
       3548.3910     0.024008475
       3549.2784     0.063690827
       3550.1658     0.065547301
       3551.0532     0.019311861
       3551.9407     0.060664891
       3552.8281     0.066227297
       3553.7155     0.040109899
       3554.6029     0.018196070
       3555.4904     0.038302994
       3556.3778     0.053624651
       3557.2652     0.066298927
       3558.1526     0.014644668
       3559.0400     0.056364068
       3559.9275     0.023260632
       3560.8149     0.020832271
       3561.7023     0.027877497
       3562.5897     0.050514794
       3563.4771     0.029132514
       3564.3646     0.046969423
       3565.2520     0.062079393
       3566.1394     0.039034924
       3567.0268     0.079843708
       3567.9142     0.023292976
       3568.8017     0.035975932
       3569.6891     0.033357775
       3570.5765     0.035538863
       3571.4639     0.024768495
       3572.3513     0.062070413
       3573.2388     0.042697062
       3574.1262     0.043035306
       3575.0136     0.038653839
       3575.9010     0.047886691
       3576.7885     0.060795689
       3577.6759     0.011907652
       3578.5633     0.022051848
       3579.4507     0.027479232
       3580.3381     0.015791290
       3581.2256     0.041262145
       3582.1130     0.061459453
       3583.0004     0.017717863
       3583.8878     0.022870134
       3584.7752     0.026689739
       3585.6627     0.046654171
       3586.5501     0.035964133
       3587.4375     0.010484770
       3588.3249   -0.0070604569
       3589.2123     0.023314142
       3590.0998     0.015256762
       3590.9872     0.043595261
       3591.8746     0.013835039
       3592.7620     0.023735765
       3593.6495     0.073008565
       3594.5369     0.049174498
       3595.4243     0.065267592
       3596.3117     0.030074775
       3597.1991    0.0066344635
       3598.0866     0.038059344
       3598.9740     0.042982061
       3599.8614     0.080848431
       3600.7488     0.044393839
       3601.6362     0.029581633
       3602.5237     0.065559670
       3603.4111     0.050635827
       3604.2985     0.062336514
       3605.1859     0.055491589
       3606.0733     0.066606919
       3606.9608     0.022868210
       3607.8482     0.030655399
       3608.7356     0.059673145
       3609.6230     0.069104197
       3610.5104     0.045503859
       3611.3979     0.082093138
       3612.2853     0.057172173
       3613.1727     0.041397368
       3614.0601     0.057462055
       3614.9476     0.035708622
       3615.8350     0.044667645
       3616.7224     0.058626237
       3617.6098     0.046756709
       3618.4972     0.059185834
       3619.3847     0.049789661
       3620.2721     0.038039252
       3621.1595     0.026712245
       3622.0469     0.019566050
       3622.9343     0.040143076
       3623.8218    0.0083569881
       3624.7092     0.049265087
       3625.5966     0.061057207
       3626.4840     0.070780802
       3627.3714     0.069263969
       3628.2589     0.033111338
       3629.1463     0.062113633
       3630.0337     0.078450296
       3630.9211     0.068271371
       3631.8086     0.078002346
       3632.6960     0.046306570
       3633.5834     0.012819306
       3634.4708     0.074863968
       3635.3582     0.053920117
       3636.2457     0.069873547
       3637.1331     0.092295933
       3638.0205     0.060948002
       3638.9079     0.074011843
       3639.7953     0.055787848
       3640.6828     0.036536170
       3641.5702     0.027597834
       3642.4576     0.047523675
       3643.3450     0.062609557
       3644.2324     0.044147395
       3645.1199     0.055990650
       3646.0073     0.036250489
       3646.8947     0.040178843
       3647.7821     0.045456197
       3648.6695     0.030702899
       3649.5570    0.0053926731
       3650.4444     0.061190735
       3651.3318     0.030861211
       3652.2192     0.023278066
       3653.1067     0.010570633
       3653.9941     0.072673636
       3654.8815     0.057761147
       3655.7689     0.040417961
       3656.6563     0.066492640
       3657.5438     0.062049830
       3658.4312     0.035288077
       3659.3186     0.053042489
       3660.2060     0.076243142
       3661.0934     0.043627954
       3661.9809     0.064013495
       3662.8683     0.084356803
       3663.7557     0.050642305
       3664.6431     0.046658651
       3665.5305     0.038964180
       3666.4180     0.033766482
       3667.3054     0.040622380
       3668.1928      0.10030776
       3669.0802     0.036603118
       3669.9677     0.026847388
       3670.8551     0.034120715
       3671.7425     0.037080791
       3672.6299     0.041559493
       3673.5173     0.043615706
       3674.4048     0.076885246
       3675.2922     0.069934841
       3676.1796     0.058453146
       3677.0670     0.036769341
       3677.9544     0.064469657
       3678.8419     0.055755647
       3679.7293     0.051749198
       3680.6167     0.078353119
       3681.5041     0.035434539
       3682.3915     0.065107021
       3683.2790     0.034251440
       3684.1664     0.050259359
       3685.0538     0.071361386
       3685.9412     0.043664070
       3686.8287     0.037171947
       3687.7161     0.063867488
       3688.6035     0.041752696
       3689.4909     0.038954379
       3690.3783     0.074955408
       3691.2658     0.068542601
       3692.1532     0.057573281
       3693.0406     0.057130373
       3693.9280     0.049828563
       3694.8154     0.078624594
       3695.7029     0.071691154
       3696.5903     0.038600787
       3697.4777     0.096576167
       3698.3651     0.062128030
       3699.2525     0.054272805
       3700.1400     0.031313494
       3701.0274     0.026666467
       3701.9148     0.045100312
       3702.8022     0.040975738
       3703.6896     0.058305955
       3704.5771     0.078886124
       3705.4645     0.026081692
       3706.3519     0.060184368
       3707.2393     0.079475880
       3708.1268     0.015817642
       3709.0142     0.052410530
       3709.9016      0.10175867
       3710.7890     0.030764346
       3711.6764     0.055274640
       3712.5639    -0.023455101
       3713.4513     0.033919655
       3714.3387     0.060243987
       3715.2261     0.054103262
       3716.1135     0.048178673
       3717.0010     0.089246729
       3717.8884     0.063794747
       3718.7758     0.069721266
       3719.6632     0.082555899
       3720.5506     0.066610053
       3721.4381     0.041906940
       3722.3255     0.089827253
       3723.2129    -0.012403504
       3724.1003     0.040030738
       3724.9878    0.0016134457
       3725.8752     0.048668267
       3726.7626     0.063148290
       3727.6500     0.059004632
       3728.5374      0.10342229
       3729.4249      0.12760264
       3730.3123     0.093361323
       3731.1997     0.099719374
       3732.0871      0.12092656
       3732.9745     0.046526542
       3733.8620      0.10171304
       3734.7494     0.076328600
       3735.6368     0.062742586
       3736.5242     0.045609492
       3737.4116     0.022524523
       3738.2991     0.027226182
       3739.1865     0.023554263
       3740.0739     0.053840460
       3740.9613     0.042637508
       3741.8487     0.057032809
       3742.7362     0.058886046
       3743.6236     0.049046465
       3744.5110     0.074945239
       3745.3984     0.038134004
       3746.2859     0.047148899
       3747.1733     0.019826705
       3748.0607     0.024052016
       3748.9481     0.022330058
       3749.8355     0.049283604
       3750.7230     0.052099526
       3751.6104     0.076258125
       3752.4978    0.0029676665
       3753.3852     0.025996156
       3754.2726    0.0011974599
       3755.1601     0.039403528
       3756.0475     0.054142981
       3756.9349     0.072008019
       3757.8223     0.070993205
       3758.7097     0.040245854
       3759.5972     0.049397684
       3760.4846     0.054200662
       3761.3720      0.10120919
       3762.2594     0.036659374
       3763.1469     0.037599242
       3764.0343     0.091338648
       3764.9217     0.045136071
       3765.8091     0.060021100
       3766.6965     0.069839221
       3767.5840     0.037490124
       3768.4714     0.068900065
       3769.3588     0.094294366
       3770.2462     0.082978426
       3771.1336     0.031332767
       3772.0211     0.043090108
       3772.9085      0.11129421
       3773.7959     0.085829823
       3774.6833     0.063319369
       3775.5707     0.065838643
       3776.4582     0.058732785
       3777.3456     0.063283989
       3778.2330      0.12154594
       3779.1204     0.078469297
       3780.0078     0.052323366
       3780.8953     0.076889459
       3781.7827     0.073635901
       3782.6701      0.10242414
       3783.5575     0.072243655
       3784.4450     0.035642016
       3785.3324     0.053595784
       3786.2198     0.066217073
       3787.1072     0.086711782
       3787.9946     0.053911689
       3788.8821     0.088967255
       3789.7695     0.039726263
       3790.6569     0.036719035
       3791.5443     0.057227475
       3792.4317     0.035355035
       3793.3192     0.042585087
       3794.2066     0.097367807
       3795.0940     0.073294833
       3795.9814     0.075244658
       3796.8688     0.032690661
       3797.7563     0.067225527
       3798.6437    0.0031054631
       3799.5311     0.059361773
       3800.4185     0.073367009
       3801.3060     0.059886520
       3802.1934     0.073565164
       3803.0808     0.049542967
       3803.9682     0.037774575
       3804.8556     0.037417648
       3805.7431     0.049556627
       3806.6305     0.044218814
       3807.5179     0.090007747
       3808.4053     0.078077186
       3809.2927      0.11221946
       3810.1802     0.080178863
       3811.0676     0.043099150
       3811.9550     0.057687669
       3812.8424     0.086456959
       3813.7298     0.091009123
       3814.6173     0.096749453
       3815.5047     0.090687202
       3816.3921     0.062391462
       3817.2795     0.073603148
       3818.1669     0.062916023
       3819.0544     0.069696441
       3819.9418     0.058506724
       3820.8292     0.063100915
       3821.7166     0.061874078
       3822.6041     0.079444088
       3823.4915     0.082900808
       3824.3789     0.050843799
       3825.2663     0.073810765
       3826.1537     0.018389028
       3827.0412     0.067532321
       3827.9286      0.11242245
       3828.8160     0.040675058
       3829.7034     0.067634336
       3830.5908     0.040653431
       3831.4783     0.026257612
       3832.3657     0.065725116
       3833.2531     0.029959179
       3834.1405     0.043927448
       3835.0279     0.031196805
       3835.9154     0.044546925
       3836.8028     0.040727056
       3837.6902     0.019830269
       3838.5776     0.046737210
       3839.4651     0.051861119
       3840.3525     0.040074341
       3841.2399     0.082107041
       3842.1273     0.085577387
       3843.0147     0.070650808
       3843.9022     0.050748603
       3844.7896     0.058320202
       3845.6770     0.044549865
       3846.5644     0.081885645
       3847.4518     0.090289812
       3848.3393      0.10592274
       3849.2267      0.11595366
       3850.1141     0.084290991
       3851.0015     0.096501564
       3851.8889      0.10476131
       3852.7764     0.076102624
       3853.6638     0.079724519
       3854.5512     0.088739407
       3855.4386     0.045881398
       3856.3261     0.020690241
       3857.2135     0.061636024
       3858.1009     0.060960520
       3858.9883     0.057950398
       3859.8757     0.084485223
       3860.7632     0.088464688
       3861.6506     0.047546277
       3862.5380     0.093388892
       3863.4254     0.020093721
       3864.3128     0.071635987
       3865.2003     0.077123604
       3866.0877      0.14035918
       3866.9751     0.052857010
       3867.8625     0.048521402
       3868.7499     0.093936126
       3869.6374     0.058929293
       3870.5248     0.057029125
       3871.4122      0.11831048
       3872.2996     0.078137787
       3873.1870     0.067905172
       3874.0745     0.073114850
       3874.9619     0.093813792
       3875.8493     0.065673733
       3876.7367     0.069171054
       3877.6242      0.11092582
       3878.5116      0.10143900
       3879.3990     0.042556428
       3880.2864     0.083961677
       3881.1738     0.048388820
       3882.0613     0.031581502
       3882.9487     0.043481921
       3883.8361     0.023440942
       3884.7235     0.067787233
       3885.6109     0.044333952
       3886.4984     0.030781902
       3887.3858     0.071053479
       3888.2732     0.049526834
       3889.1606     0.023001999
       3890.0480     0.035628999
       3890.9355     0.070945948
       3891.8229     0.082823221
       3892.7103     0.089885739
       3893.5977     0.046040637
       3894.4852     0.051937877
       3895.3726     0.027621205
       3896.2600      0.10175526
       3897.1474     0.086107790
       3898.0348     0.074429582
       3898.9223     0.099275755
       3899.8097     0.095039851
       3900.6971     0.077220333
       3901.5845      0.10576875
       3902.4719     0.024933232
       3903.3594     0.033580429
       3904.2468     0.042052782
       3905.1342     0.034788950
       3906.0216     0.059045102
       3906.9090     0.081514061
       3907.7965     0.062069865
       3908.6839     0.072599192
       3909.5713     0.090483365
       3910.4587     0.065073916
       3911.3461      0.10188344
       3912.2336     0.074576879
       3913.1210     0.087563425
       3914.0084     0.073560986
       3914.8958     0.085276507
       3915.7833     0.057765075
       3916.6707     0.087246447
       3917.5581     0.071570294
       3918.4455     0.050087013
       3919.3329     0.024044796
       3920.2204     0.077265431
       3921.1078     0.046530664
       3921.9952     0.050619782
       3922.8826     0.061555487
       3923.7700     0.072596449
       3924.6575      0.12145719
       3925.5449      0.11851234
       3926.4323     0.065328340
       3927.3197     0.045404344
       3928.2071     0.060016839
       3929.0946    0.0075022670
       3929.9820     0.024345414
       3930.8694   -0.0082524909
       3931.7568     0.031621584
       3932.6443     0.056865205
       3933.5317     0.037904526
       3934.4191     0.047201761
       3935.3065     0.062456198
       3936.1939     0.037642890
       3937.0814     0.053864109
       3937.9688     0.089630295
       3938.8562     0.050232408
       3939.7436     0.022573348
       3940.6310     0.068695670
       3941.5185      0.11482111
       3942.4059     0.052324281
       3943.2933     0.029400756
       3944.1807     0.048122144
       3945.0681     0.036632898
       3945.9556     0.038927636
       3946.8430     0.010328363
       3947.7304     0.074001331
       3948.6178     0.062374550
       3949.5052     0.047539640
       3950.3927     0.074150461
       3951.2801     0.074918159
       3952.1675     0.057011311
       3953.0549     0.056313095
       3953.9424     0.050628450
       3954.8298     0.096648216
       3955.7172     0.070074185
       3956.6046     0.059201326
       3957.4920     0.058052825
       3958.3795     0.058649474
       3959.2669     0.052854429
       3960.1543     0.089493133
       3961.0417     0.095483736
       3961.9291     0.064734916
       3962.8166     0.015267487
       3963.7040     0.037477589
       3964.5914     0.034890323
       3965.4788     0.034380482
       3966.3662     0.033814063
       3967.2537     0.035577826
       3968.1411     0.070464982
       3969.0285     0.057968946
       3969.9159     0.030930701
       3970.8034     0.070998878
       3971.6908     0.090460694
       3972.5782     0.051718992
       3973.4656     0.053586371
       3974.3530     0.062960425
       3975.2405      0.10899086
       3976.1279      0.12073155
       3977.0153     0.098275167
       3977.9027     0.092979000
       3978.7901     0.072121312
       3979.6776     0.085075347
       3980.5650     0.080722520
       3981.4524     0.062126974
       3982.3398     0.090233113
       3983.2272     0.070919168
       3984.1147     0.084370540
       3985.0021      0.10053768
       3985.8895      0.10839451
       3986.7769      0.12716255
       3987.6644     0.074846709
       3988.5518     0.053864658
       3989.4392     0.068451933
       3990.3266     0.083703816
       3991.2140     0.092243042
       3992.1015      0.11411981
       3992.9889     0.075005381
       3993.8763     0.046409258
       3994.7637      0.11789867
       3995.6511      0.12173963
       3996.5386     0.072657717
       3997.4260      0.12293893
       3998.3134      0.10026296
       3999.2008     0.084656848
       4000.0882     0.051203193
       4000.9757     0.084553110
       4001.8631     0.068915361
       4002.7505     0.087904793
       4003.6379      0.10145183
       4004.5253     0.078090918
       4005.4128      0.10983064
       4006.3002      0.11434939
       4007.1876      0.11751122
       4008.0750      0.12474489
       4008.9625      0.14748397
       4009.8499      0.10596379
       4010.7373     0.072114025
       4011.6247      0.10395627
       4012.5121     0.096240567
       4013.3996     0.075903452
       4014.2870     0.095950785
       4015.1744     0.092061740
       4016.0618      0.13046539
       4016.9492     0.082456634
       4017.8367     0.076515288
       4018.7241     0.091005109
       4019.6115     0.072128130
       4020.4989      0.10724949
       4021.3863     0.072210099
       4022.2738     0.068834137
       4023.1612      0.10814343
       4024.0486     0.084635346
       4024.9360     0.078236616
       4025.8235     0.087627892
       4026.7109      0.11134470
       4027.5983     0.072672316
       4028.4857     0.083606461
       4029.3731      0.11420584
       4030.2606     0.083072676
       4031.1480      0.13155125
       4032.0354     0.086191292
       4032.9228     0.082224745
       4033.8102      0.10153100
       4034.6977     0.093655466
       4035.5851     0.067893961
       4036.4725     0.088136057
       4037.3599     0.083526106
       4038.2473     0.068984989
       4039.1348     0.091373189
       4040.0222     0.075444722
       4040.9096      0.12495998
       4041.7970      0.12577069
       4042.6844      0.11196838
       4043.5719     0.069580139
       4044.4593      0.10337069
       4045.3467     0.094692227
       4046.2341     0.077406104
       4047.1216     0.092033167
       4048.0090     0.088000203
       4048.8964      0.10574791
       4049.7838      0.10541312
       4050.6712     0.069814232
       4051.5587     0.076689614
       4052.4461      0.11221875
       4053.3335      0.10037601
       4054.2209     0.093952054
       4055.1083     0.096868896
       4055.9958     0.098904947
       4056.8832      0.10591101
       4057.7706      0.13080130
       4058.6580      0.10406914
       4059.5454     0.073336838
       4060.4329     0.048633797
       4061.3203     0.044075441
       4062.2077      0.11483969
       4063.0951      0.10765404
       4063.9826      0.10037792
       4064.8700     0.082464035
       4065.7574     0.069168776
       4066.6448     0.074938554
       4067.5322     0.099320081
       4068.4197      0.12709061
       4069.3071      0.10969982
       4070.1945     0.077605963
       4071.0819     0.070405450
       4071.9693     0.052272068
       4072.8568     0.096468021
       4073.7442      0.10778945
       4074.6316      0.13179334
       4075.5190      0.11362909
       4076.4064      0.13353824
       4077.2939     0.090927354
       4078.1813     0.060769537
       4079.0687      0.11396627
       4079.9561      0.10094319
       4080.8435      0.11250871
       4081.7310     0.097596868
       4082.6184      0.16967958
       4083.5058     0.050244754
       4084.3932     0.076266232
       4085.2807      0.12290442
       4086.1681     0.099375060
       4087.0555     0.090772607
       4087.9429     0.092907641
       4088.8303      0.10453955
       4089.7178     0.084773781
       4090.6052      0.10202097
       4091.4926     0.060804296
       4092.3800     0.079209919
       4093.2674     0.091189869
       4094.1549      0.11259226
       4095.0423     0.092770503
       4095.9297     0.058561819
       4096.8171     0.071915726
       4097.7045     0.083704272
       4098.5920     0.091815574
       4099.4794      0.10257955
       4100.3668     0.036224659
       4101.2542     0.082638357
       4102.1417     0.074376968
       4103.0291      0.11017848
       4103.9165      0.10332211
       4104.8039      0.12071364
       4105.6913      0.11713172
       4106.5788      0.10865332
       4107.4662     0.059355410
       4108.3536     0.081086286
       4109.2410     0.068554776
       4110.1284      0.12115591
       4111.0159     0.076260191
       4111.9033      0.10006200
       4112.7907     0.082389178
       4113.6781     0.076067818
       4114.5655      0.10766404
       4115.4530     0.066389715
       4116.3404      0.11584436
       4117.2278      0.13160393
       4118.1152      0.12293876
       4119.0026      0.11523779
       4119.8901      0.12165229
       4120.7775      0.13499223
       4121.6649      0.12292210
       4122.5523      0.12900649
       4123.4398      0.12651516
       4124.3272     0.096417756
       4125.2146     0.093973321
       4126.1020      0.10683808
       4126.9894      0.10472826
       4127.8769     0.084465646
       4128.7643      0.13350048
       4129.6517      0.14025862
       4130.5391     0.088921251
       4131.4265     0.070828101
       4132.3140     0.096625228
       4133.2014     0.093044253
       4134.0888      0.10479230
       4134.9762     0.092613683
       4135.8636      0.14450948
       4136.7511     0.096697965
       4137.6385     0.080595630
       4138.5259     0.095292207
       4139.4133     0.077892876
       4140.3008     0.078923178
       4141.1882     0.077841711
       4142.0756      0.10726976
       4142.9630     0.037700844
       4143.8504     0.053342903
       4144.7379      0.12346664
       4145.6253      0.12819801
       4146.5127      0.12401877
       4147.4001     0.090610804
       4148.2875     0.063616368
       4149.1750      0.12691198
       4150.0624      0.12621481
       4150.9498      0.14839910
       4151.8372      0.14607708
       4152.7246      0.13467407
       4153.6121     0.099756663
       4154.4995     0.095681729
       4155.3869      0.11016778
       4156.2743      0.10713810
       4157.1618     0.096724854
       4158.0492     0.098318207
       4158.9366      0.15917239
       4159.8240      0.10306056
       4160.7114      0.10566750
       4161.5989     0.099849715
       4162.4863      0.11126674
       4163.3737      0.10760362
       4164.2611     0.058732132
       4165.1485     0.095353073
       4166.0360      0.10449592
       4166.9234      0.11218249
       4167.8108      0.11730018
       4168.6982      0.11735713
       4169.5856      0.14579038
       4170.4731      0.12638779
       4171.3605      0.14574830
       4172.2479      0.11782225
       4173.1353     0.057044871
       4174.0227     0.092285585
       4174.9102     0.097940514
       4175.7976      0.10168976
       4176.6850     0.068981762
       4177.5724     0.067681989
       4178.4599      0.11881202
       4179.3473      0.11155395
       4180.2347      0.13352195
       4181.1221      0.10985509
       4182.0095     0.083628280
       4182.8970      0.12510720
       4183.7844      0.13292216
       4184.6718      0.10559109
       4185.5592      0.12495300
       4186.4466      0.11513937
       4187.3341     0.090695851
       4188.2215     0.088021801
       4189.1089     0.091461302
       4189.9963     0.094846678
       4190.8837     0.075585651
       4191.7712     0.059732062
       4192.6586     0.075427707
       4193.5460     0.096224156
       4194.4334      0.10201038
       4195.3209      0.10050296
       4196.2083      0.11855211
       4197.0957     0.093907802
       4197.9831     0.083907852
       4198.8705     0.036226655
       4199.7580      0.10717855
       4200.6454      0.13335319
       4201.5328      0.15294138
       4202.4202     0.094775379
       4203.3076     0.081129533
       4204.1951     0.080879760
       4205.0825      0.10511777
       4205.9699      0.10858985
       4206.8573      0.10820530
       4207.7447      0.12159004
       4208.6322      0.13888236
       4209.5196      0.13782024
       4210.4070     0.082957087
       4211.2944     0.053158506
       4212.1818     0.080420482
       4213.0693     0.074453345
       4213.9567     0.092061723
       4214.8441     0.057470966
       4215.7315     0.044551657
       4216.6190     0.077813359
       4217.5064     0.074730021
       4218.3938      0.13761240
       4219.2812      0.17052813
       4220.1686      0.13327483
       4221.0561     0.087203591
       4221.9435      0.11803723
       4222.8309      0.11626145
       4223.7183     0.077258720
       4224.6057     0.083225466
       4225.4932     0.065014502
       4226.3806      0.11804815
       4227.2680      0.11370876
       4228.1554      0.10003315
       4229.0428     0.063712389
       4229.9303     0.095842659
       4230.8177     0.093916766
       4231.7051     0.087786381
       4232.5925      0.11683322
       4233.4800      0.11590888
       4234.3674      0.10222431
       4235.2548      0.10129094
       4236.1422      0.11431261
       4237.0296     0.094538949
       4237.9171     0.088095365
       4238.8045     0.081939100
       4239.6919     0.065101493
       4240.5793      0.10197214
       4241.4667      0.13854698
       4242.3542     0.094478210
       4243.2416      0.12232604
       4244.1290      0.10293088
       4245.0164     0.069971326
       4245.9038      0.11679522
       4246.7913      0.12162786
       4247.6787      0.11698517
       4248.5661      0.12162224
       4249.4535     0.074794073
       4250.3409     0.079420859
       4251.2284      0.11128444
       4252.1158     0.091910289
       4253.0032      0.15080250
       4253.8906      0.16302769
       4254.7781      0.14717783
       4255.6655      0.10747072
       4256.5529     0.066903950
       4257.4403      0.11595257
       4258.3277     0.051458724
       4259.2152      0.12089126
       4260.1026      0.11769268
       4260.9900     0.081347241
       4261.8774      0.11741888
       4262.7648      0.11660637
       4263.6523     0.095798110
       4264.5397      0.15609580
       4265.4271     0.064489752
       4266.3145      0.12225712
       4267.2019     0.095634517
       4268.0894      0.14483298
       4268.9768      0.12178795
       4269.8642     0.063255691
       4270.7516      0.12918588
       4271.6391      0.18423704
       4272.5265      0.14179961
       4273.4139      0.11616915
       4274.3013     0.096987861
       4275.1887      0.10654346
       4276.0762     0.078437712
       4276.9636     0.075868456
       4277.8510      0.12858255
       4278.7384      0.14462072
       4279.6258      0.10761123
       4280.5133     0.091205116
       4281.4007      0.11592979
       4282.2881      0.12190148
       4283.1755     0.073320580
       4284.0629     0.074007412
       4284.9504      0.10616556
       4285.8378      0.10436174
       4286.7252      0.11205369
       4287.6126     0.099479931
       4288.5000      0.10743324
       4289.3875      0.12013772
       4290.2749      0.13872628
       4291.1623      0.11030681
       4292.0497     0.084469211
       4292.9372     0.088078813
       4293.8246      0.10486897
       4294.7120      0.10446827
       4295.5994     0.072979223
       4296.4868     0.094574371
       4297.3743     0.063046434
       4298.2617     0.070463575
       4299.1491      0.15237012
       4300.0365      0.13701621
       4300.9239     0.094750925
       4301.8114      0.15978778
       4302.6988      0.11369321
       4303.5862      0.10688494
       4304.4736      0.12529305
       4305.3610     0.093799753
       4306.2485      0.10630111
       4307.1359     0.097841778
       4308.0233     0.092725044
       4308.9107      0.10842972
       4309.7982     0.090934547
       4310.6856     0.062962416
       4311.5730     0.092145635
       4312.4604     0.073019418
       4313.3478      0.11022492
       4314.2353     0.047055215
       4315.1227      0.10449637
       4316.0101     0.097124577
       4316.8975      0.17061671
       4317.7849      0.13097504
       4318.6724      0.11345332
       4319.5598     0.076781528
       4320.4472     0.082560269
       4321.3346      0.11007073
       4322.2220     0.086559207
       4323.1095     0.083941647
       4323.9969      0.12120679
       4324.8843     0.095641265
       4325.7717      0.10076159
       4326.6592     0.097451857
       4327.5466      0.13937587
       4328.4340      0.14273971
       4329.3214      0.11478211
       4330.2088     0.073595326
       4331.0963     0.058322492
       4331.9837     0.092763754
       4332.8711      0.12236890
       4333.7585     0.090256033
       4334.6459     0.072617281
       4335.5334     0.080022326
       4336.4208      0.12535867
       4337.3082     0.095464836
       4338.1956     0.083938188
       4339.0830      0.11295244
       4339.9705      0.12694434
       4340.8579      0.14806966
       4341.7453      0.14943602
       4342.6327      0.12114824
       4343.5201      0.14537734
       4344.4076      0.14164957
       4345.2950      0.17346053
       4346.1824      0.15206726
       4347.0698      0.18227938
       4347.9573      0.13458885
       4348.8447      0.11700724
       4349.7321      0.13267665
       4350.6195      0.12760561
       4351.5069      0.12883931
       4352.3944     0.098343478
       4353.2818      0.14856274
       4354.1692      0.11518136
       4355.0566     0.062643837
       4355.9440     0.092284318
       4356.8315      0.10015056
       4357.7189      0.10483124
       4358.6063     0.091835082
       4359.4937      0.11394025
       4360.3811      0.11760690
       4361.2686      0.12457177
       4362.1560     0.096194432
       4363.0434     0.046870032
       4363.9308     0.090219997
       4364.8183      0.10632977
       4365.7057      0.11853129
       4366.5931      0.10922428
       4367.4805      0.12204300
       4368.3679      0.11204020
       4369.2554      0.13607516
       4370.1428      0.13583897
       4371.0302      0.11970579
       4371.9176      0.12427464
       4372.8050     0.094037573
       4373.6925      0.15500428
       4374.5799      0.13768961
       4375.4673      0.14554729
       4376.3547      0.12667511
       4377.2421      0.13015911
       4378.1296      0.10358558
       4379.0170     0.092913343
       4379.9044      0.12050685
       4380.7918      0.16492227
       4381.6792      0.12980361
       4382.5667      0.15328859
       4383.4541      0.11954267
       4384.3415      0.11414509
       4385.2289     0.084482409
       4386.1164      0.11979697
       4387.0038     0.082155912
       4387.8912     0.079294960
       4388.7786      0.11189130
       4389.6660      0.12626164
       4390.5535      0.14364047
       4391.4409     0.099986261
       4392.3283      0.11602673
       4393.2157      0.10211339
       4394.1031      0.14423326
       4394.9906      0.12095575
       4395.8780      0.16363381
       4396.7654     0.095439629
       4397.6528      0.11524613
       4398.5402     0.093462920
       4399.4277     0.052978190
       4400.3151     0.035397744
       4401.2025     0.077425646
       4402.0899      0.13478186
       4402.9774      0.15203059
       4403.8648      0.13704378
       4404.7522      0.14811514
       4405.6396      0.10887319
       4406.5270      0.15129191
       4407.4145      0.15282075
       4408.3019      0.15663480
       4409.1893      0.12125640
       4410.0767      0.17121372
       4410.9641      0.12152265
       4411.8516     0.086031565
       4412.7390     0.081409764
       4413.6264      0.10524607
       4414.5138      0.11892250
       4415.4012      0.13344260
       4416.2887      0.15191211
       4417.1761      0.11898289
       4418.0635      0.19891000
       4418.9509      0.16250667
       4419.8383      0.10723433
       4420.7258      0.11477719
       4421.6132      0.16261956
       4422.5006      0.16561252
       4423.3880      0.12299484
       4424.2755      0.11087725
       4425.1629      0.11897945
       4426.0503      0.13829935
       4426.9377      0.14525049
       4427.8251      0.13808512
       4428.7126      0.10008594
       4429.6000      0.14064665
       4430.4874      0.11115098
       4431.3748      0.12336068
       4432.2622     0.069242097
       4433.1497      0.15595198
       4434.0371      0.13434557
       4434.9245     0.073094459
       4435.8119     0.094356284
       4436.6993     0.082282905
       4437.5868      0.12071894
       4438.4742      0.10809048
       4439.3616      0.15499966
       4440.2490      0.16452540
       4441.1365      0.15692868
       4442.0239      0.12483928
       4442.9113      0.12268098
       4443.7987      0.13407921
       4444.6861      0.12970678
       4445.5736      0.16481217
       4446.4610      0.12401070
       4447.3484      0.14569886
       4448.2358      0.14913041
       4449.1232      0.10388414
       4450.0107      0.11680372
       4450.8981      0.18067995
       4451.7855      0.13514765
       4452.6729     0.074291934
       4453.5603      0.12517562
       4454.4478      0.12654968
       4455.3352      0.11752555
       4456.2226     0.094955175
       4457.1100      0.15042408
       4457.9975      0.12202914
       4458.8849      0.15407271
       4459.7723      0.13633286
       4460.6597      0.15361269
       4461.5471      0.19585712
       4462.4346      0.13346507
       4463.3220     0.093051953
       4464.2094      0.14658673
       4465.0968      0.15659624
       4465.9842      0.15646607
       4466.8717      0.18390348
       4467.7591      0.15117508
       4468.6465      0.15166583
       4469.5339      0.11032969
       4470.4213      0.12698706
       4471.3088      0.11949337
       4472.1962      0.12004075
       4473.0836      0.10333430
       4473.9710      0.13213442
       4474.8584      0.14622702
       4475.7459      0.12261075
       4476.6333      0.11405763
       4477.5207      0.12480973
       4478.4081      0.13652445
       4479.2956      0.16768035
       4480.1830      0.18198791
       4481.0704      0.13084125
       4481.9578      0.14863363
       4482.8452      0.15068672
       4483.7327      0.11756364
       4484.6201      0.11911930
       4485.5075      0.10207953
       4486.3949     0.099628691
       4487.2823      0.12389895
       4488.1698      0.14152551
       4489.0572      0.14941420
       4489.9446      0.12735671
       4490.8320      0.16688624
       4491.7194      0.15569603
       4492.6069      0.12447854
       4493.4943      0.12522186
       4494.3817      0.14948461
       4495.2691     0.078859156
       4496.1566      0.10197593
       4497.0440      0.14866293
       4497.9314      0.17216704
       4498.8188      0.14185036
       4499.7062      0.14867436
       4500.5937      0.12560111
       4501.4811      0.15740745
       4502.3685      0.10970557
       4503.2559      0.12225513
       4504.1433      0.12752490
       4505.0308      0.12376892
       4505.9182      0.10828068
       4506.8056     0.061687099
       4507.6930      0.11141077
       4508.5804      0.10661310
       4509.4679      0.13915456
       4510.3553      0.12537438
       4511.2427      0.10064575
       4512.1301     0.086062112
       4513.0175      0.11338427
       4513.9050     0.081550341
       4514.7924      0.10356338
       4515.6798      0.14948087
       4516.5672      0.16408201
       4517.4547      0.10591567
       4518.3421      0.14206248
       4519.2295     0.080875132
       4520.1169      0.10760859
       4521.0043      0.10917399
       4521.8918      0.11623893
       4522.7792      0.18743280
       4523.6666      0.11671513
       4524.5540      0.12914471
       4525.4414      0.14114377
       4526.3289      0.14798277
       4527.2163      0.14670568
       4528.1037      0.13046390
       4528.9911     0.094882305
       4529.8785      0.10296268
       4530.7660      0.10372085
       4531.6534      0.17152114
       4532.5408      0.17553871
       4533.4282      0.12963355
       4534.3157      0.14335308
       4535.2031      0.14974300
       4536.0905      0.17408337
       4536.9779     0.046121746
       4537.8653     0.055466784
       4538.7528      0.11811668
       4539.6402      0.12767496
       4540.5276      0.14087747
       4541.4150      0.16018020
       4542.3024      0.16285981
       4543.1899      0.12055007
       4544.0773    -0.058513939
       4544.9647    -0.046274383
       4545.8521     0.071143649
       4546.7395      0.16593344
       4547.6270      0.18798719
       4548.5144      0.36958373
       4549.4018      0.15342034
       4550.2892      0.11847563
       4551.1766      0.15827280
       4552.0641     0.092203307
       4552.9515     0.091114895
       4553.8389      0.12216158
       4554.7263      0.12782489
       4555.6138     0.078943736
       4556.5012      0.11993562
       4557.3886      0.14386996
       4558.2760      0.12254922
       4559.1634      0.12428508
       4560.0509     0.078987351
       4560.9383      0.11756276
       4561.8257      0.10386977
       4562.7131      0.13416619
       4563.6005     0.090277236
       4564.4880     0.093931747
       4565.3754     0.080699323
       4566.2628     0.083867999
       4567.1502      0.11520053
       4568.0376     0.081047642
       4568.9251     0.039398949
       4569.8125     0.069811982
       4570.6999     0.077485899
       4571.5873     0.060163382
       5198.6856      0.96915155
       5199.6600      0.84355816
       5200.6345      0.63245948
       5201.6090      0.53768628
       5202.5834      0.45294791
       5203.5579      0.42177850
       5204.5323      0.37366027
       5205.5068      0.47253691
       5206.4813      0.47576403
       5207.4557      0.45156872
       5208.4302      0.40598440
       5209.4047      0.31312164
       5210.3791      0.41937486
       5211.3536      0.49214950
       5212.3280      0.48189784
       5213.3025      0.52489494
       5214.2770      0.44519522
       5215.2514      0.44713319
       5216.2259      0.36451729
       5217.2003      0.42265833
       5218.1748      0.44105879
       5219.1493      0.40439125
       5220.1237      0.38735977
       5221.0982      0.39775334
       5222.0727      0.52984783
       5223.0471      0.46090670
       5224.0216      0.46312216
       5224.9960      0.43299085
       5225.9705      0.39744980
       5226.9450      0.49686147
       5227.9194      0.56347358
       5228.8939      0.46628706
       5229.8683      0.48838820
       5230.8428      0.50028277
       5231.8173      0.43483354
       5232.7917      0.53584990
       5233.7662      0.47804962
       5234.7407      0.43032377
       5235.7151      0.37156508
       5236.6896      0.47178702
       5237.6640      0.39919903
       5238.6385      0.41873232
       5239.6130      0.40851803
       5240.5874      0.41233001
       5241.5619      0.44292677
       5242.5363      0.43246728
       5243.5108      0.61568462
       5244.4853      0.54419368
       5245.4597      0.44432059
       5246.4342      0.40556502
       5247.4087      0.38948428
       5248.3831      0.42490083
       5249.3576      0.40914747
       5250.3320      0.50270724
       5251.3065      0.34063129
       5252.2810      0.43422746
       5253.2554      0.43267901
       5254.2299      0.30970966
       5255.2043      0.38183586
       5256.1788      0.39549541
       5257.1533      0.41466958
       5258.1277      0.41362367
       5259.1022      0.40959098
       5260.0767      0.43162756
       5261.0511      0.40187373
       5262.0256      0.43063007
       5263.0000      0.53426175
       5263.9745      0.52266537
       5264.9490      0.52202324
       5265.9234      0.47913126
       5266.8979      0.57459008
       5267.8723      0.54893679
       5268.8468      0.43382208
       5269.8213      0.43454076
       5270.7957      0.44816746
       5271.7702      0.43668288
       5272.7447      0.55327283
       5273.7191      0.45991466
       5274.6936      0.56066512
       5275.6680      0.51712170
       5276.6425      0.53971486
       5277.6170      0.50498020
       5278.5914      0.53781128
       5279.5659      0.53264953
       5280.5403      0.55415250
       5281.5148      0.53054348
       5282.4893      0.49716201
       5283.4637      0.46306650
       5284.4382      0.53859937
       5285.4127      0.55264327
       5286.3871      0.56523673
       5287.3616      0.57657014
       5288.3360      0.52681748
       5289.3105      0.47262445
       5290.2850      0.53966967
       5291.2594      0.55882793
       5292.2339      0.50823180
       5293.2083      0.60134304
       5294.1828      0.56253383
       5295.1573      0.57597972
       5296.1317      0.58872068
       5297.1062      0.54078426
       5298.0807      0.38216467
       5299.0551      0.47444501
       5300.0296      0.70111682
       5301.0040      0.61062538
       5301.9785      0.56321393
       5302.9530      0.56694742
       5303.9274      0.44201479
       5304.9019      0.40920955
       5305.8763      0.56514418
       5306.8508      0.67765186
       5307.8253      0.49397680
       5308.7997      0.52344725
       5309.7742      0.56181111
       5310.7487      0.54522332
       5311.7231      0.52467267
       5312.6976      0.48152419
       5313.6720      0.50311278
       5314.6465      0.52254366
       5315.6210      0.54781083
       5316.5954      0.57062374
       5317.5699      0.61821017
       5318.5443      0.53737889
       5319.5188      0.44399043
       5320.4933      0.56628697
       5321.4677      0.59370356
       5322.4422      0.59296361
       5323.4167      0.50178663
       5324.3911      0.39873487
       5325.3656      0.51988048
       5326.3400      0.45550861
       5327.3145      0.46466158
       5328.2890      0.48058258
       5329.2634      0.60706906
       5330.2379      0.65254209
       5331.2123      0.65779408
       5332.1868      0.45133943
       5333.1613      0.61779773
       5334.1357      0.56992025
       5335.1102      0.50299042
       5336.0847      0.54897402
       5337.0591      0.49418833
       5338.0336      0.70172800
       5339.0080      0.72771473
       5339.9825      0.63767567
       5340.9570      0.63138786
       5341.9314      0.66822598
       5342.9059      0.63117519
       5343.8803      0.55544757
       5344.8548      0.50274785
       5345.8293      0.56803760
       5346.8037      0.50574243
       5347.7782      0.47577950
       5348.7527      0.54235630
       5349.7271      0.54734164
       5350.7016      0.40658916
       5351.6760      0.51694669
       5352.6505      0.54539256
       5353.6250      0.47234636
       5354.5994      0.51383586
       5355.5739      0.46716839
       5356.5483      0.46666608
       5357.5228      0.60935720
       5358.4973      0.55666467
       5359.4717      0.45523627
       5360.4462      0.50131708
       5361.4207      0.47028350
       5362.3951      0.49422734
       5363.3696      0.58917208
       5364.3440      0.60894041
       5365.3185      0.60184502
       5366.2930      0.53248073
       5367.2674      0.47353327
       5368.2419      0.64101602
       5369.2163      0.66014792
       5370.1908      0.59398861
       5371.1653      0.47511510
       5372.1397      0.59110038
       5373.1142      0.49667528
       5374.0887      0.36997702
       5375.0631      0.45936551
       5376.0376      0.46298048
       5377.0120      0.55618728
       5377.9865      0.48212986
       5378.9610      0.48927878
       5379.9354      0.54151123
       5380.9099      0.43384271
       5381.8843      0.56607085
       5382.8588      0.59209786
       5383.8333      0.43016939
       5384.8077      0.47220492
       5385.7822      0.52364957
       5386.7567      0.55172570
       5387.7311      0.60003270
       5388.7056      0.64801501
       5389.6800      0.69788928
       5390.6545      0.59117773
       5391.6290      0.47025123
       5392.6034      0.54574848
       5393.5779      0.57535762
       5394.5523      0.52624501
       5395.5268      0.46616668
       5396.5013      0.53402398
       5397.4757      0.46584968
       5398.4502      0.51566389
       5399.4247      0.57135374
       5400.3991      0.48707859
       5401.3736      0.55794530
       5402.3480      0.53025183
       5403.3225      0.45877971
       5404.2970      0.45748319
       5405.2714      0.45047641
       5406.2459      0.59248126
       5407.2203      0.56935994
       5408.1948      0.51236817
       5409.1693      0.46814127
       5410.1437      0.51719171
       5411.1182      0.45245621
       5412.0927      0.52236294
       5413.0671      0.71864300
       5414.0416      0.59765102
       5415.0160      0.36716163
       5415.9905      0.37921336
       5416.9650      0.37307913
       5417.9394      0.45473356
       5418.9139      0.35656649
       5419.8884      0.38691363
       5420.8628      0.36442633
       5421.8373      0.32628169
       5422.8117      0.36048863
       5423.7862      0.24608617
       5424.7607      0.29269235
       5425.7351      0.27146942
       5426.7096      0.33427433
       5427.6840      0.44915750
       5428.6585      0.30246338
       5429.6330      0.34582283
       5430.6074      0.33710621
       5431.5819      0.32302701
       5432.5564      0.33016550
       5433.5308      0.46445998
       5434.5053      0.41789959
       5435.4797      0.39505858
       5436.4542      0.35202281
       5437.4287      0.46325410
       5438.4031      0.36424473
       5439.3776      0.39018430
       5440.3520      0.40719504
       5441.3265      0.42744156
       5442.3010      0.38056706
       5443.2754      0.28233888
       5444.2499      0.44579654
       5445.2244      0.42330213
       5446.1988      0.27906308
       5447.1733      0.36776923
       5448.1477      0.44493491
       5449.1222      0.48744471
       5450.0967      0.41616308
       5451.0711      0.47317799
       5452.0456      0.31059770
       5453.0200      0.35963318
       5453.9945      0.34259454
       5454.9690      0.32246752
       5455.9434      0.31912316
       5456.9179      0.38836045
       5457.8924      0.46102518
       5458.8668      0.45800946
       5459.8413      0.43897835
       5460.8157      0.39957466
       5461.7902      0.45784293
       5462.7647      0.47238737
       5463.7391      0.35828299
       5464.7136      0.32103236
       5465.6880      0.44243029
       5466.6625      0.36191699
       5467.6370      0.27202255
       5468.6114      0.47476935
       5469.5859      0.36756229
       5470.5604      0.43162964
       5471.5348      0.36571730
       5472.5093      0.37139504
       5473.4837      0.36833247
       5474.4582      0.43662111
       5475.4327      0.45306296
       5476.4071      0.48680083
       5477.3816      0.40388298
       5478.3560      0.45881392
       5479.3305      0.43548410
       5480.3050      0.45132239
       5481.2794      0.42725482
       5482.2539      0.42173853
       5483.2284      0.33121015
       5484.2028      0.27957959
       5485.1773      0.29497688
       5486.1517      0.31166775
       5487.1262      0.50533877
       5488.1007      0.53267697
       5489.0751      0.45412892
       5490.0496      0.38316953
       5491.0240      0.28639281
       5491.9985      0.44222476
       5492.9730      0.54642975
       5493.9474      0.41996796
       5494.9219      0.38533729
       5495.8964      0.37234315
       5496.8708      0.38108105
       5497.8453      0.34982636
       5498.8197      0.38111552
       5499.7942      0.44173742
       5500.7687      0.38153603
       5501.7431      0.41442242
       5502.7176      0.33374875
       5503.6920      0.36329416
       5504.6665      0.34906124
       5505.6410      0.40923433
       5506.6154      0.39147084
       5507.5899      0.37453322
       5508.5644      0.38129308
       5509.5388      0.43869004
       5510.5133      0.53658127
       5511.4877      0.48093364
       5512.4622      0.48465125
       5513.4367      0.45907974
       5514.4111      0.35968666
       5515.3856      0.39364199
       5516.3600      0.42867278
       5517.3345      0.42588891
       5518.3090      0.39114291
       5519.2834      0.39411807
       5520.2579      0.40801868
       5521.2324      0.50663326
       5522.2068      0.39490768
       5523.1813      0.32824483
       5524.1557      0.40878352
       5525.1302      0.29043453
       5526.1047      0.32218505
       5527.0791      0.36505228
       5528.0536      0.45489507
       5529.0280      0.49463463
       5530.0025      0.41600112
       5530.9770      0.38738528
       5531.9514      0.38588976
       5532.9259      0.34915019
       5533.9004      0.43538757
       5534.8748      0.38159675
       5535.8493      0.46378029
       5536.8237      0.55756526
       5537.7982      0.50107074
       5538.7727      0.41758314
       5539.7471      0.33963937
       5540.7216      0.35909991
       5541.6960      0.35550438
       5542.6705      0.44689109
       5543.6450      0.42210774
       5544.6194      0.42667484
       5545.5939      0.44239708
       5546.5684      0.49919583
       5547.5428      0.51140462
       5548.5173      0.38104475
       5549.4917      0.40596929
       5550.4662      0.40555559
       5551.4407      0.42279986
       5552.4151      0.41951064
       5553.3896      0.41855510
       5554.3640      0.36916820
       5555.3385      0.37256063
       5556.3130      0.38089148
       5557.2874      0.46154498
       5558.2619      0.39792917
       5559.2364      0.42586850
       5560.2108      0.47665291
       5561.1853      0.37418196
       5562.1597      0.41532231
       5563.1342      0.42876719
       5564.1087      0.38000773
       5565.0831      0.41616892
       5566.0576      0.44809745
       5567.0320      0.42550219
       5568.0065      0.39015468
       5568.9810      0.44181533
       5569.9554      0.37697939
       5570.9299      0.36941792
       5571.9044      0.38300975
       5572.8788      0.27814487
       5573.8533      0.36329646
       5574.8277      0.40063560
       5575.8022      0.46115366
       5576.7767      0.65990443
       5577.7511      0.43926570
       5578.7256      0.45262116
       5579.7000      0.48978260
       5580.6745      0.51757166
       5581.6490      0.34133208
       5582.6234      0.37667431
       5583.5979      0.35917653
       5584.5724      0.54791790
       5585.5468      0.35120169
       5586.5213      0.16786326
       5587.4957      0.55329222
       5588.4702      0.42542909
       5589.4447      0.39140031
       5590.4191      0.32406668
       5591.3936      0.37990117
       5592.3680      0.35307611
       5593.3425      0.45682297
       5594.3170      0.48115141
       5595.2914      0.40140101
       5596.2659      0.44097851
       5597.2404      0.44756616
       5598.2148      0.49582603
       5599.1893      0.41106069
       5600.1637      0.28270028
       5601.1382      0.38372364
       5602.1127      0.37633349
       5603.0871      0.33822443
       5604.0616      0.33838382
       5605.0360      0.39302704
       5606.0105      0.38287788
       5606.9850      0.43207781
       5607.9594      0.43257417
       5608.9339      0.39434292
       5609.9084      0.27691654
       5610.8828      0.43009284
       5611.8573      0.24789527
       5612.8317      0.28594926
       5613.8062      0.40743035
       5614.7807      0.41746162
       5615.7551      0.32568728
       5616.7296      0.33850301
       5617.7040      0.29901984
       5618.6785      0.32927477
       5619.6530      0.37085171
       5620.6274      0.26590300
       5621.6019      0.28296779
       5622.5764      0.28515016
       5623.5508      0.32924203
       5624.5253      0.36789556
       5625.4997      0.39498894
       5626.4742      0.49911819
       5627.4487      0.45270453
       5628.4231      0.28457323
       5629.3976      0.37026971
       5630.3720      0.39459950
       5631.3465      0.35999034
       5632.3210      0.31765287
       5633.2954      0.44113947
       5634.2699      0.43075313
       5635.2444      0.44421553
       5636.2188      0.35419083
       5637.1933      0.41259774
       5638.1677      0.41724975
       5639.1422      0.48556479
       5640.1167      0.38091821
       5641.0911      0.47223496
       5642.0656      0.41215727
       5643.0400      0.43186156
       5644.0145      0.31647836
       5644.9890      0.35076678
       5645.9634      0.37242636
       5646.9379      0.35122531
       5647.9124      0.43527942
       5648.8868      0.39645401
       5649.8613      0.46965985
       5650.8357      0.55169305
       5651.8102      0.50110452
       5652.7847      0.47556995
       5653.7591      0.46448960
       5654.7336      0.51004491
       5655.7080      0.47899133
       5656.6825      0.46500012
       5657.6570      0.53243848
       5658.6314      0.48217148
       5659.6059      0.37621408
       5660.5804      0.41522596
       5661.5548      0.37891442
       5662.5293      0.43842556
       5663.5037      0.63956905
       5664.4782      0.52790745
       5665.4527      0.53993830
       5666.4271      0.41554580
       5667.4016      0.36831321
       5668.3760      0.34261427
       5669.3505      0.35362103
       5670.3250      0.42418839
       5671.2994      0.42275559
       5672.2739      0.49580168
       5673.2484      0.47793660
       5674.2228      0.36176438
       5675.1973      0.43702157
       5676.1717      0.49440799
       5677.1462      0.42927724
       5678.1207      0.45730196
       5679.0951      0.48207114
       5680.0696      0.66735344
       5681.0440      0.68901937
       5682.0185      0.52550793
       5682.9930      0.39786158
       5683.9674      0.35710882
       5684.9419      0.41322167
       5685.9164      0.35755012
       5686.8908      0.38915484
       5687.8653      0.41047430
       5688.8397      0.45810628
       5689.8142      0.44617719
       5690.7887      0.42412037
       5691.7631      0.47944600
       5692.7376      0.51594730
       5693.7121      0.54599434
       5694.6865      0.37884785
       5695.6610      0.45481752
       5696.6354      0.41704219
       5697.6099      0.47402860
       5698.5844      0.33746426
       5699.5588      0.35943700
       5700.5333      0.39551228
       5701.5077      0.40891736
       5702.4822      0.50005817
       5703.4567      0.54915941
       5704.4311      0.51954450
       5705.4056      0.38048373
       5706.3801      0.43677909
       5707.3545      0.50979980
       5708.3290      0.47289764
       5709.3034      0.45350201
       5710.2779      0.35846480
       5711.2524      0.43570311
       5712.2268      0.54403325
       5713.2013      0.31000931
       5714.1757      0.45352943
       5715.1502      0.46781826
       5716.1247      0.47320027
       5717.0991      0.40616354
       5718.0736      0.40522649
       5719.0481      0.40592940
       5720.0225      0.35867785
       5720.9970      0.42929046
       5721.9714      0.47560169
       5722.9459      0.51470316
       5723.9204      0.42384643
       5724.8948      0.40633524
       5725.8693      0.43451328
       5726.8437      0.43415895
       5727.8182      0.55267387
       5728.7927      0.52357526
       5729.7671      0.44284572
       5730.7416      0.35574475
       5731.7161      0.51007727
       5732.6905      0.39462391
       5733.6650      0.51034526
       5734.6394      0.46891111
       5735.6139      0.54377034
       5736.5884      0.44293743
       5737.5628      0.45079232
       5738.5373      0.49637615
       5739.5117      0.44532551
       5740.4862      0.45076701
       5741.4607      0.40851511
       5742.4351      0.53197768
       5743.4096      0.43470878
       5744.3841      0.48078920
       5745.3585      0.45093680
       5746.3330      0.50533514
       5747.3074      0.49179784
       5748.2819      0.51191080
       5749.2564      0.39070817
       5750.2308      0.36583786
       5751.2053      0.41232574
       5752.1797      0.49770617
       5753.1542      0.48838452
       5754.1287      0.48183813
       5755.1031      0.47411251
       5756.0776      0.51653369
       5757.0521      0.46987785
       5758.0265      0.50747962
       5759.0010      0.44246664
       5759.9754      0.51810516
       5760.9499      0.56514753
       5761.9244      0.55630152
       5762.8988      0.45097164
       5763.8733      0.43433990
       5764.8477      0.44019240
       5765.8222      0.46583024
       5766.7967      0.45497431
       5767.7711      0.48077606
       5768.7456      0.57852962
       5769.7201      0.47677202
       5770.6945      0.51391318
       5771.6690      0.52729784
       5772.6434      0.48470922
       5773.6179      0.44621410
       5774.5924      0.36205763
       5775.5668      0.39973662
       5776.5413      0.41083033
       5777.5157      0.41691332
       5778.4902      0.43762167
       5779.4647      0.42147129
       5780.4391      0.40627315
       5781.4136      0.48065527
       5782.3881      0.39579793
       5783.3625      0.41400402
       5784.3370      0.48237907
       5785.3114      0.42764066
       5786.2859      0.41773315
       5787.2604      0.46671525
       5788.2348      0.50497243
       5789.2093      0.42574808
       5790.1837      0.53319874
       5791.1582      0.40564625
       5792.1327      0.34840363
       5793.1071      0.45897996
       5794.0816      0.49179515
       5795.0561      0.58546378
       5796.0305      0.52379809
       5797.0050      0.46300233
       5797.9794      0.38382461
       5798.9539      0.60069006
       5799.9284      0.47082937
       5800.9028      0.49045644
       5801.8773      0.46819193
       5802.8517      0.46557422
       5803.8262      0.41812055
       5804.8007      0.35842005
       5805.7751      0.49850576
       5806.7496      0.54897027
       5807.7241      0.47484137
       5808.6985      0.48441260
       5809.6730      0.52952932
       5810.6474      0.40174703
       5811.6219      0.44801745
       5812.5964      0.46881181
       5813.5708      0.50419090
       5814.5453      0.49266111
       5815.5197      0.51916806
       5816.4942      0.54175526
       5817.4687      0.38846294
       5818.4431      0.42534467
       5819.4176      0.36949232
       5820.3921      0.44407465
       5821.3665      0.37343729
       5822.3410      0.42087261
       5823.3154      0.45314192
       5824.2899      0.42322296
       5825.2644      0.41972429
       5826.2388      0.42133805
       5827.2133      0.52516639
       5828.1877      0.42827208
       5829.1622      0.46954862
       5830.1367      0.42900061
       5831.1111      0.47330896
       5832.0856      0.50735116
       5833.0601      0.55179196
       5834.0345      0.48777823
       5835.0090      0.45351887
       5835.9834      0.56743609
       5836.9579      0.47284741
       5837.9324      0.47025581
       5838.9068      0.50744179
       5839.8813      0.39767059
       5840.8557      0.49812108
       5841.8302      0.55188662
       5842.8047      0.43381178
       5843.7791      0.42130274
       5844.7536      0.56762615
       5845.7281      0.53852466
       5846.7025      0.45992850
       5847.6770      0.51602142
       5848.6514      0.46403322
       5849.6259      0.43006379
       5850.6004      0.40661530
       5851.5748      0.57107092
       5852.5493      0.43198369
       5853.5237      0.42095308
       5854.4982      0.44195431
       5855.4727      0.44860997
       5856.4471      0.43942067
       5857.4216      0.38813873
       5858.3961      0.42791686
       5859.3705      0.42781843
       5860.3450      0.49822276
       5861.3194      0.33973641
       5862.2939      0.49982392
       5863.2684      0.52080724
       5864.2428      0.40642391
       5865.2173      0.36764677
       5866.1917      0.44401262
       5867.1662      0.52391169
       5868.1407      0.44715491
       5869.1151      0.46690824
       5870.0896      0.65997680
       5871.0641      0.47378205
       5872.0385      0.49812871
       5873.0130      0.56270156
       5873.9874      0.53324449
       5874.9619      0.61627231
       5875.9364      0.55005174
       5876.9108      0.33304704
       5877.8853      0.41521519
       5878.8597      0.40506449
       5879.8342      0.47214617
       5880.8087      0.48529875
       5881.7831      0.31615487
       5882.7576      0.32655291
       5883.7321      0.47339081
       5884.7065      0.38284323
       5885.6810      0.37652787
       5886.6554      0.37362610
       5887.6299      0.39479865
       5888.6044      0.38590828
       5889.5788      0.40956945
       5890.5533      0.44209344
       5891.5277      0.49079058
       5892.5022      0.46651456
       5893.4767      0.38950136
       5894.4511      0.49935518
       5895.4256      0.42580055
       5896.4001      0.49020702
       5897.3745      0.45990988
       5898.3490      0.49706292
       5899.3234      0.54738707
       5900.2979      0.48204371
       5901.2724      0.41768483
       5902.2468      0.46763269
       5903.2213      0.45566522
       5904.1957      0.47252993
       5905.1702      0.38691385
       5906.1447      0.40896190
       5907.1191      0.44594078
       5908.0936      0.56682386
       5909.0681      0.48000492
       5910.0425      0.55707243
       5911.0170      0.46897515
       5911.9914      0.51616503
       5912.9659      0.54598768
       5913.9404      0.48393330
       5914.9148      0.37074642
       5915.8893      0.49372856
       5916.8637      0.58444947
       5917.8382      0.62038003
       5918.8127      0.62588845
       5919.7871      0.60470395
       5920.7616      0.47340746
       5921.7361      0.44652901
       5922.7105      0.71451239
       5923.6850      0.82415632
       5924.6594      0.60777621
       5925.6339      0.49165309
       5926.6084      0.53795537
       5927.5828      0.44030062
       5928.5573      0.58043068
       5929.5317      0.40626978
       5930.5062      0.53264636
       5931.4807      0.49768600
       5932.4551      0.34728020
       5933.4296      0.40797701
       5934.4041      0.33535463
       5935.3785      0.51496939
       5936.3530      0.43019182
       5937.3274      0.47683660
       5938.3019      0.35864771
       5939.2764      0.48330588
       5940.2508      0.45613994
       5941.2253      0.59715457
       5942.1997      0.60876073
       5943.1742      0.61747375
       5944.1487      0.58236836
       5945.1231      0.45260182
       5946.0976      0.47571159
       5947.0721      0.54912041
       5948.0465      0.40605087
       5949.0210      0.37083344
       5949.9954      0.37593004
       5950.9699      0.55687683
       5951.9444      0.48195003
       5952.9188      0.56462520
       5953.8933      0.59172613
       5954.8677      0.79462901
       5955.8422      0.56364493
       5956.8167      0.39982683
       5957.7911      0.36075595
       5958.7656    -0.019457411
       5959.7401      0.21735836
       5960.7145      0.50168499
       5961.6890      0.46846747
       5962.6634      0.40956166
       5963.6379      0.36959753
       5964.6124      0.71415775
       5965.5868      0.73762768
       5966.5613      0.30796254
       5967.5358      0.53610610
       5968.5102      0.29688454
       5969.4847      0.49564603
       5970.4591      0.51840955
       5971.4336      0.56378663
       5972.4081      0.46610698
       5973.3825      0.56141433
       5974.3570      0.58187216
       5975.3314      0.47911499
       5976.3059      0.50239188
       5977.2804      0.43834849
       5978.2548      0.63267549
       5979.2293      0.59852996
       5980.2038      0.58121476
       5981.1782      0.54258208
       5982.1527      0.48160425
       5983.1271      0.45202924
       5984.1016      0.55035093
       5985.0761      0.55307229
       5986.0505      0.50384069
       5987.0250      0.70741549
       5987.9994      0.46647659
       5988.9739      0.54545806
       5989.9484      0.36792384
       5990.9228      0.58142367
       5991.8973      0.47788864
       5992.8718      0.32140375
       5993.8462      0.38014339
       5994.8207      0.40195604
       5995.7951      0.47539701
       5996.7696      0.52754299
       5997.7441      0.61088986
       5998.7185      0.60454911
       5999.6930      0.56914544
       6000.6674      0.40108504
       6001.6419      0.60591774
       6002.6164      0.56070711
       6003.5908      0.35055095
       6004.5653      0.45430248
       6005.5398      0.46999390
       6006.5142      0.54310936
       6007.4887      0.47651993
       6008.4631      0.43698968
       6009.4376      0.41224372
       6010.4121      0.45231013
       6011.3865      0.46693149
       6012.3610      0.34697011
       6013.3354      0.25088483
       6014.3099      0.68902967
       6015.2844      0.50173077
       6016.2588      0.52535262
       6017.2333      0.41598731
       6018.2078      0.42237523
       6019.1822      0.41719395
       6020.1567      0.49928846
       6021.1311      0.57121126
       6022.1056      0.61734416
       6023.0801      0.37525192
       6024.0545      0.55994971
       6025.0290      0.41979852
       6026.0034      0.30548986
       6026.9779      0.61904003
       6027.9524      0.54176713
       6028.9268      0.59297713
       6029.9013      0.54796837
       6030.8758      0.53063111
       6031.8502      0.46691068
       6032.8247      0.61038390
       6033.7991      0.49424973
       6034.7736      0.48439427
       6035.7481      0.43455481
       6036.7225      0.56774468
       6037.6970      0.59456345
       6038.6714      0.31120801
       6039.6459      0.46265913
       6040.6204      0.54040573
       6041.5948      0.56827953
       6042.5693      0.51398144
       6043.5438      0.52972003
       6044.5182      0.48533049
       6045.4927      0.49164011
       6046.4671      0.52460053
       6047.4416      0.51632843
       6048.4161      0.53782292
       6049.3905      0.49576625
       6050.3650      0.51724930
       6051.3394      0.67496477
       6052.3139      0.57991941
       6053.2884      0.66188554
       6054.2628      0.56759413
       6055.2373      0.50976725
       6056.2118      0.38121433
       6057.1862      0.56079947
       6058.1607      0.44245821
       6059.1351      0.37672907
       6060.1096      0.54426645
       6061.0841      0.59949272
       6062.0585      0.40252151
       6063.0330      0.56167503
       6064.0074      0.60224147
       6064.9819      0.37921556
       6065.9564      0.33505342
       6066.9308      0.46684815
       6067.9053      0.50645463
       6068.8798      0.44442537
       6069.8542      0.50353907
       6070.8287      0.55395308
       6071.8031      0.53656001
       6072.7776      0.50061050
       6073.7521      0.57097457
       6074.7265      0.50308981
       6075.7010      0.59487846
       6076.6754      0.50449889
       6077.6499      0.53807490
       6078.6244      0.53349189
       6079.5988      0.55679019
       6080.5733      0.55554707
       6081.5478      0.57095999
       6082.5222      0.53221133
       6083.4967      0.56072643
       6084.4711      0.64204357
       6085.4456      0.43390555
       6086.4201      0.57633020
       6087.3945      0.41059847
       6088.3690      0.46642613
       6089.3434      0.68592990
       6090.3179      0.56225980
       6091.2924      0.71380170
       6092.2668      0.58789335
       6093.2413      0.36436379
       6094.2158      0.49330446
       6095.1902      0.42487917
       6096.1647      0.48295504
       6097.1391      0.53182793
       6098.1136      0.40830599
       6099.0881      0.42200403
       6100.0625      0.40435040
       6101.0370      0.60649879
       6102.0114      0.53487942
       6102.9859      0.53170841
       6103.9604      0.51920363
       6104.9348      0.55136633
       6105.9093      0.53917306
       6106.8838      0.46678314
       6107.8582      0.56289935
       6108.8327      0.50180104
       6109.8071      0.59966701
       6110.7816      0.50129206
       6111.7561      0.48394496
       6112.7305      0.58903126
       6113.7050      0.60604511
       6114.6794      0.63945332
       6115.6539      0.46265142
       6116.6284      0.59347379
       6117.6028      0.24786822
       6118.5773      0.38577481
       6119.5518      0.65979761
       6120.5262      0.64721069
       6121.5007      0.70600644
       6122.4751      0.60897825
       6123.4496      0.40689277
       6124.4241      0.54934240
       6125.3985      0.59183901
       6126.3730      0.49216380
       6127.3474      0.51348558
       6128.3219      0.57322045
       6129.2964      0.40743935
       6130.2708      0.52913703
       6131.2453      0.40766019
       6132.2198      0.68257513
       6133.1942      0.67939520
       6134.1687      0.47790699
       6135.1431      0.41852017
       6136.1176      0.28265727
       6137.0921      0.51014927
       6138.0665      0.55116582
       6139.0410      0.48668803
       6140.0154      0.61676866
       6140.9899      0.44782667
       6141.9644      0.49513134
       6142.9388      0.48634531
       6143.9133      0.65375430
       6144.8878      0.56489359
       6145.8622      0.56881432
       6146.8367      0.54594905
       6147.8111      0.51504725
       6148.7856      0.62633270
       6149.7601      0.52248659
       6150.7345      0.57980162
       6151.7090      0.57734402
       6152.6834      0.62169089
       6153.6579      0.60725606
       6154.6324      0.61823825
       6155.6068      0.38656447
       6156.5813      0.31486456
       6157.5558      0.67824754
       6158.5302      0.44166971
       6159.5047      0.60544874
       6160.4791      0.78274093
       6161.4536      0.66086653
       6162.4281      0.51899057
       6163.4025      0.58993762
       6164.3770      0.41733765
       6165.3514      0.30239839
       6166.3259      0.25317971
       6167.3004      0.44567517
       6168.2748      0.64845366
       6169.2493      0.61952929
       6170.2238      0.79412914
       6171.1982      0.52988607
       6172.1727      0.62334679
       6173.1471      0.68022364
       6174.1216      0.47514007
       6175.0961      0.47704178
       6176.0705      0.48856110
       6177.0450      0.58558854
       6178.0194      0.51690447
       6178.9939      0.49613784
       6179.9684      0.58025282
       6180.9428      0.61319006
       6181.9173      0.59002044
       6182.8918      0.62870712
       6183.8662      0.57136822
       6184.8407      0.52870986
       6185.8151      0.52472819
       6186.7896      0.76611891
       6187.7641      0.38328123
       6188.7385      0.43255139
       6189.7130      0.59747564
       6190.6874      0.68641565
       6191.6619      0.62473058
       6192.6364      0.39051656
       6193.6108      0.52488240
       6194.5853      0.51448981
       6195.5598      0.58706656
       6196.5342      0.53706463
       6197.5087      0.52406218
       6198.4831      0.53625353
       6199.4576      0.66247188
       6200.4321      0.48437916
       6201.4065      0.61820699
       6202.3810      0.51474877
       6203.3554      0.44570372
       6204.3299      0.45308285
       6205.3044      0.58102581
       6206.2788      0.48013606
       6207.2533      0.54980041
       6208.2278      0.61242096
       6209.2022      0.49704331
       6210.1767      0.58133832
       6211.1511      0.59015878
       6212.1256      0.39868587
       6213.1001      0.61972146
       6214.0745      0.62514599
       6215.0490      0.54525044
       6216.0234      0.52920943
       6216.9979      0.52728788
       6217.9724      0.53089490
       6218.9468      0.31499493
       6219.9213      0.43656848
       6220.8958      0.32442550
       6221.8702      0.33298778
       6222.8447      0.27409389
       6223.8191      0.20120468
       6224.7936             NaN
       6225.7681             NaN
       6226.7425             NaN
       6227.7170             NaN
       6228.6914             NaN
       6229.6659             NaN
       6230.6404             NaN
       6231.6148             NaN
       6232.5893             NaN
       6233.5638             NaN
       6234.5382             NaN
       6235.5127             NaN
       6236.4871             NaN
       6237.4616             NaN
       6238.4361             NaN
       6239.4105             NaN
       6240.3850             NaN
       6241.3595             NaN
       6242.3339             NaN
       6243.3084             NaN
       6244.2828             NaN
       6245.2573             NaN
       6246.2318             NaN
       6247.2062             NaN
       6248.1807             NaN
       6249.1551             NaN
       6250.1296             NaN
       6251.1041             NaN
       6252.0785             NaN
       6253.0530             NaN
       6254.0275             NaN
       6255.0019             NaN
       6255.9764             NaN
       6256.9508             NaN
       6257.9253             NaN
       6258.8998             NaN
       6259.8742             NaN
       6260.8487             NaN
       6261.8231             NaN
       6262.7976             NaN
       6263.7721             NaN
       6264.7465             NaN
       6265.7210             NaN
       6266.6955             NaN
       6267.6699             NaN
       6268.6444             NaN
       6269.6188             NaN
       6270.5933             NaN
       6271.5678             NaN
       6272.5422             NaN
       6273.5167             NaN
       6274.4911             NaN
       6275.4656             NaN
       6276.4401             NaN
       6277.4145             NaN
       6278.3890             NaN
       6279.3635             NaN
       6280.3379             NaN
       6281.3124             NaN
       6282.2868             NaN
       6283.2613             NaN
       6284.2358             NaN
       6285.2102             NaN
       6286.1847             NaN
       6287.1591             NaN
       6288.1336             NaN
       6289.1081             NaN
       6290.0825             NaN
       6291.0570             NaN
       6292.0315             NaN
       6293.0059             NaN
       6293.9804             NaN
       6294.9548             NaN
       6295.9293             NaN
       6296.9038             NaN
       6297.8782             NaN
       6298.8527             NaN
       6299.8271             NaN
       6300.8016             NaN
       6301.7761             NaN
       6302.7505             NaN
       6303.7250             NaN
       6304.6995             NaN
       6305.6739             NaN
       6306.6484             NaN
       6307.6228             NaN
       6308.5973             NaN
       6309.5718             NaN
       6310.5462             NaN
       6311.5207      0.66226435
       6312.4951      0.66773225
       6313.4696      0.57732869
       6314.4441      0.66704124
       6315.4185      0.72654579
       6316.3930      0.66233230
       6317.3675      0.30611313
       6318.3419      0.51636292
       6319.3164      0.47509692
       6320.2908      0.43054600
       6321.2653      0.44968860
       6322.2398      0.33077290
       6323.2142      0.57223350
       6324.1887     0.034880895
       6325.1631    -0.086059222
       6326.1376     0.023101666
       6327.1121      0.11886408
       6328.0865      0.38275217
       6329.0610      0.60237541
       6330.0355      0.64218899
       6331.0099      0.43115492
       6331.9844      0.53992150
       6332.9588      0.73992601
       6333.9333      0.50843527
       6334.9078      0.43376999
       6335.8822      0.50699443
       6336.8567      0.48730764
       6337.8311      0.54764595
       6338.8056      0.56920547
       6339.7801      0.62912210
       6340.7545      0.68985830
       6341.7290      0.54017728
       6342.7035      0.44316452
       6343.6779      0.47854408
       6344.6524      0.60534268
       6345.6268      0.75557082
       6346.6013      0.69257206
       6347.5758      0.60338766
       6348.5502     0.015009902
       6349.5247      0.57971890
       6350.4991       1.1634621
       6351.4736      0.80037782
       6352.4481      0.23206390
       6353.4225      0.54883252
       6354.3970      0.39808035
       6355.3715      0.48344313
       6356.3459      0.32100343
       6357.3204      0.48794955
       6358.2948      0.39573648
       6359.2693    0.0086002959
       6360.2438      0.13722932
       6361.2182      0.46309739
       6362.1927      0.44855863
       6363.1671      0.68186822
       6364.1416      0.72157681
       6365.1161      0.63940800
       6366.0905      0.59668913
       6367.0650      0.43503448
       6368.0395      0.54577104
       6369.0139      0.47714171
       6369.9884      0.49112200
       6370.9628      0.47939691
       6371.9373      0.60685469
       6372.9118      0.54932073
       6373.8862      0.64906906
       6374.8607      0.93932847
       6375.8351       1.0671966
       6376.8096      0.97503039
       6377.7841      0.92577465
       6378.7585      0.65189834
       6379.7330      0.63326757
       6380.7075      0.51365749
       6381.6819      0.39817021
       6382.6564      0.38473972
       6383.6308      0.53746690
       6384.6053       1.8393019
       6385.5798       1.5803353
       6386.5542       1.9388994
       6387.5287      0.62635050
       6388.5031      0.44400123
       6389.4776      0.45863952
       6390.4521      0.70381018
       6391.4265      0.59009889
       6392.4010      0.52262403
       6393.3755      0.49868303
       6394.3499      0.62724287
       6395.3244      0.64181756
       6396.2988      0.74329952
       6397.2733      0.62488298
       6398.2478      0.73108987
       6399.2222      0.58337465
       6400.1967      0.70692570
       6401.1711      0.63486919
       6402.1456      0.55829045
       6403.1201      0.61992474
       6404.0945      0.48193073
       6405.0690      0.67564581
       6406.0435      0.68441385
       6407.0179      0.47288828
       6407.9924      0.51734293
       6408.9668      0.86300232
       6409.9413      0.38596914
       6410.9158      0.51505571
       6411.8902      0.41299888
       6412.8647      0.59466216
       6413.8391      0.60319618
       6414.8136      0.55489831
       6415.7881      0.56300340
       6416.7625      0.50975461
       6417.7370      0.45386867
       6418.7115      0.59392830
       6419.6859      0.63814682
       6420.6604      0.68024555
       6421.6348      0.58766257
       6422.6093      0.47948330
       6423.5838      0.71322036
       6424.5582      0.43556261
       6425.5327      0.60505939
       6426.5071      0.44267752
       6427.4816      0.46848589
       6428.4561      0.62460050
       6429.4305      0.70033820
       6430.4050      0.76609790
       6431.3795      0.82357029
       6432.3539      0.98736324
       6433.3284      0.69128634
       6434.3028      0.93158634
       6435.2773      0.26749947
       6436.2518      0.52142292
       6437.2262      0.70020895
       6438.2007      0.27476917
       6439.1751      0.62283087
       6440.1496      0.53297370
       6441.1241      0.46255159
       6442.0985      0.41945967
       6443.0730      0.52814593
       6444.0475      0.52216609
       6445.0219      0.75672280
       6445.9964      0.59047559
       6446.9708      0.59902657
       6447.9453      0.31359747
       6448.9198      0.73204089
       6449.8942      0.16824916
       6450.8687      0.21340175
       6451.8431      0.50793433
       6452.8176      0.58992065
       6453.7921      0.35716395
       6454.7665      0.59463072
       6455.7410     0.017069253
       6456.7155      0.33661094
       6457.6899      0.68845261
       6458.6644      0.49412343
       6459.6388      0.54267182
       6460.6133      0.42846341
       6461.5878      0.53420468
       6462.5622      0.52632818
       6463.5367      0.47830173
       6464.5111      0.63957815
       6465.4856      0.58403531
       6466.4601      0.31788526
       6467.4345      0.39219625
       6468.4090      0.63499589
       6469.3835      0.51614200
       6470.3579      0.44542482
       6471.3324      0.37878996
       6472.3068      0.53920052
       6473.2813      0.37532544
       6474.2558      0.46572605
       6475.2302      0.58868611
       6476.2047      0.57407573
       6477.1791      0.60896790
       6478.1536      0.55856157
       6479.1281      0.45251232
       6480.1025      0.49203573
       6481.0770       1.1173412
       6482.0515      0.41005498
       6483.0259      0.85908031
       6484.0004      0.24572469
       6484.9748      0.24265031
       6485.9493      0.22194495
       6486.9238      0.51303321
       6487.8982      0.50775215
       6488.8727      0.49615313
       6489.8471      0.20172197
       6490.8216      0.31307763
       6491.7961      0.41023095
       6492.7705      0.47700575
       6493.7450      0.25456675
       6494.7195      0.29217353
       6495.6939      0.44931908
       6496.6684     -0.18506612
       6497.6428     0.073914795
       6498.6173      0.27961619
       6499.5918      0.13783388
       6500.5662      0.63648048
       6501.5407      0.59097991
       6502.5151      0.67266317
       6503.4896      0.67093500
       6504.4641      0.73612792
       6505.4385      0.57128277
       6506.4130      0.73016351
       6507.3875      0.65816600
       6508.3619      0.40166050
       6509.3364      0.55022690
       6510.3108      0.32423042
       6511.2853      0.83603192
       6512.2598      0.70685486
       6513.2342      0.60246856
       6514.2087      0.71513792
       6515.1832      0.42796233
       6516.1576      0.71328674
       6517.1321      0.56805383
       6518.1065      0.64612104
       6519.0810      0.53062991
       6520.0555      0.45227558
       6521.0299      0.55853617
       6522.0044      0.64019049
       6522.9788      0.80664798
       6523.9533      0.41030298
       6524.9278      0.24979045
       6525.9022      0.33539446
       6526.8767      0.45332419
       6527.8512      0.54793223
       6528.8256      0.55028236
       6529.8001      0.80464984
       6530.7745      0.48549424
       6531.7490      0.55620714
       6532.7235      0.38497044
       6533.6979      0.40288074
       6534.6724      0.66061822
       6535.6468      0.52498864
       6536.6213      0.74797520
       6537.5958      0.75908591
       6538.5702      0.61065744
       6539.5447      0.63915833
       6540.5192      0.56184310
       6541.4936      0.53080413
       6542.4681      0.61989677
       6543.4425      0.46529333
       6544.4170      0.53974068
       6545.3915      0.48809797
       6546.3659      0.67395629
       6547.3404      0.65918460
       6548.3148       1.0063441
       6549.2893       1.1168448
       6550.2638      0.56819169
       6551.2382      0.40494645
       6552.2127      0.41624380
       6553.1872      0.14971215
       6554.1616      0.65030258
       6555.1361      0.56303333
       6556.1105      0.48998857
       6557.0850      0.39467503
       6558.0595      0.21744589
       6559.0339     0.052556879
       6560.0084      0.16264881
       6560.9828      0.40840969
       6561.9573      0.83667084
       6562.9318       1.5006432
       6563.9062       1.8577440
       6564.8807       2.0040941
       6565.8552       2.0174609
       6566.8296       1.2099340
       6567.8041      0.50912651
       6568.7785    -0.091614414
       6569.7530      0.29905395
       6570.7275      0.69727693
       6571.7019      0.75191749
       6572.6764       1.0296940
       6573.6508       1.2451133
       6574.6253       1.2084439
       6575.5998      0.99741899
       6576.5742      0.23019918
       6577.5487    -0.062208402
       6578.5232     -0.15460462
       6579.4976      0.20271107
       6580.4721      0.47351699
       6581.4465      0.66136499
       6582.4210      0.86573775
       6583.3955      0.89755777
       6584.3699      0.95145198
       6585.3444       1.1553231
       6586.3188      0.99536482
       6587.2933      0.96588491
       6588.2678      0.63394213
       6589.2422      0.67638729
       6590.2167      0.59172904
       6591.1912      0.53802035
       6592.1656      0.49263374
       6593.1401      0.38892152
       6594.1145      0.62100623
       6595.0890      0.47941422
       6596.0635      0.62275228
       6597.0379      0.46736018
       6598.0124      0.69380881
       6598.9868      0.63718686
       6599.9613      0.47509090
       6600.9358      0.71416982
       6601.9102      0.64721626
       6602.8847      0.84619265
       6603.8592      0.68653941
       6604.8336      0.69164673
       6605.8081      0.77387433
       6606.7825      0.48824173
       6607.7570      0.61991319
       6608.7315      0.31342944
       6609.7059      0.36657590
       6610.6804      0.58629778
       6611.6548      0.67191833
       6612.6293      0.63850041
       6613.6038      0.68147023
       6614.5782      0.65731553
       6615.5527      0.57763224
       6616.5272      0.61187375
       6617.5016      0.54874828
       6618.4761      0.47791123
       6619.4505      0.59328449
       6620.4250      0.75942520
       6621.3995      0.60327454
       6622.3739      0.49735347
       6623.3484      0.54697033
       6624.3228      0.71267469
       6625.2973      0.55383249
       6626.2718      0.55078236
       6627.2462      0.61370159
       6628.2207      0.53479598
       6629.1952      0.64369694
       6630.1696      0.54893305
       6631.1441      0.62929962
       6632.1185      0.65017076
       6633.0930      0.58879253
       6634.0675      0.65155184
       6635.0419      0.43591135
       6636.0164      0.76732925
       6636.9908      0.66108853
       6637.9653      0.62670585
       6638.9398      0.50273442
       6639.9142      0.60371006
       6640.8887      0.48789238
       6641.8632      0.56916266
       6642.8376      0.41415412
       6643.8121      0.65114571
       6644.7865      0.47581949
       6645.7610      0.65533719
       6646.7355      0.49486361
       6647.7099      0.62532360
       6648.6844      0.58480694
       6649.6588      0.58488912
       6650.6333      0.55818754
       6651.6078      0.53700472
       6652.5822      0.58305352
       6653.5567      0.48552305
       6654.5312      0.52780948
       6655.5056      0.42223221
       6656.4801      0.53858279
       6657.4545      0.51209535
       6658.4290      0.58089263
       6659.4035      0.57340505
       6660.3779      0.55909641
       6661.3524      0.63063615
       6662.3268      0.59880212
       6663.3013      0.79388149
       6664.2758      0.63561483
       6665.2502      0.69945603
       6666.2247      0.46051173
       6667.1992      0.55057900
       6668.1736      0.59190104
       6669.1481      0.63043444
       6670.1225      0.54771312
       6671.0970      0.56403499
       6672.0715      0.65905891
       6673.0459      0.52070434
       6674.0204      0.71320060
       6674.9948      0.67153098
       6675.9693      0.66730022
       6676.9438      0.67400040
       6677.9182      0.52939008
       6678.8927      0.18903427
       6679.8672      0.48218122
       6680.8416      0.41717949
       6681.8161      0.53773995
       6682.7905      0.45033732
       6683.7650      0.51451932
       6684.7395      0.68918953
       6685.7139      0.74264945
       6686.6884      0.58923204
       6687.6628      0.54096869
       6688.6373      0.66664270
       6689.6118      0.71280949
       6690.5862      0.67830609
       6691.5607      0.53258087
       6692.5352      0.55080469
       6693.5096      0.59776059
       6694.4841      0.54029528
       6695.4585      0.54494464
       6696.4330      0.65859010
       6697.4075      0.70259286
       6698.3819      0.64818089
       6699.3564      0.52552106
       6700.3308      0.59308441
       6701.3053      0.80734663
       6702.2798      0.70535982
       6703.2542      0.46355143
       6704.2287      0.56675397
       6705.2032      0.50940131
       6706.1776      0.52302402
       6707.1521      0.52827556
       6708.1265      0.57865647
       6709.1010      0.54396221
       6710.0755      0.57125032
       6711.0499      0.47496773
       6712.0244      0.33318458
       6712.9988      0.44869302
       6713.9733      0.49117739
       6714.9478      0.50730797
       6715.9222      0.71197754
       6716.8967      0.73355179
       6717.8712      0.99358907
       6718.8456      0.89402828
       6719.8201      0.80700367
       6720.7945      0.73707062
       6721.7690      0.78276527
       6722.7435      0.63119300
       6723.7179      0.66889185
       6724.6924      0.44632861
       6725.6668      0.52311474
       6726.6413      0.50788900
       6727.6158      0.49711790
       6728.5902      0.37820379
       6729.5647      0.50290882
       6730.5392      0.52943414
       6731.5136      0.62765678
       6732.4881      0.87566478
       6733.4625      0.77395256
       6734.4370      0.74517331
       6735.4115      0.57492076
       6736.3859      0.48325596
       6737.3604      0.49587848
       6738.3348      0.58685400
       6739.3093      0.61596086
       6740.2838      0.53682274
       6741.2582      0.66253846
       6742.2327      0.43738356
       6743.2072      0.56290584
       6744.1816      0.60055137
       6745.1561      0.62470648
       6746.1305      0.47061866
       6747.1050      0.42350213
       6748.0795      0.66929649
       6749.0539      0.67789134
       6750.0284      0.56808016
       6751.0028      0.66245126
       6751.9773      0.40358566
       6752.9518      0.52641788
       6753.9262      0.77889041
       6754.9007      0.65201033
       6755.8752      0.62863460
       6756.8496      0.45797199
       6757.8241      0.58534687
       6758.7985      0.46957744
       6759.7730      0.63635693
       6760.7475      0.46533089
       6761.7219      0.61365247
       6762.6964      0.72268210
       6763.6708      0.68590084
       6764.6453      0.76361886
       6765.6198      0.63922262
       6766.5942      0.61127680
       6767.5687      0.58436087
       6768.5432      0.63500179
       6769.5176      0.47011654
       6770.4921      0.59186827
       6771.4665      0.70737410
       6772.4410      0.69240894
       6773.4155      0.52220824
       6774.3899      0.65631078
       6775.3644      0.53242904
       6776.3388      0.67135929
       6777.3133      0.55364313
       6778.2878      0.59588758
       6779.2622      0.48436015
       6780.2367      0.47088810
       6781.2112      0.54408880
       6782.1856      0.51840383
       6783.1601      0.41674729
       6784.1345      0.47904543
       6785.1090      0.66661416
       6786.0835      0.50846073
       6787.0579      0.79025692
       6788.0324      0.78054173
       6789.0069       1.1185341
       6789.9813      0.34387687
       6790.9558      0.69112376
       6791.9302      0.81719755
       6792.9047      0.44307273
       6793.8792      0.40457024
       6794.8536      0.68146434
       6795.8281      0.78886316
       6796.8025      0.54060085
       6797.7770      0.82187701
       6798.7515      0.72852183
       6799.7259      0.43999432
       6800.7004      0.83778475
       6801.6749      0.52957144
       6802.6493      0.26128267
       6803.6238      0.30365712
       6804.5982      0.42251082
       6805.5727      0.60482036
       6806.5472      0.51257951
       6807.5216      0.78548104
       6808.4961      0.58692300
       6809.4705      0.97877810
       6810.4450      0.49077982
       6811.4195      0.45646670
       6812.3939      0.69323449
       6813.3684      0.64891746
       6814.3429      0.61763234
       6815.3173      0.56234901
       6816.2918      0.49953287
       6817.2662      0.57734364
       6818.2407      0.40084716
       6819.2152      0.59969404
       6820.1896      0.54843821
       6821.1641      0.46399587
       6822.1385      0.58753876
       6823.1130      0.61671192
       6824.0875      0.59099299
       6825.0619      0.56202910
       6826.0364      0.52532577
       6827.0109      0.64060179
       6827.9853      0.51319986
       6828.9598      0.42604801
       6829.9342      0.55713517
       6830.9087      0.59944300
       6831.8832      0.77112505
       6832.8576      0.77468510
       6833.8321      0.61387692
       6834.8065      0.84715306
       6835.7810       1.3121717
       6836.7555      0.94882173
       6837.7299     -0.21869310
       6838.7044      0.54432440
       6839.6789      0.24721978
       6840.6533      0.76579368
       6841.6278      0.48467703
       6842.6022      0.66980774
       6843.5767      0.67943544
       6844.5512      0.54316616
       6845.5256      0.38594739
       6846.5001      0.97283689
       6847.4745      0.80630864
       6848.4490      0.88074851
       6849.4235      0.76418524
       6850.3979      0.54082940
       6851.3724      0.82351436
       6852.3469      0.75220732
       6853.3213      0.68396795
       6854.2958      0.39751303
       6855.2702      0.51206141
       6856.2447      0.59436742
       6857.2192      0.59735633
       6858.1936      0.72381921
       6859.1681      0.63225136
       6860.1425      0.51135570
       6861.1170      0.47788927
       6862.0915      0.58441423
       6863.0659      0.55434341
       6864.0404      0.57341536
       6865.0149      0.53958931
       6865.9893      0.66590727
       6866.9638      0.57004812
       6867.9382      0.69925652
       6868.9127      0.87869629
       6869.8872      0.49036425
       6870.8616      0.56064562
       6871.8361      0.52374340
       6872.8105      0.69067202
       6873.7850      0.59737974
       6874.7595      0.66394057
       6875.7339      0.68404895
       6876.7084      0.60611114
       6877.6829      0.58399571
       6878.6573       1.1490840
       6879.6318      0.54932253
       6880.6062      0.45617645
       6881.5807      0.40521496
       6882.5552      0.87828441
       6883.5296      0.56625558
       6884.5041      0.29390705
       6885.4785      0.36024637
       6886.4530      0.34741704
       6887.4275      0.44492713
       6888.4019      0.57954906
       6889.3764      0.44525554
       6890.3509      0.54707741
       6891.3253      0.53807315
       6892.2998      0.67782959
       6893.2742      0.69494861
       6894.2487      0.89307337
       6895.2232      0.90667934
       6896.1976       1.0791112
       6897.1721      0.80506074
       6898.1465      0.74840166
       6899.1210      0.55750315
       6900.0955      0.78255272
       6901.0699      0.57141669
       6902.0444      0.67545458
       6903.0189      0.76843672
       6903.9933      0.90813332
       6904.9678      0.47005339
       6905.9422       1.1732293
       6906.9167      0.90385313
       6907.8912      0.81980204
       6908.8656      0.30818066
       6909.8401      0.19772991
       6910.8145      0.14760247
       6911.7890      0.41186822
       6912.7635      0.46426270
       6913.7379      0.47772593
       6914.7124      0.59324780
       6915.6869      0.62700737
       6916.6613      0.66369222
       6917.6358      0.55226851
       6918.6102      0.50613695
       6919.5847      0.42041030
       6920.5592      0.56784728
       6921.5336      0.55451718
       6922.5081      0.59786015
       6923.4825      0.52590196
       6924.4570      0.63690436
       6925.4315      0.90164361
       6926.4059      0.42683914
       6927.3804      0.55811263
       6928.3549      0.27586788
       6929.3293      0.49658258
       6930.3038      0.78983821
       6931.2782      0.62427920
       6932.2527      0.65430892
       6933.2272      0.72145620
       6934.2016      0.63605570
       6935.1761      0.32016113
       6936.1505      0.65569369
       6937.1250      0.46325347
       6938.0995      0.15670952
       6939.0739      0.29523624
       6940.0484      0.56481840
       6941.0229      0.76602835
       6941.9973      0.51039622
       6942.9718      0.61930636
       6943.9462      0.66617552
       6944.9207      0.68805574
       6945.8952      0.55966131
       6946.8696      0.59436737
       6947.8441      0.72179018
       6948.8185      0.53886377
       6949.7930      0.56286417
       6950.7675      0.52820880
       6951.7419      0.71769999
       6952.7164      0.49653404
       6953.6909      0.69653079
       6954.6653      0.60872193
       6955.6398      0.66396253
       6956.6142      0.48566950
       6957.5887      0.59765727
       6958.5632      0.75693980
       6959.5376      0.43301198
       6960.5121      0.58503662
       6961.4865      0.57552389
       6962.4610      0.82188578
       6963.4355      0.70085380
       6964.4099      0.57419546
       6965.3844      0.76851264
       6966.3589      0.42717802
       6967.3333      0.73791180
       6968.3078      0.44228695
       6969.2822      0.44977295
       6970.2567      0.34157050
       6971.2312      0.83953727
       6972.2056      0.47128906
       6973.1801      0.59161447
       6974.1545      0.61864114
       6975.1290      0.62474939
       6976.1035      0.68120731
       6977.0779      0.58160863
       6978.0524      0.61713724
       6979.0269      0.62558956
       6980.0013      0.46133658
       6980.9758      0.43097289
       6981.9502      0.53179331
       6982.9247      0.57202830
       6983.8992      0.70161852
       6984.8736      0.61374199
       6985.8481      0.65874456
       6986.8225      0.53728116
       6987.7970      0.60309813
       6988.7715      0.67894166
       6989.7459      0.68823932
       6990.7204      0.60126037
       6991.6949      0.62975168
       6992.6693      0.68870382
       6993.6438      0.73172219
       6994.6182      0.58536009
       6995.5927      0.90113643
       6996.5672      0.48720161
       6997.5416      0.54838574
       6998.5161      0.72311831
       6999.4905      0.68629766
       7000.4650      0.82463982
       7001.4395      0.60369836
       7002.4139      0.47258302
       7003.3884      0.76898455
       7004.3629      0.41725282
       7005.3373      0.44022798
       7006.3118      0.48497634
       7007.2862      0.61625447
       7008.2607      0.63674577
       7009.2352      0.75726427
       7010.2096      0.64677870
       7011.1841      0.68551479
       7012.1585      0.61219239
       7013.1330      0.66510195
       7014.1075      0.66316956
       7015.0819      0.77197863
       7016.0564      0.70261292
       7017.0309      0.64567806
       7018.0053      0.50610698
       7018.9798      0.54539243
       7019.9542      0.66546767
       7020.9287      0.65900642
       7021.9032      0.59981240
       7022.8776      0.52344392
       7023.8521      0.61833461
       7024.8265      0.46107520
       7025.8010      0.62852724
       7026.7755      0.50833991
       7027.7499      0.61903104
       7028.7244      0.72792619
       7029.6989      0.65614836
       7030.6733      0.70253013
       7031.6478      0.60280884
       7032.6222      0.69326935
       7033.5967      0.67518038
       7034.5712      0.52586367
       7035.5456      0.60596781
       7036.5201      0.66868958
       7037.4945      0.59540025
       7038.4690      0.55930445
       7039.4435      0.42878422
       7040.4179      0.59536314
       7041.3924      0.59576986
       7042.3669      0.61763500
       7043.3413      0.55096063
       7044.3158      0.70214906
       7045.2902      0.71953537
       7046.2647      0.62621638
       7047.2392      0.58031122
       7048.2136      0.69437633
       7049.1881      0.56232315
       7050.1625      0.59943696
       7051.1370      0.56607827
       7052.1115      0.67013581
       7053.0859      0.57333755
       7054.0604      0.44232575
       7055.0349      0.66623048
       7056.0093      0.54133001
       7056.9838      0.50906969
       7057.9582      0.45024203
       7058.9327      0.54248424
       7059.9072      0.47088992
       7060.8816      0.53308824
       7061.8561      0.56342424
       7062.8306      0.67949079
       7063.8050      0.56588592
       7064.7795      0.71099656
       7065.7539      0.46355706
       7066.7284      0.70886302
       7067.7029      0.62788649
       7068.6773      0.61951204
       7069.6518      0.46994277
       7070.6262      0.55087170
       7071.6007      0.66456612
       7072.5752      0.87049609
       7073.5496      0.64008233
       7074.5241      0.71597675
       7075.4986      0.46776433
       7076.4730      0.61943192
       7077.4475      0.82543273
       7078.4219      0.49523231
       7079.3964      0.50186814
       7080.3709      0.53428481
       7081.3453      0.53842058
       7082.3198      0.53924331
       7083.2942      0.85205383
       7084.2687      0.75950085
       7085.2432      0.47526010
       7086.2176      0.69387457
       7087.1921      0.47410027
       7088.1666      0.37794658
       7089.1410      0.35853779
       7090.1155      0.56225078
       7091.0899      0.45782608
       7092.0644      0.59223400
       7093.0389      0.51670107
       7094.0133      0.73735558
       7094.9878      0.58836464
       7095.9622      0.58534023
       7096.9367      0.42737507
       7097.9112      0.40343618
       7098.8856      0.51704004
       7099.8601      0.57070847
       7100.8346      0.48887091
       7101.8090      0.65074514
       7102.7835      0.59255774
       7103.7579      0.55289257
       7104.7324      0.58681606
       7105.7069      0.62958839
       7106.6813      0.36834018
       7107.6558      0.65308619
       7108.6302      0.65941532
       7109.6047      0.55611691
       7110.5792      0.65892523
       7111.5536      0.48204639
       7112.5281      0.44239094
       7113.5026      0.53387585
       7114.4770      0.63129173
       7115.4515      0.54460377
       7116.4259      0.54360476
       7117.4004      0.52032040
       7118.3749      0.66356407
       7119.3493      0.44311424
       7120.3238      0.57332657
       7121.2982      0.62199130
       7122.2727      0.62044514
       7123.2472      0.74175698
       7124.2216      0.48879641
       7125.1961      0.46911630
       7126.1706      0.68825682
       7127.1450      0.74023013
       7128.1195      0.55742967
       7129.0939      0.72534837
       7130.0684      0.48980893
       7131.0429      0.58436423
       7132.0173      0.63420290
       7132.9918      0.60354578
       7133.9662      0.52123642
       7134.9407      0.54279776
       7135.9152      0.66974785
       7136.8896      0.70162253
       7137.8641      0.70122282
       7138.8386      0.65609707
       7139.8130      0.60115937
       7140.7875      0.49103084
       7141.7619      0.50420208
       7142.7364      0.56507225
       7143.7109      0.52312434
       7144.6853      0.60179511
       7145.6598      0.64683538
       7146.6342      0.55000998
       7147.6087      0.58582363
       7148.5832      0.51754055
       7149.5576      0.48393150
       7150.5321      0.60766428
       7151.5066      0.54247379
       7152.4810      0.64829954
       7153.4555      0.73278807
       7154.4299      0.59152913
       7155.4044      0.63889908
       7156.3789      0.59684656
       7157.3533      0.54499755
       7158.3278      0.68926831
       7159.3022      0.57094640
       7160.2767      0.66832326
       7161.2512      0.61802589
       7162.2256      0.64848050
       7163.2001      0.72716104
       7164.1746      0.71078691
       7165.1490      0.63681998
       7166.1235      0.52744547
       7167.0979      0.65850450
       7168.0724      0.53915156
       7169.0469      0.60069686
       7170.0213      0.72409974
       7170.9958      0.56106272
       7171.9702      0.68579430
       7172.9447      0.96159597
       7173.9192      0.59511105
       7174.8936      0.84997519
       7175.8681       1.2832950
       7176.8426       1.2019243
       7177.8170       1.0348029
       7178.7915       1.0607918
       7179.7659       1.6494880
       7180.7404       1.4151142
       7181.7149       1.2589665
       7182.6893       1.2221426
       7183.6638       1.1289197
       7184.6382       1.0798733
       7185.6127       1.3459991
       7186.5872      0.97593997
       7187.5616       1.2510928
       7188.5361       1.4827913
       7189.5106       1.3951898
       7190.4850       1.6044870
       7191.4595      0.31267504
       7192.4339      0.56467165
       7193.4084      0.59698481
       7194.3829      0.96725932
       7195.3573      0.83888980
       7196.3318      0.69477914
       7197.3062      0.70860013
       7198.2807      0.58549236
       7199.2552      0.61374305
       7200.2296      0.46655907
       7201.2041      0.81809779
       7202.1786      0.61886314
       7203.1530      0.63970244
       7204.1275      0.70924840
       7205.1019      0.82582515
       7206.0764      0.62472179
       7207.0509      0.70165466
       7208.0253      0.67789123
       7208.9998      0.55278342
       7209.9742      0.60625977
       7210.9487      0.66074201
       7211.9232      0.57194906
       7212.8976      0.78859199
       7213.8721      0.63253368
       7214.8466      0.59500912
       7215.8210      0.58499721
       7216.7955      0.66476736
       7217.7699      0.54701918
       7218.7444      0.63362828
       7219.7189      0.57309497
       7220.6933      0.63627826
       7221.6678      0.73872336
       7222.6422      0.61251218
       7223.6167      0.73040186
       7224.5912      0.70309297
       7225.5656      0.68243061
       7226.5401      0.75797832
       7227.5146      0.80214152
       7228.4890       1.4463044
       7229.4635      0.73275904
       7230.4379      0.12366986
       7231.4124      0.69928702
       7232.3869       1.0156164
       7233.3613      0.34213392
       7234.3358      0.38039081
       7235.3102      0.72750462
       7236.2847      0.82490216
       7237.2592       1.3413544
       7238.2336      0.64346467
       7239.2081      0.64988632
       7240.1826      0.58667734
       7241.1570      0.52467451
       7242.1315      0.71202834
       7243.1059      0.86106921
       7244.0804      0.89465296
       7245.0549      0.77176633
       7246.0293      0.75804410
       7247.0038      0.53553195
       7247.9782      0.74730084
       7248.9527      0.59313358
       7249.9272       1.1064152
       7250.9016      0.79255446
       7251.8761      0.79727131
       7252.8506      0.65809295
       7253.8250      0.68394164
       7254.7995      0.58378701
       7255.7739      0.67223111
       7256.7484      0.59687958
       7257.7229      0.51392259
       7258.6973      0.60024810
       7259.6718      0.52886840
       7260.6462      0.72935931
       7261.6207      0.11320002
       7262.5952      0.26087266
       7263.5696      0.52053568
       7264.5441      0.81403857
       7265.5186      0.94854640
       7266.4930      0.55982163
       7267.4675      0.28529318
       7268.4419      0.43051942
       7269.4164      0.78522579
       7270.3909      0.59333524
       7271.3653      0.67642229
       7272.3398      0.81420764
       7273.3142      0.66625147
       7274.2887      0.93998682
       7275.2632      0.88324854
       7276.2376      0.38050597
       7277.2121      0.86047552
       7278.1866       1.3572669
       7279.1610      0.84249349
       7280.1355      0.51944514
       7281.1099      0.36880326
       7282.0844      0.32999284
       7283.0589      0.75592517
       7284.0333       1.0765997
       7285.0078      0.77592339
       7285.9822      0.73888935
       7286.9567      0.71571801
       7287.9312       1.0175165
       7288.9056      0.93159762
       7289.8801      0.83455592
       7290.8546      0.61280908
       7291.8290      0.18625036
       7292.8035      0.97273364
       7293.7779      0.83336473
       7294.7524      0.61547921
       7295.7269      0.37479132
       7296.7013      0.38752116
       7297.6758      0.69856660
       7298.6502      0.80191801
       7299.6247      0.73268492
       7300.5992      0.52017850
       7301.5736      0.81054498
       7302.5481      0.78267568
       7303.5226       1.0398505
       7304.4970       1.0589730
       7305.4715      0.68831786
       7306.4459      0.73631718
       7307.4204       1.3840096
       7308.3949      0.20442765
       7309.3693      -2.0183892
       7310.3438    -0.021306186
       7311.3182       1.3492959
       7312.2927       1.1085636
       7313.2672      0.87316605
       7314.2416      0.80980530
       7315.2161      0.82366478
       7316.1906      0.63561537
       7317.1650      0.68834970
       7318.1395      0.69477345
       7319.1139      0.76318613
       7320.0884      0.72047343
       7321.0629      0.72113520
       7322.0373      0.77745114
       7323.0118      0.79889221
       7323.9862      0.98540419
       7324.9607      0.63114265
       7325.9352      0.40341124
       7326.9096      0.62816578
       7327.8841      0.48564382
       7328.8586      0.45094031
       7329.8330      0.61177850
       7330.8075      0.59258585
       7331.7819      0.72929845
       7332.7564      0.68859919
       7333.7309      0.86679336
       7334.7053      0.79167513
       7335.6798       1.1917174
       7336.6543       1.0018662
       7337.6287       1.2051548
       7338.6032      0.57522989
       7339.5776      0.21161554
       7340.5521      0.51247739
       7341.5266      0.65579092
       7342.5010      0.48207158
       7343.4755      0.55507087
       7344.4499      0.80343431
       7345.4244      0.73230802
       7346.3989      0.77873843
       7347.3733      0.62801560
       7348.3478      0.71423496
       7349.3223      0.77282410
       7350.2967      0.83753946
       7351.2712      0.74100497
       7352.2456      0.71682615
       7353.2201      0.83947422
       7354.1946      0.84390847
       7355.1690      0.72760585
       7356.1435      0.64286135
       7357.1179      0.69051240
       7358.0924       1.0767545
       7359.0669      0.88462731
       7360.0413      0.84273966
       7361.0158      0.78355188
       7361.9903      0.55612550
       7362.9647      0.64782257
       7363.9392      0.17445276
       7364.9136      0.38731955
       7365.8881      0.61922328
       7366.8626      0.69285447
       7367.8370      0.75409735
       7368.8115       1.0374754
       7369.7859      0.76463929
       7370.7604      0.66721782
       7371.7349      0.79643814
       7372.7093      0.35005620
       7373.6838      0.63753516
       7374.6583      0.68460876
       7375.6327      0.78583940
       7376.6072      0.78703667
       7377.5816      0.69509472
       7378.5561      0.69857081
       7379.5306      0.87953648
       7380.5050      0.82993422
       7381.4795      0.78570300
       7382.4539      0.73468951
       7383.4284      0.71389166
       7384.4029      0.65956850
       7385.3773      0.68300706
       7386.3518      0.50981356
       7387.3263      0.74715320
       7388.3007      0.57226218
       7389.2752      0.68059857
       7390.2496      0.73405717
       7391.2241      0.71069272
       7392.1986      0.83554674
       7393.1730      0.90489425
       7394.1475      0.80175425
       7395.1219      0.91392394
       7396.0964      0.88576219
       7397.0709      0.82406416
       7398.0453      0.78639744
       7399.0198      0.78144858
       7399.9943      0.98151903
       7400.9687      0.91616248
       7401.9432       1.0591811
       7402.9176      0.94068380
       7403.8921       1.3050065
       7404.8666       1.1063493
       7405.8410      0.76111174
       7406.8155      0.63837110
       7407.7899      0.57310115
       7408.7644      0.63980633
       7409.7389      0.58222625
       7410.7133      0.83968642
       7411.6878      0.47587897
       7412.6623      0.43968706
       7413.6367      0.57670383
       7414.6112      0.53055843
       7415.5856      0.60444840
       7416.5601      0.66883187
       7417.5346      0.58584297
       7418.5090      0.64594552
       7419.4835      0.88633234
       7420.4579      0.65962859
       7421.4324      0.46889697
       7422.4069      0.72156475
       7423.3813      0.74789581
       7424.3558      0.65976053
       7425.3303      0.68844878
       7426.3047      0.65511047
       7427.2792      0.75017656
       7428.2536      0.76970504
       7429.2281      0.65136804
       7430.2026      0.57833456
       7431.1770      0.62508108
       7432.1515      0.61200978
       7433.1259      0.67189370
       7434.1004      0.76093735
       7435.0749      0.68264363
       7436.0493      0.77464554
       7437.0238      0.88123919
       7437.9983       1.0620986
       7438.9727      0.81504035
       7439.9472      0.77973275
       7440.9216      0.66800230
       7441.8961      0.78984866
       7442.8706      0.85619497
       7443.8450      0.69709575
       7444.8195      0.83028514
       7445.7939      0.89336485
       7446.7684       1.2814647
       7447.7429       1.1553481
       7448.7173       1.0796229
       7449.6918       1.1464986
       7450.6663      0.97039227
       7451.6407      0.92445017
       7452.6152      0.78417459
       7453.5896      0.59355248
       7454.5641      0.44233469
       7455.5386      0.41155191
       7456.5130      0.59517323
       7457.4875      0.76395129
       7458.4619      0.89052754
       7459.4364      0.92756390
       7460.4109      0.75293637
       7461.3853      0.76300040
       7462.3598      0.75211374
       7463.3343      0.81897806
       7464.3087      0.83247596
       7465.2832      0.83578183
       7466.2576      0.74656852
       7467.2321      0.67534498
       7468.2066      0.67986372
       7469.1810      0.87900975
       7470.1555       1.0311031
       7471.1299      0.81419275
       7472.1044      0.87014578
       7473.0789      0.76013234
       7474.0533      0.90340413
       7475.0278      0.64558471
       7476.0023      0.61965052
       7476.9767      0.61645305
       7477.9512      0.77700096
       7478.9256      0.90591229
       7479.9001      0.87704517
       7480.8746      0.69645400
       7481.8490      0.62323768
       7482.8235      0.91356294
       7483.7979      0.77448159
       7484.7724      0.78642760
       7485.7469      0.77347045
       7486.7213      0.71884825
       7487.6958      0.86818989
       7488.6703      0.78604235
       7489.6447      0.80267441
       7490.6192      0.73494292
       7491.5936      0.73328381
       7492.5681      0.85180945
       7493.5426      0.62757110
       7494.5170      0.90725072
       7495.4915      0.96266357
       7496.4659      0.85227640
       7497.4404       1.1094406
       7498.4149      0.89475455
       7499.3893      0.75718725
       7500.3638      0.75534816
       7501.3383      0.96101090
       7502.3127      0.94103985
       7503.2872      0.87966733
       7504.2616      0.75301768
       7505.2361      0.88915636
       7506.2106       1.0622500
       7507.1850      0.94272737
       7508.1595      0.72147685
       7509.1339      0.85592505
       7510.1084       1.1120284
       7511.0829      0.88655014
       7512.0573      0.92732279
       7513.0318      0.84792857
       7514.0063      0.93830212
       7514.9807      0.99618256
       7515.9552      0.80362452
       7516.9296      0.84398569
       7517.9041      0.90940512
       7518.8786      0.94659788
       7519.8530      0.91875516
       7520.8275      0.84188566
       7521.8019      0.93155384
       7522.7764      0.87442546
       7523.7509      0.92074281
       7524.7253      0.81531360
       7525.6998      0.96951569
       7526.6743       1.0242926
       7527.6487      0.93091294
       7528.6232      0.92032357
       7529.5976      0.92649824
       7530.5721      0.88124673
       7531.5466      0.88197848
       7532.5210      0.95620128
       7533.4955      0.90242174
       7534.4699       1.1474665
       7535.4444      0.90595617
       7536.4189      0.93998141
       7537.3933       1.0241035
       7538.3678      0.88747012
       7539.3423      0.90398914
       7540.3167      0.70131963
       7541.2912      0.89626564
       7542.2656       1.1311761
       7543.2401       1.0102942
       7544.2146       1.0259113
       7545.1890       1.2125948
       7546.1635      0.87743484
       7547.1379       1.1354388
       7548.1124       1.1682963
       7549.0869       1.2002567
       7550.0613       1.0031164
       7551.0358      0.88125531
       7552.0103      0.96219943
       7552.9847      0.74365385
       7553.9592      0.97310557
       7554.9336       1.1740680
       7555.9081      0.96114969
       7556.8826      0.89124522
       7557.8570      0.99401418
       7558.8315       1.1545737
       7559.8059       1.0067390
       7560.7804      0.87177118
       7561.7549      0.83215829
       7562.7293      0.99848114
       7563.7038      0.91746767
       7564.6783      0.98808112
       7565.6527      0.79748746
       7566.6272      0.83530878
       7567.6016      0.83465618
       7568.5761      0.88467020
       7569.5506      0.98196533
       7570.5250      0.97311448
       7571.4995      0.82030606
       7572.4739      0.96006988
       7573.4484      0.94786450
       7574.4229      0.84848358
       7575.3973       1.0653246
       7576.3718       1.0438604
       7577.3463      0.91239837
       7578.3207       1.2063973
       7579.2952       1.1358707
       7580.2696       1.0066918
       7581.2441      0.99840936
       7582.2186      0.92845427
       7583.1930      0.93337416
       7584.1675      0.80884714
       7585.1419       1.0294036
       7586.1164       1.0244930
       7587.0909      0.98381225
       7588.0653      0.93007896
       7589.0398      0.91752737
       7590.0143       1.0303088
       7590.9887      0.91814253
       7591.9632      0.96459549
       7592.9376       1.0377228
       7593.9121      0.98436449
       7594.8866       1.0769576
       7595.8610       1.0617563
       7596.8355       1.1711639
       7597.8099      0.94032036
       7598.7844      0.91686165
       7599.7589       1.0025668
       7600.7333      0.95635010
       7601.7078       1.1245317
       7602.6823       1.0662060
       7603.6567       1.1809543
       7604.6312      0.89964148
       7605.6056       1.0082436
       7606.5801       1.0740571
       7607.5546      0.95905429
       7608.5290       1.0481584
       7609.5035      0.97725887
       7610.4780      0.90947389
       7611.4524       1.0838230
       7612.4269       1.0008279
       7613.4013      0.86260133
       7614.3758      0.92936758
       7615.3503       1.0611576
       7616.3247       1.4601080
       7617.2992       1.4577300
       7618.2736       1.1135503
       7619.2481      0.87622080
       7620.2226       1.8702183
       7621.1970       1.9073096
       7622.1715       1.5134797
       7623.1460      0.54330081
       7624.1204      0.72733718
       7625.0949       1.3058258
       7626.0693       1.3494448
       7627.0438      0.74754572
       7628.0183      0.47511098
       7628.9927      0.96926968
       7629.9672       1.3799069
       7630.9416       1.5055603
       7631.9161      0.36992642
       7632.8906     0.082267415
       7633.8650      0.77643413
       7634.8395       1.0408454
       7635.8140      0.79735346
       7636.7884      0.59932997
       7637.7629       1.0292188
       7638.7373      0.84449772
       7639.7118      0.79527309
       7640.6863      0.99090157
       7641.6607       1.0337417
       7642.6352      0.88587929
       7643.6096       1.0203282
       7644.5841      0.80399578
       7645.5586      0.82243710
       7646.5330      0.71946999
       7647.5075      0.52734223
       7648.4820      0.11906834
       7649.4564      0.20289946
       7650.4309      0.78456143
       7651.4053      0.79633915
       7652.3798      0.85865596
       7653.3543       1.0428739
       7654.3287      0.93444919
       7655.3032      0.92684415
       7656.2776      0.81550422
       7657.2521      0.60170180
       7658.2266      0.60530268
       7659.2010      0.69740703
       7660.1755      0.80081242
       7661.1500      0.82087589
       7662.1244      0.77986352
       7663.0989      0.84596579
       7664.0733      0.84620622
       7665.0478       1.0369730
       7666.0223      0.85229214
       7666.9967      0.91013267
       7667.9712      0.90136326
       7668.9456      0.93742645
       7669.9201      0.87805236
       7670.8946      0.93639546
       7671.8690       1.7462541
       7672.8435       2.5405721
       7673.8180       2.8749523
       7674.7924       2.1341724
       7675.7669       2.3371532
       7676.7413      0.68010481
       7677.7158      0.48579769
       7678.6903     -0.14203754
       7679.6647      0.40089864
       7680.6392      0.67478628
       7681.6136      0.86908185
       7682.5881       1.2050803
       7683.5626       1.2077733
       7684.5370       1.0430722
       7685.5115       1.0960754
       7686.4860      0.95922473
       7687.4604      0.89624553
       7688.4349      0.94401785
       7689.4093      0.94141331
       7690.3838       1.0168530
       7691.3583       1.0372064
       7692.3327       1.0004766
       7693.3072       1.2383105
       7694.2816       1.2704813
       7695.2561      0.92125919
       7696.2306       1.1808671
       7697.2050      0.75915030
       7698.1795      0.71480828
       7699.1540      0.86405071
       7700.1284      0.45932334
       7701.1029      0.63671977
       7702.0773      0.63241638
       7703.0518      0.71236618
       7704.0263      0.74436702
       7705.0007      0.72772914
       7705.9752      0.87585371
       7706.9496      0.88735634
       7707.9241       1.2065958
       7708.8986       1.1658476
       7709.8730       1.2445560
       7710.8475       1.1578652
       7711.8220      0.48910175
       7712.7964       1.0792063
       7713.7709      0.87696572
       7714.7453      0.81121574
       7715.7198      0.54644460
       7716.6943      0.60364336
       7717.6687      0.62214512
       7718.6432      0.74980560
       7719.6176      0.88440425
       7720.5921      0.87872502
       7721.5666      0.93672714
       7722.5410      0.93537445
       7723.5155       1.1054182
       7724.4900       1.4438581
       7725.4644       2.4986650
       7726.4389       1.7709786
       7727.4133       1.6947463
       7728.3878       1.1141458
       7729.3623       1.2029642
       7730.3367      0.49504955
       7731.3112      0.83296269
       7732.2856      0.45941507
       7733.2601      0.84418039
       7734.2346       1.2398946
       7735.2090       1.2893684
       7736.1835       1.0628902
       7737.1580       1.1134524
       7738.1324       1.1035457
       7739.1069       1.0989390
       7740.0813      0.83662390
       7741.0558      0.73145606
       7742.0303       1.1376225
       7743.0047      0.77943843
       7743.9792      0.49963094
       7744.9536      0.59390214
       7745.9281      0.61629008
       7746.9026      0.71270495
       7747.8770      0.76892277
       7748.8515      0.94322097
       7749.8260      0.99594600
       7750.8004      0.78191660
       7751.7749      0.94082513
       7752.7493      0.97018169
       7753.7238       1.0619346
       7754.6983       1.4203707
       7755.6727       2.0766686
       7756.6472       1.6818749
       7757.6216       1.0877920
       7758.5961       1.4830114
       7759.5706      0.88225601
       7760.5450     -0.49687300
       7761.5195      0.46770147
       7762.4940      0.77620704
       7763.4684       1.0582383
       7764.4429       1.0864734
       7765.4173       1.0282886
       7766.3918       1.0070412
       7767.3663       1.0319802
       7768.3407      0.93577986
       7769.3152      0.93031006
       7770.2896      0.91240451
       7771.2641      0.85646417
       7772.2386      0.81872397
       7773.2130      0.54788775
       7774.1875      0.76261037
       7775.1620       1.0716588
       7776.1364       1.3475123
       7777.1109       1.1926295
       7778.0853    -0.023571715
       7779.0598      -1.1110809
       7780.0343      0.48318775
       7781.0087       2.0128160
       7781.9832       2.9605072
       7782.9576       2.4417381
       7783.9321       1.5735139
       7784.9066       1.1489514
       7785.8810      0.92756572
       7786.8555       1.0383739
       7787.8300      0.90977445
       7788.8044       1.5669204
       7789.7789       1.6554053
       7790.7533       1.5006394
       7791.7278       1.2200150
       7792.7023      0.77014287
       7793.6767       1.0714435
       7794.6512      0.63056293
       7795.6256      0.91458723
       7796.6001       1.0308567
       7797.5746       1.0464684
       7798.5490      0.71750829
       7799.5235       1.0482879
       7800.4980      0.98657794
       7801.4724      0.84819586
       7802.4469      0.96582015
       7803.4213       1.0144665
       7804.3958      0.93509641
       7805.3703       1.0631778
       7806.3447       1.0032245
       7807.3192      0.94615021
       7808.2936      0.99264084
       7809.2681      0.99040959
       7810.2426      0.94796087
       7811.2170       1.0410536
       7812.1915      0.93670830
       7813.1660      0.94730178
       7814.1404      0.83369288
       7815.1149      0.94581356
       7816.0893       1.3033808
       7817.0638       1.5405800
       7818.0383      0.82373999
       7819.0127      0.78540220
       7819.9872      0.52725312
       7820.9616      0.68002919
       7821.9361      0.82585743
       7822.9106      0.90771022
       7823.8850      0.98172251
       7824.8595       1.1579641
       7825.8340       1.1441746
       7826.8084       1.1234184
       7827.7829       1.5872193
       7828.7573       1.5096463
       7829.7318      0.68330631
       7830.7063       1.1015051
       7831.6807       1.3189258
       7832.6552      0.85771031
       7833.6296      0.47875378
       7834.6041      0.55825159
       7835.5786       1.2588277
       7836.5530       1.0244853
       7837.5275      0.99575343
       7838.5020      0.87747439
       7839.4764      0.85135363
       7840.4509      0.91588416
       7841.4253      0.84542444
       7842.3998       1.0880546
       7843.3743      0.94573473
       7844.3487      0.92194035
       7845.3232      0.98508575
       7846.2976      0.85682963
       7847.2721      0.94253090
       7848.2466      0.92435623
       7849.2210      0.87698729
       7850.1955      0.69973556
       7851.1700      0.77408332
       7852.1444      0.87276168
       7853.1189      0.89615551
       7854.0933       1.0036567
       7855.0678      0.95600547
       7856.0423      0.83298485
       7857.0167      0.91202273
       7857.9912      0.84657366
       7858.9656       1.0862934
       7859.9401       1.1259390
       7860.9146       1.0655346
       7861.8890      0.96428818
       7862.8635       1.2525090
       7863.8380       1.1531741
       7864.8124       1.1890893
       7865.7869       1.1371870
       7866.7613      0.84241354
       7867.7358       1.0104665
       7868.7103      0.96283660
       7869.6847       1.0897739
       7870.6592      0.91021087
       7871.6336      0.91765542
       7872.6081      0.99771533
       7873.5826      0.88370951
       7874.5570      0.65120782
       7875.5315      0.90446399
       7876.5060      0.92489799
       7877.4804      0.81493707
       7878.4549      0.87867995
       7879.4293      0.81981603
       7880.4038       1.0556605
       7881.3783      0.96931448
       7882.3527      0.90168981
       7883.3272      0.95110287
       7884.3017       1.1584050
       7885.2761      0.96215674
       7886.2506      0.77308603
       7887.2250      0.93963563
       7888.1995      0.93730523
       7889.1740      0.73114873
       7890.1484      0.95004932
       7891.1229      0.87003838
       7892.0973      0.75997287
       7893.0718      0.97554554
       7894.0463      0.76857038
       7895.0207      0.92600283
       7895.9952      0.91494773
       7896.9697      0.70441834
       7897.9441      0.93197238
       7898.9186      0.83472509
       7899.8930       1.0466967
       7900.8675       1.2185971
       7901.8420       1.0033074
       7902.8164       1.1848216
       7903.7909       1.0489817
       7904.7653       1.1230112
       7905.7398      0.86383609
       7906.7143      0.95899617
       7907.6887      0.71281653
       7908.6632      0.81845616
       7909.6377       1.1272828
       7910.6121       1.2662241
       7911.5866      0.88904732
       7912.5610       1.3849194
       7913.5355      0.81305717
       7914.5100      0.97146887
       7915.4844       1.0446884
       7916.4589      0.86788911
       7917.4333      0.84883058
       7918.4078       1.1474404
       7919.3823       1.0662727
       7920.3567       1.3641932
       7921.3312       1.3965133
       7922.3057      0.32344541
       7923.2801       1.4297187
       7924.2546      0.58413370
       7925.2290      0.94231134
       7926.2035      0.70065919
       7927.1780      0.98906089
       7928.1524       1.2451209
       7929.1269       1.3356297
       7930.1013      0.74344617
       7931.0758      0.69339655
       7932.0503      0.96979369
       7933.0247       1.2304978
       7933.9992       1.1133266
       7934.9737       1.0524096
       7935.9481       1.3930712
       7936.9226       1.0499610
       7937.8970       1.1205555
       7938.8715       1.1363204
       7939.8460      0.95482452
       7940.8204    -0.011318159
       7941.7949       1.0038495
       7942.7693       1.6434083
       7943.7438       1.3723299
       7944.7183       1.1673642
       7945.6927       1.4629706
       7946.6672       1.7612369
       7947.6417       1.6269130
       7948.6161       1.4677035
       7949.5906       1.4956054
       7950.5650       1.2754374
       7951.5395       1.6581223
       7952.5140       1.1198115
       7953.4884       1.0646869
       7954.4629      0.91238078
       7955.4373       1.2308707
       7956.4118       1.4081478
       7957.3863      0.96742374
       7958.3607      0.67634450
       7959.3352       1.3318226
       7960.3097       1.0662690
       7961.2841      0.63434958
       7962.2586      0.79300191
       7963.2330      0.89665696
       7964.2075       1.1128571
       7965.1820       1.1277651
       7966.1564      0.92006676
       7967.1309      0.91856309
       7968.1053       1.0779111
       7969.0798      0.89590045
       7970.0543       1.2149128
       7971.0287       1.1165958
       7972.0032      0.85289169
       7972.9777      0.62392307
       7973.9521      0.75011010
       7974.9266      0.81064785
       7975.9010      0.94081396
       7976.8755      0.87409529
       7977.8500      0.76231795
       7978.8244       1.1833295
       7979.7989       1.2251214
       7980.7733       1.0437150
       7981.7478      0.71518495
       7982.7223      0.80996816
       7983.6967      0.85233863
       7984.6712      0.72442028
       7985.6457      0.78681295
       7986.6201      0.87288243
       7987.5946      0.98624546
       7988.5690      0.80693678
       7989.5435       1.0500784
       7990.5180       1.1325683
       7991.4924      0.97921112
       7992.4669      0.75547420
       7993.4413      0.79119754
       7994.4158       1.0009593
       7995.3903      0.94416357
       7996.3647      0.99259911
       7997.3392      0.91316036
       7998.3137      0.88830688
       7999.2881      0.89015498
       8000.2626      0.81467402
       8001.2370       1.0664342
       8002.2115       1.0132346
       8003.1860      0.86691186
       8004.1604       1.0704206
       8005.1349       1.1776016
       8006.1093       1.2427884
       8007.0838       1.1739294
       8008.0583       1.3931882
       8009.0327       1.7586400
       8010.0072       2.5637495
       8010.9817      0.79519861
       8011.9561       1.7146603
       8012.9306       1.4325224
       8013.9050       2.0740298
       8014.8795     -0.38459986
       8015.8540      0.30552461
       8016.8284      0.89678659
       8017.8029       1.1889193
       8018.7773      0.67940190
       8019.7518      0.91698491
       8020.7263       1.0779262
       8021.7007      0.83048570
       8022.6752      0.70699588
       8023.6497     -0.22555014
       8024.6241     -0.42718280
       8025.5986      0.30932667
       8026.5730       1.1203289
       8027.5475       1.2740846
       8028.5220       1.9976418
       8029.4964       2.6894751
       8030.4709       2.5408979
       8031.4453       1.9946494
       8032.4198       2.1600411
       8033.3943       1.2588303
       8034.3687      0.82582700
       8035.3432       1.2558172
       8036.3177       1.4620681
       8037.2921       1.2215269
       8038.2666       1.1704949
       8039.2410       1.0414609
       8040.2155       1.0374947
       8041.1900       1.3008433
       8042.1644       1.4710094
       8043.1389       1.1837444
       8044.1133       1.1081881
       8045.0878      0.98159428
       8046.0623       1.1797842
       8047.0367      0.93699811
       8048.0112       1.1599610
       8048.9857       1.0174250
       8049.9601       1.0436729
       8050.9346      0.91990642
       8051.9090      0.90870455
       8052.8835      0.89770701
       8053.8580       1.1384777
       8054.8324       1.1379487
       8055.8069       1.3451303
       8056.7813       1.1822616
       8057.7558      0.52034171
       8058.7303       1.0731606
       8059.7047      0.62684929
       8060.6792      0.83947364
       8061.6537     -0.49373969
       8062.6281     -0.45713619
       8063.6026      0.82939936
       8064.5770       1.1254583
       8065.5515       1.2385086
       8066.5260      0.99399337
       8067.5004      0.96085815
       8068.4749       1.0371130
       8069.4493      0.88980613
       8070.4238      0.97525149
       8071.3983      0.88516997
       8072.3727      0.75664480
       8073.3472       1.0371849
       8074.3217       1.3154337
       8075.2961       2.0938254
       8076.2706       2.3684936
       8077.2450       1.2773573
       8078.2195      0.68368150
       8079.1940       1.1333876
       8080.1684      0.78697009
       8081.1429      0.72183059
       8082.1173       1.3935310
       8083.0918       1.2356763
       8084.0663       1.4326064
       8085.0407       1.2410408
       8086.0152       1.0259314
       8086.9897       1.0334282
       8087.9641      0.96789973
       8088.9386      0.81232881
       8089.9130      0.88488654
       8090.8875      0.89083735
       8091.8620       1.0901307
       8092.8364       1.1979485
       8093.8109       1.7419122
       8094.7853       1.8659722
       8095.7598       1.8877795
       8096.7343       1.3307613
       8097.7087       1.2735513
       8098.6832      0.74218031
       8099.6577      0.60053627
       8100.6321       1.2765333
       8101.6066       1.3018099
       8102.5810       1.4251738
       8103.5555       1.0185763
       8104.5300       1.0310354
       8105.5044       1.3118650
       8106.4789       1.3411443
       8107.4533       1.2926513
       8108.4278       1.1904788
       8109.4023       1.4260502
       8110.3767       1.6151119
       8111.3512      0.23037253
       8112.3257       1.6386820
       8113.3001       1.6747160
       8114.2746      0.72031880
       8115.2490       1.5319672
       8116.2235       1.1357833
       8117.1980       1.5001197
       8118.1724       1.2778912
       8119.1469       1.0992308
       8120.1213       1.0058360
       8121.0958       1.1565891
       8122.0703       1.2199502
       8123.0447      0.73655730
       8124.0192      0.91601240
       8124.9937      0.97858604
       8125.9681       1.1377451
       8126.9426       1.1146422
       8127.9170       1.4571173
       8128.8915       1.3299596
       8129.8660      0.88811102
       8130.8404      0.65299746
       8131.8149      0.97028978
       8132.7893       1.1670014
       8133.7638       1.4942261
       8134.7383      0.70593780
       8135.7127       1.8906692
       8136.6872       1.2547768
       8137.6617       1.4753882
       8138.6361       1.1845340
       8139.6106       1.2667121
       8140.5850      0.50528681
       8141.5595      0.83781599
       8142.5340      0.98922234
       8143.5084       1.1691326
       8144.4829       1.5381576
       8145.4573       1.8575391
       8146.4318       1.7120369
       8147.4063       1.2111233
       8148.3807       1.9663895
       8149.3552       1.3259504
       8150.3297       2.2259823
       8151.3041       2.4954243
       8152.2786      0.74270623
       8153.2530      0.24452978
       8154.2275      0.92381513
       8155.2020       1.6356344
       8156.1764       1.3733284
       8157.1509       1.0047411
       8158.1254       1.2352059
       8159.0998       1.2708936
       8160.0743       1.1300295
       8161.0487      0.94256234
       8162.0232      0.88151043
       8162.9977      0.88786181
       8163.9721       1.3296374
       8164.9466       1.2389219
       8165.9210      0.80538081
       8166.8955      0.92269395
       8167.8700      0.90481393
       8168.8444       1.3752374
       8169.8189       1.3276983
       8170.7934       1.0258524
       8171.7678       1.3506127
       8172.7423       1.2367271
       8173.7167      0.82664845
