# wavelength flux
       1839.5364     0.047849757
       1840.1482     0.037591944
       1840.7600     0.034056497
       1841.3717     0.025429338
       1841.9835     0.030712479
       1842.5953  -0.00094956197
       1843.2070    0.0086111958
       1843.8188     0.030867194
       1844.4306     0.024438108
       1845.0423     0.012700270
       1845.6541     0.044169267
       1846.2659     0.025454775
       1846.8776     0.026094207
       1847.4894     0.047069770
       1848.1011     0.012567603
       1848.7129     0.011682386
       1849.3247     0.023351527
       1849.9364     0.022085818
       1850.5482     0.012935723
       1851.1600     0.023117905
       1851.7717     0.018307726
       1852.3835     0.015626309
       1852.9953     0.012170925
       1853.6070     0.035947085
       1854.2188     0.055606307
       1854.8306     0.038152112
       1855.4423     0.012299379
       1856.0541     0.023653433
       1856.6659     0.022305932
       1857.2776     0.039370131
       1857.8894    -0.023850705
       1858.5012     0.010217366
       1859.1129     0.012628392
       1859.7247     0.013463316
       1860.3364    0.0033874171
       1860.9482     0.025803690
       1861.5600     0.041322719
       1862.1717     0.053342363
       1862.7835     0.038028490
       1863.3953     0.026876927
       1864.0070     0.054042530
       1864.6188     0.048641001
       1865.2306   -0.0068608333
       1865.8423     0.010785302
       1866.4541     0.043885128
       1867.0659     0.026951831
       1867.6776     0.034337225
       1868.2894     0.026784808
       1868.9012     0.057719497
       1869.5129     0.019020506
       1870.1247     0.026007565
       1870.7365     0.014148857
       1871.3482   -0.0070051897
       1871.9600     0.014320618
       1872.5717    0.0010612108
       1873.1835     0.012983780
       1873.7953     0.044966612
       1874.4070    0.0020550523
       1875.0188     0.029400802
       1875.6306     0.023411564
       1876.2423     0.036545397
       1876.8541     0.053579621
       1877.4659  -0.00095739169
       1878.0776    0.0099286362
       1878.6894    0.0060412609
       1879.3012     0.012926062
       1879.9129    0.0094277393
       1880.5247     0.031888328
       1881.1365     0.022375210
       1881.7482     0.015214528
       1882.3600     0.013890327
       1882.9718     0.014311821
       1883.5835     0.031523113
       1884.1953     0.040357938
       1884.8070    0.0085917913
       1885.4188     0.041302373
       1886.0306    0.0069586431
       1886.6423     0.031201257
       1887.2541     0.025633175
       1887.8659     0.017460341
       1888.4776     0.017118650
       1889.0894     0.031205881
       1889.7012     0.039731262
       1890.3129     0.027003625
       1890.9247     0.025620935
       1891.5365     0.015790578
       1892.1482    0.0022179440
       1892.7600     0.055219345
       1893.3718     0.016965149
       1893.9835     0.049126573
       1894.5953     0.022180233
       1895.2071     0.032370518
       1895.8188     0.019427708
       1896.4306     0.029485240
       1897.0424     0.011909475
       1897.6541     0.022368112
       1898.2659     0.039910066
       1898.8776     0.039207355
       1899.4894     0.047958775
       1900.1012     0.055120753
       1900.7129     0.023235409
       1901.3247     0.029711612
       1901.9365    0.0072681911
       1902.5482     0.020342720
       1903.1600     0.046998265
       1903.7718     0.052592596
       1904.3835     0.025140922
       1904.9953     0.018984603
       1905.6071     0.029346269
       1906.2188     0.023095935
       1906.8306     0.011401420
       1907.4424     0.016085524
       1908.0541     0.011890659
       1908.6659     0.057936297
       1909.2777     0.012499251
       1909.8894     0.035427535
       1910.5012     0.023680446
       1911.1129     0.044997458
       1911.7247     0.015347510
       1912.3365     0.018708383
       1912.9482     0.035579878
       1913.5600     0.034359105
       1914.1718     0.021405175
       1914.7835     0.036252582
       1915.3953     0.039764361
       1916.0071     0.021847217
       1916.6188    0.0084080497
       1917.2306     0.016319296
       1917.8424     0.033389633
       1918.4541     0.050497270
       1919.0659     0.031289072
       1919.6777     0.041214947
       1920.2894     0.022804957
       1920.9012     0.041175685
       1921.5130     0.029328931
       1922.1247     0.020060868
       1922.7365    0.0065667658
       1923.3482     0.017335341
       1923.9600    0.0047361157
       1924.5718    -0.018701648
       1925.1835     0.010848092
       1925.7953     0.034475839
       1926.4071     0.050658735
       1927.0188     0.010622922
       1927.6306     0.032184932
       1928.2424     0.039068773
       1928.8541     0.030158903
       1929.4659     0.024518974
       1930.0777     0.024202461
       1930.6894     0.027267160
       1931.3012     0.017707663
       1931.9130     0.029172036
       1932.5247     0.021838086
       1933.1365     0.022485646
       1933.7483    0.0094686020
       1934.3600     0.017061117
       1934.9718     0.029112572
       1935.5835     0.024504732
       1936.1953     0.021589850
       1936.8071    0.0084376287
       1937.4188     0.020671277
       1938.0306     0.024589993
       1938.6424     0.025168745
       1939.2541     0.028902560
       1939.8659     0.021308540
       1940.4777     0.033571052
       1941.0894     0.034338973
       1941.7012     0.030281547
       1942.3130     0.025266386
       1942.9247     0.011543495
       1943.5365     0.036482448
       1944.1483     0.029636678
       1944.7600     0.029223895
       1945.3718     0.026494693
       1945.9836     0.031905166
       1946.5953     0.035184357
       1947.2071     0.015959834
       1947.8188    0.0084292778
       1948.4306     0.036970692
       1949.0424     0.044968981
       1949.6541     0.037775471
       1950.2659     0.031409169
       1950.8777     0.023191318
       1951.4894     0.025016680
       1952.1012     0.024335916
       1952.7130     0.039911492
       1953.3247     0.031730703
       1953.9365     0.036999971
       1954.5483     0.023578128
       1955.1600   -0.0044558053
       1955.7718     0.023437860
       1956.3836    0.0072907480
       1956.9953     0.027884478
       1957.6071     0.047502341
       1958.2189     0.028598507
       1958.8306     0.045815603
       1959.4424     0.027826376
       1960.0541     0.019197930
       1960.6659     0.023292903
       1961.2777     0.021634340
       1961.8894     0.028217222
       1962.5012     0.031024229
       1963.1130     0.040394005
       1963.7247    0.0096337482
       1964.3365     0.015558197
       1964.9483     0.023333928
       1965.5600     0.026499542
       1966.1718     0.023381177
       1966.7836     0.025991397
       1967.3953     0.038219771
       1968.0071     0.024523900
       1968.6189     0.046021925
       1969.2306     0.014457746
       1969.8424     0.025284374
       1970.4542     0.043113851
       1971.0659     0.013915373
       1971.6777     0.010068351
       1972.2895     0.020406672
       1972.9012     0.012832025
       1973.5130     0.024563894
       1974.1247     0.023665922
       1974.7365     0.013449999
       1975.3483     0.012461987
       1975.9600     0.024455191
       1976.5718     0.022780455
       1977.1836     0.014951562
       1977.7953     0.022388394
       1978.4071     0.026986461
       1979.0189     0.038075697
       1979.6306     0.016614700
       1980.2424     0.014770214
       1980.8542     0.019193343
       1981.4659    0.0092267779
       1982.0777     0.028724569
       1982.6895     0.020208888
       1983.3012     0.027123588
       1983.9130     0.015355119
       1984.5248    0.0050509929
       1985.1365    0.0097934851
       1985.7483    0.0065793165
       1986.3600     0.011054053
       1986.9718     0.020781820
       1987.5836     0.016343191
       1988.1953     0.014416686
       1988.8071   -0.0033180649
       1989.4189     0.025067497
       1990.0306     0.042395094
       1990.6424     0.027827472
       1991.2542     0.023749600
       1991.8659     0.013517539
       1992.4777     0.034301961
       1993.0895     0.022144888
       1993.7012     0.027429521
       1994.3130     0.037094700
       1994.9248     0.025613815
       1995.5365     0.042366488
       1996.1483     0.013141107
       1996.7601     0.032081434
       1997.3718     0.024979433
       1997.9836     0.030128483
       1998.5953     0.040198688
       1999.2071     0.018443576
       1999.8189     0.015611820
       2000.4306     0.027082800
       2001.0424     0.021755751
       2001.6542     0.027248169
       2002.2659     0.026589559
       2002.8777     0.032438539
       2003.4895     0.030685627
       2004.1012     0.032458566
       2004.7130     0.026937470
       2005.3248     0.028298297
       2005.9365     0.026986996
       2006.5483     0.046883817
       2007.1601     0.043834626
       2007.7718     0.028173072
       2008.3836     0.034442969
       2008.9954     0.027779612
       2009.6071     0.021415345
       2010.2189     0.043920066
       2010.8306     0.039950626
       2011.4424     0.034398801
       2012.0542     0.037153163
       2012.6659     0.028771601
       2013.2777     0.024043971
       2013.8895     0.023411054
       2014.5012     0.025742760
       2015.1130     0.027228459
       2015.7248     0.024553843
       2016.3365     0.016791614
       2016.9483     0.027731968
       2017.5601     0.035816650
       2018.1718     0.024461006
       2018.7836     0.019987210
       2019.3954     0.021373605
       2020.0071     0.028700132
       2020.6189     0.050207367
       2021.2307     0.043741920
       2021.8424     0.026744572
       2022.4542     0.037294265
       2023.0659     0.020799023
       2023.6777     0.035993447
       2024.2895     0.036797005
       2024.9012     0.039440061
       2025.5130     0.016991342
       2026.1248     0.020853656
       2026.7365     0.024017004
       2027.3483     0.030420495
       2027.9601     0.034048568
       2028.5718     0.036696426
       2029.1836     0.029447147
       2029.7954     0.014888296
       2030.4071     0.012936947
       2031.0189     0.022236793
       2031.6307     0.019540536
       2032.2424     0.011149684
       2032.8542     0.032873705
       2033.4660     0.039668008
       2034.0777     0.024378118
       2034.6895     0.024021961
       2035.3012     0.013088791
       2035.9130     0.020297307
       2036.5248     0.028885472
       2037.1365     0.025479709
       2037.7483     0.015133941
       2038.3601   -0.0032467433
       2038.9718    0.0060428668
       2039.5836     0.021939391
       2040.1954     0.026350377
       2040.8071     0.020337475
       2041.4189     0.014147469
       2042.0307    0.0090798157
       2042.6424     0.023446136
       2043.2542     0.023138026
       2043.8660     0.023153464
       2044.4777     0.020651171
       2045.0895     0.032282779
       2045.7013     0.035349729
       2046.3130     0.023146181
       2046.9248     0.027898151
       2047.5366     0.024006967
       2048.1483     0.025963180
       2048.7601     0.033022488
       2049.3718     0.026511336
       2049.9836     0.027404069
       2050.5954     0.025591509
       2051.2071     0.016982328
       2051.8189     0.028927181
       2052.4307     0.029805532
       2053.0424     0.026930356
       2053.6542     0.033623695
       2054.2660     0.038435385
       2054.8777     0.037510532
       2055.4895     0.038826101
       2056.1013     0.033119776
       2056.7130     0.029348132
       2057.3248     0.021478776
       2057.9366     0.042732454
       2058.5483     0.035357100
       2059.1601     0.040573281
       2059.7719     0.020940289
       2060.3836     0.040589166
       2060.9954     0.028999781
       2061.6071     0.020174575
       2062.2189     0.032266628
       2062.8307     0.031213561
       2063.4424     0.029876530
       2064.0542     0.015675840
       2064.6660     0.033188332
       2065.2777     0.028944558
       2065.8895     0.024962552
       2066.5013     0.030781207
       2067.1130     0.040712252
       2067.7248     0.038857070
       2068.3366     0.025658784
       2068.9483     0.039463056
       2069.5601     0.022410641
       2070.1719     0.037472248
       2070.7836     0.029778965
       2071.3954     0.025847356
       2072.0072     0.028125340
       2072.6189     0.030686553
       2073.2307     0.033718301
       2073.8424     0.048324124
       2074.4542     0.036912670
       2075.0660     0.023114435
       2075.6777     0.036921341
       2076.2895     0.028071229
       2076.9013     0.033245674
       2077.5130     0.036290409
       2078.1248     0.044392867
       2078.7366     0.041268294
       2079.3483     0.034615196
       2079.9601     0.041598051
       2080.5719     0.024812216
       2081.1836     0.013232815
       2081.7954     0.036254160
       2082.4072     0.030861373
       2083.0189     0.033851575
       2083.6307     0.043496193
       2084.2425     0.039177878
       2084.8542     0.027616946
       2085.4660     0.041648020
       2086.0777     0.043837568
       2086.6895     0.055768486
       2087.3013     0.038051041
       2087.9130     0.019181723
       2088.5248     0.025214783
       2089.1366     0.031759576
       2089.7483     0.030940768
       2090.3601     0.025507879
       2090.9719     0.042825646
       2091.5836     0.055150291
       2092.1954     0.038660380
       2092.8072     0.022106930
       2093.4189     0.025960132
       2094.0307     0.039695363
       2094.6425     0.033543418
       2095.2542     0.012697771
       2095.8660     0.031785334
       2096.4778     0.032089253
       2097.0895     0.021749428
       2097.7013     0.023875355
       2098.3130     0.013274954
       2098.9248     0.027685799
       2099.5366     0.038779520
       2100.1483     0.032582899
       2100.7601     0.044065261
       2101.3719     0.026993061
       2101.9836     0.038931395
       2102.5954     0.040873913
       2103.2072     0.023649948
       2103.8189     0.026624013
       2104.4307     0.027589641
       2105.0425     0.026962454
       2105.6542     0.036203197
       2106.2660     0.025327196
       2106.8778     0.039152491
       2107.4895     0.030326404
       2108.1013     0.052650291
       2108.7131     0.039807615
       2109.3248     0.024338922
       2109.9366     0.032842709
       2110.5483     0.033182001
       2111.1601     0.041054188
       2111.7719     0.031848872
       2112.3836     0.036142660
       2112.9954     0.035682716
       2113.6072     0.030110112
       2114.2189     0.019831046
       2114.8307     0.044718786
       2115.4425     0.033421091
       2116.0542     0.029969273
       2116.6660     0.020571065
       2117.2778     0.026726427
       2117.8895     0.021874128
       2118.5013     0.010706784
       2119.1131     0.021510450
       2119.7248     0.028207255
       2120.3366     0.028900913
       2120.9484     0.033323668
       2121.5601     0.030848432
       2122.1719     0.029734258
       2122.7836     0.028198694
       2123.3954     0.033530030
       2124.0072     0.027011839
       2124.6189    0.0094034803
       2125.2307    0.0054703270
       2125.8425     0.029760359
       2126.4542     0.041279279
       2127.0660     0.038718158
       2127.6778     0.037765321
       2128.2895     0.027518397
       2128.9013     0.032336257
       2129.5131     0.039579868
       2130.1248     0.029679742
       2130.7366     0.039832348
       2131.3484     0.035924199
       2131.9601     0.031805440
       2132.5719     0.024444664
       2133.1837     0.033145641
       2133.7954     0.031498543
       2134.4072     0.029085283
       2135.0190     0.038378181
       2135.6307     0.033070447
       2136.2425     0.032061927
       2136.8542     0.019567215
       2137.4660     0.018859080
       2138.0778     0.026569392
       2138.6895     0.029638272
       2139.3013     0.050254828
       2139.9131     0.040071240
       2140.5248     0.041468919
       2141.1366     0.012342206
       2141.7484     0.033501866
       2142.3601     0.023470642
       2142.9719     0.020794951
       2143.5837     0.021275717
       2144.1954     0.020360834
       2144.8072     0.040104740
       2145.4190     0.023387961
       2146.0307     0.022934966
       2146.6425     0.037792487
       2147.2543     0.021066444
       2147.8660     0.033371155
       2148.4778     0.037387457
       2149.0895     0.032611760
       2149.7013     0.029900298
       2150.3131     0.028296855
       2150.9248     0.024959867
       2151.5366     0.035337096
       2152.1484     0.034476660
       2152.7601     0.026845177
       2153.3719     0.012741805
       2153.9837     0.028263563
       2154.5954     0.024055215
       2155.2072     0.036957680
       2155.8190     0.031958234
       2156.4307     0.040666749
       2157.0425     0.038827303
       2157.6543     0.032128995
       2158.2660     0.032834511
       2158.8778     0.027490481
       2159.4896     0.021576494
       2160.1013     0.025934296
       2160.7131     0.026547983
       2161.3248     0.018798780
       2161.9366     0.029246265
       2162.5484     0.017083680
       2163.1601     0.012954212
       2163.7719     0.028571334
       2164.3837     0.027721384
       2164.9954     0.025345558
       2165.6072     0.027096059
       2166.2190     0.037859265
       2166.8307     0.035974337
       2167.4425     0.029729995
       2168.0543     0.037622635
       2168.6660     0.023061708
       2169.2778     0.029116498
       2169.8896     0.031529019
       2170.5013     0.041262649
       2171.1131     0.039998076
       2171.7249     0.032085525
       2172.3366     0.030241960
       2172.9484     0.032428473
       2173.5601     0.026536401
       2174.1719     0.029525382
       2174.7837     0.028244759
       2175.3954     0.023698703
       2176.0072     0.028383380
       2176.6190     0.040665776
       2177.2307     0.032639663
       2177.8425     0.030671453
       2178.4543     0.036589825
       2179.0660     0.042739995
       2179.6778     0.032046945
       2180.2896     0.013005989
       2180.9013     0.021994880
       2181.5131     0.026635065
       2182.1249     0.035444366
       2182.7366     0.043594636
       2183.3484     0.026831599
       2183.9602     0.028034190
       2184.5719     0.023384585
       2185.1837     0.049835737
       2185.7954     0.025520237
       2186.4072     0.017990503
       2187.0190     0.017413725
       2187.6307     0.035413480
       2188.2425     0.027969225
       2188.8543     0.029594777
       2189.4660     0.046718271
       2190.0778     0.043035790
       2190.6896     0.044561107
       2191.3013     0.043020516
       2191.9131     0.032498804
       2192.5249     0.033530568
       2193.1366     0.025977296
       2193.7484     0.036132100
       2194.3602     0.031294971
       2194.9719     0.032331885
       2195.5837     0.039819083
       2196.1955     0.033610792
       2196.8072     0.029019517
       2197.4190     0.037423534
       2198.0307     0.046595390
       2198.6425     0.037628130
       2199.2543     0.028018160
       2199.8660     0.039685520
       2200.4778     0.035713273
       2201.0896     0.027457119
       2201.7013     0.029348374
       2202.3131     0.038467757
       2202.9249     0.034191229
       2203.5366     0.034724005
       2204.1484     0.034455950
       2204.7602     0.025735750
       2205.3719     0.025725943
       2205.9837     0.030890638
       2206.5955     0.012542374
       2207.2072     0.027491758
       2207.8190     0.033311537
       2208.4308     0.026195809
       2209.0425     0.026064678
       2209.6543     0.034792389
       2210.2661     0.042613863
       2210.8778     0.037787677
       2211.4896     0.034437220
       2212.1013     0.041764711
       2212.7131     0.044450565
       2213.3249     0.049491025
       2213.9366     0.042239709
       2214.5484     0.033548509
       2215.1602     0.039251048
       2215.7719     0.032312008
       2216.3837     0.034121550
       2216.9955     0.039741332
       2217.6072     0.031289272
       2218.2190     0.031315348
       2218.8308     0.030858133
       2219.4425     0.032698524
       2220.0543     0.028298013
       2220.6661     0.033542360
       2221.2778     0.028589489
       2221.8896     0.036170266
       2222.5014     0.036049065
       2223.1131     0.031612396
       2223.7249     0.034090336
       2224.3366     0.036303787
       2224.9484     0.030979012
       2225.5602     0.031211732
       2226.1719     0.041057779
       2226.7837     0.042142192
       2227.3955     0.031632062
       2228.0072     0.028869121
       2228.6190     0.034320793
       2229.2308     0.037321708
       2229.8425     0.028469218
       2230.4543     0.039434419
       2231.0661     0.035668294
       2231.6778     0.033014245
       2232.2896     0.055005896
       2232.9014     0.043537581
       2233.5131     0.034775731
       2234.1249     0.033546608
       2234.7367     0.039076914
       2235.3484     0.035956494
       2235.9602     0.034653200
       2236.5719     0.039352707
       2237.1837     0.054352961
       2237.7955     0.043874964
       2238.4072     0.025566829
       2239.0190     0.033861519
       2239.6308     0.032622290
       2240.2425     0.029404812
       2240.8543     0.040440464
       2241.4661     0.039837839
       2242.0778     0.041659428
       2242.6896     0.040010784
       2243.3014     0.040940999
       2243.9131     0.039017928
       2244.5249     0.037469066
       2245.1367     0.042725421
       2245.7484     0.036128915
       2246.3602     0.020443609
       2246.9720     0.026983732
       2247.5837     0.023872228
       2248.1955     0.028213749
       2248.8072     0.030282483
       2249.4190     0.035204848
       2250.0308     0.029335588
       2250.6425     0.028912511
       2251.2543     0.025124746
       2251.8661     0.033198060
       2252.4778     0.035634981
       2253.0896     0.041135763
       2253.7014     0.033132648
       2254.3131     0.032007597
       2254.9249     0.025640835
       2255.5367     0.026191989
       2256.1484     0.028818957
       2256.7602     0.037697461
       2257.3720     0.038081817
       2257.9837     0.025117613
       2258.5955     0.028236463
       2259.2073     0.042314365
       2259.8190     0.043926871
       2260.4308     0.032000078
       2261.0425     0.037978068
       2261.6543     0.044594891
       2262.2661     0.030269475
       2262.8778     0.038141365
       2263.4896     0.043578312
       2264.1014     0.044339081
       2264.7131     0.048262423
       2265.3249     0.038866058
       2265.9367     0.030499967
       2266.5484     0.035149486
       2267.1602     0.035628170
       2267.7720     0.023730162
       2268.3837     0.032350613
       2268.9955     0.030018271
       2269.6073     0.031187050
       2270.2190     0.039220578
       2270.8308     0.037762624
       2271.4426     0.044451286
       2272.0543     0.037341746
       2272.6661     0.021053593
       2273.2778     0.028046854
       2273.8896     0.036511503
       2274.5014     0.034742542
       2275.1131     0.035311396
       2275.7249     0.043135434
       2276.3367     0.031681398
       2276.9484     0.050982856
       2277.5602     0.044285463
       2278.1720     0.028310271
       2278.7837     0.021467092
       2279.3955     0.039635510
       2280.0073     0.038195276
       2280.6190     0.034103596
       2281.2308     0.030645243
       2281.8426     0.028242012
       2282.4543     0.025217663
       2283.0661     0.016177933
       2283.6779     0.038443630
       2284.2896     0.039970369
       2284.9014     0.028006012
       2285.5132     0.030120949
       2286.1249     0.032731147
       2286.7367     0.032097659
       2287.3484     0.027143627
       2287.9602     0.035206728
       2288.5720     0.042014385
       2289.1837     0.048172100
       2289.7955     0.042385801
       2290.4073     0.037122952
       2291.0190     0.027619027
       2291.6308     0.036008317
       2292.2426     0.040375187
       2292.8543     0.038750793
       2293.4661     0.038098801
       2294.0779     0.050893202
       2294.6896     0.036947844
       2295.3014     0.033124381
       2295.9132     0.040644901
       2296.5249     0.038348704
       2297.1367     0.016168183
       2297.7485     0.019010792
       2298.3602     0.045883004
       2298.9720     0.040310131
       2299.5837     0.036462598
       2300.1955     0.042215516
       2300.8073     0.042188080
       2301.4190     0.033501306
       2302.0308     0.030523191
       2302.6426     0.036368404
       2303.2543     0.032509661
       2303.8661     0.030234675
       2304.4779     0.035594043
       2305.0896     0.048118620
       2305.7014     0.032296294
       2306.3132     0.020745814
       2306.9249     0.032217057
       2307.5367     0.028661905
       2308.1485     0.028068386
       2308.7602     0.036161059
       2309.3720     0.040012458
       2309.9838     0.044023088
       2310.5955     0.037849803
       2311.2073     0.030105462
       2311.8190     0.026143102
       2312.4308     0.035496263
       2313.0426     0.044346598
       2313.6543     0.041473541
       2314.2661     0.042949803
       2314.8779     0.043662537
       2315.4896     0.038885564
       2316.1014     0.033964733
       2316.7132     0.035731396
       2317.3249     0.038667351
       2317.9367     0.045061428
       2318.5485     0.065444124
       2319.1602     0.051882628
       2319.7720     0.034093090
       2320.3838     0.042894534
       2320.9955     0.043623333
       2321.6073     0.049179768
       2322.2191     0.047531022
       2322.8308     0.050603302
       2323.4426     0.051676969
       2324.0543     0.050357688
       2324.6661     0.043077274
       2325.2779     0.027431043
       2325.8896     0.025548300
       2326.5014     0.034732811
       2327.1132     0.021763441
       2327.7249     0.026641443
       2328.3367     0.028034938
       2328.9485     0.042921822
       2329.5602     0.052333214
       2330.1720     0.050127167
       2330.7838     0.059331079
       2331.3955     0.049520819
       2332.0073     0.037961310
       2332.6191     0.030710709
       2333.2308     0.036643362
       2333.8426     0.020355781
       2334.4544     0.033191033
       2335.0661     0.031160522
       2335.6779     0.022596613
       2336.2896     0.017636881
       2336.9014     0.022558310
       2337.5132     0.033842055
       2338.1249     0.018237963
       2338.7367     0.025229862
       2339.3485     0.035404848
       2339.9602     0.037117123
       2340.5720     0.024314313
       2341.1838     0.036947020
       2341.7955     0.047251671
       2342.4073     0.043398749
       2343.0191     0.037455851
       2343.6308     0.047298531
       2344.2426     0.052293681
       2344.8544     0.047442880
       2345.4661     0.031638713
       2346.0779     0.025452957
       2346.6897     0.036887266
       2347.3014     0.036885413
       2347.9132     0.041443006
       2348.5249     0.040998992
       2349.1367     0.026613794
       2349.7485     0.027674905
       2350.3602     0.012315637
       2350.9720    0.0085082268
       2351.5838     0.026323486
       2352.1955     0.030833551
       2352.8073     0.033492246
       2353.4191     0.033731816
       2354.0308     0.034547115
       2354.6426     0.033075633
       2355.2544     0.036054095
       2355.8661     0.044498357
       2356.4779     0.051746174
       2357.0897     0.037534696
       2357.7014     0.032239433
       2358.3132     0.042272809
       2358.9250     0.046327168
       2359.5367     0.051185011
       2360.1485     0.033854383
       2360.7602     0.031706545
       2361.3720     0.045072138
       2361.9838     0.040590673
       2362.5955     0.029874707
       2363.2073     0.043463237
       2363.8191     0.047793894
       2364.4308     0.038218900
       2365.0426     0.044147718
       2365.6544     0.050649415
       2366.2661     0.044162842
       2366.8779     0.033922858
       2367.4897     0.037626506
       2368.1014     0.046030958
       2368.7132     0.041864139
       2369.3250     0.053752552
       2369.9367     0.039316737
       2370.5485     0.043263058
       2371.1603     0.035668400
       2371.7720     0.031833721
       2372.3838     0.033883319
       2372.9956     0.041786634
       2373.6073     0.056796916
       2374.2191     0.047516598
       2374.8308     0.039280336
       2375.4426     0.037781793
       2376.0544     0.023376346
       2376.6661     0.035136226
       2377.2779     0.045136080
       2377.8897     0.038870358
       2378.5014     0.035285033
       2379.1132     0.033374604
       2379.7250     0.023720735
       2380.3367     0.023098459
       2380.9485     0.031432930
       2381.5603     0.029568366
       2382.1720     0.025647786
       2382.7838     0.015887285
       2383.3956     0.023142701
       2384.0073     0.041024982
       2384.6191     0.033909505
       2385.2309     0.024152057
       2385.8426     0.034688674
       2386.4544     0.038863353
       2387.0661     0.053022179
       2387.6779     0.042361911
       2388.2897     0.030211741
       2388.9014     0.027461881
       2389.5132    0.0032225390
       2390.1250    0.0082544322
       2390.7367     0.021186327
       2391.3485     0.015287304
       2391.9603     0.024843708
       2392.5720     0.060750591
       2393.1838     0.052074687
       2393.7956     0.030057656
       2394.4073     0.037302010
       2395.0191     0.042668297
       2395.6309     0.039544347
       2396.2426     0.028874429
       2396.8544     0.029082815
       2397.4662     0.045062509
       2398.0779     0.047422428
       2398.6897     0.046446003
       2399.3014     0.046000845
       2399.9132     0.036228525
       2400.5250     0.035690043
       2401.1367     0.048371822
       2401.7485     0.049113078
       2402.3603     0.038553577
       2402.9720     0.037096068
       2403.5838     0.052152843
       2404.1956     0.058572001
       2404.8073     0.040547790
       2405.4191     0.030770483
       2406.0309     0.028778746
       2406.6426     0.030656203
       2407.2544     0.035365416
       2407.8662     0.030581574
       2408.4779     0.046731839
       2409.0897     0.047750494
       2409.7015     0.028547695
       2410.3132     0.041692123
       2410.9250     0.043036929
       2411.5367     0.047558724
       2412.1485     0.048469812
       2412.7603     0.044822667
       2413.3720     0.039799001
       2413.9838     0.052833107
       2414.5956     0.050255973
       2415.2073     0.044946759
       2415.8191     0.049511715
       2416.4309     0.048172253
       2417.0426     0.066304083
       2417.6544     0.049741646
       2418.2662     0.039730139
       2418.8779     0.045037833
       2419.4897     0.039973979
       2420.1015     0.020878114
       2420.7132     0.030634413
       2421.3250     0.040584254
       2421.9368     0.042494645
       2422.5485     0.046224483
       2423.1603     0.035997085
       2423.7720     0.028882727
       2424.3838     0.038154443
       2424.9956     0.041105922
       2425.6073     0.055090762
       2426.2191     0.055009436
       2426.8309     0.059888292
       2427.4426     0.054799958
       2428.0544     0.049894996
       2428.6662     0.059933974
       2429.2779     0.055698588
       2429.8897     0.058918438
       2430.5015     0.061074073
       2431.1132     0.052946413
       2431.7250     0.044956394
       2432.3368     0.041280759
       2432.9485     0.041535673
       2433.5603     0.034690193
       2434.1721     0.013263873
       2434.7838     0.034008492
       2435.3956     0.049463149
       2436.0073     0.054312972
       2436.6191     0.044730641
       2437.2309     0.047916375
       2437.8426     0.047422768
       2438.4544     0.041033755
       2439.0662     0.042645048
       2439.6779     0.038884724
       2440.2897     0.034042458
       2440.9015     0.026380089
       2441.5132     0.051727001
       2442.1250     0.060216479
       2442.7368     0.051141297
       2443.3485     0.042300764
       2443.9603     0.046222022
       2444.5721     0.050229845
       2445.1838     0.055281800
       2445.7956     0.049126198
       2446.4074     0.052741107
       2447.0191     0.045985522
       2447.6309     0.047764350
       2448.2427     0.052770585
       2448.8544     0.041985915
       2449.4662     0.056487537
       2450.0779     0.064924571
       2450.6897     0.055560478
       2451.3015     0.049000815
       2451.9132     0.040710932
       2452.5250     0.027883944
       2453.1368     0.052002342
       2453.7485     0.048761900
       2454.3603     0.045400860
       2454.9721     0.056163491
       2455.5838     0.050784477
       2456.1956     0.045428149
       2456.8074     0.051774097
       2457.4191     0.047495755
       2458.0309     0.050704426
       2458.6427     0.045018000
       2459.2544     0.042981069
       2459.8662     0.044689175
       2460.4780     0.054486842
       2461.0897     0.056296499
       2461.7015     0.043635175
       2462.3132     0.042372573
       2462.9250     0.040690664
       2463.5368     0.039688986
       2464.1485     0.045817018
       2464.7603     0.058852272
       2465.3721     0.052033972
       2465.9838     0.056883886
       2466.5956     0.042647457
       2467.2074     0.045082286
       2467.8191     0.039211968
       2468.4309     0.033267616
       2469.0427     0.034267250
       2469.6544     0.040179556
       2470.2662     0.028226269
       2470.8780     0.022448838
       2471.4897     0.038709625
       2472.1015     0.050885765
       2472.7133     0.039027752
       2473.3250     0.036031555
       2473.9368     0.037804653
       2474.5485     0.033813527
       2475.1603     0.025574676
       2475.7721     0.039826248
       2476.3838     0.051246432
       2476.9956     0.048527035
       2477.6074     0.044200783
       2478.2191     0.044610368
       2478.8309     0.043977544
       2479.4427     0.062750384
       2480.0544     0.042085978
       2480.6662     0.042599592
       2481.2780     0.043423477
       2481.8897     0.063021473
       2482.5015     0.055900041
       2483.1133     0.055946940
       2483.7250     0.057552353
       2484.3368     0.046125343
       2484.9486     0.055065964
       2485.5603     0.060591965
       2486.1721     0.058185205
       2486.7838     0.045497176
       2487.3956     0.038320505
       2488.0074     0.039016963
       2488.6191     0.040687127
       2489.2309     0.044082655
       2489.8427     0.043978719
       2490.4544     0.034291174
       2491.0662     0.031515263
       2491.6780     0.047592240
       2492.2897     0.050211810
       2492.9015     0.045229632
       2493.5133     0.040804284
       2494.1250     0.049427663
       2494.7368     0.059032426
       2495.3486     0.062378569
       2495.9603     0.045409101
       2496.5721     0.057277851
       2497.1839     0.056919903
       2497.7956     0.057869190
       2498.4074     0.069818172
       2499.0191     0.070030074
       2499.6309     0.061408059
       2500.2427     0.048204294
       2500.8544     0.043742854
       2501.4662     0.048786025
       2502.0780     0.054007672
       2502.6897     0.045027787
       2503.3015     0.049509355
       2503.9133     0.057144521
       2504.5250     0.053301537
       2505.1368     0.048295494
       2505.7486     0.053205783
       2506.3603     0.051857956
       2506.9721     0.059547551
       2507.5839     0.061999965
       2508.1956     0.052171231
       2508.8074     0.042431909
       2509.4192     0.041309951
       2510.0309     0.052432535
       2510.6427     0.057682459
       2511.2544     0.045515941
       2511.8662     0.048786678
       2512.4780     0.056343381
       2513.0897     0.046652495
       2513.7015     0.046129928
       2514.3133     0.040575903
       2514.9250     0.044179780
       2515.5368     0.054623630
       2516.1486     0.041572872
       2516.7603     0.044518587
       2517.3721     0.051201394
       2517.9839     0.041650337
       2518.5956     0.044310037
       2519.2074     0.046027004
       2519.8192     0.044137259
       2520.4309     0.057844634
       2521.0427     0.058245103
       2521.6545     0.059076411
       2522.2662     0.051615748
       2522.8780     0.046550792
       2523.4898     0.045316761
       2524.1015     0.064483203
       2524.7133     0.067509767
       2525.3250     0.046903334
       2525.9368     0.042299492
       2526.5486     0.044424357
       2527.1603     0.044890826
       2527.7721     0.047945460
       2528.3839     0.065654144
       2528.9956     0.066618759
       2529.6074     0.059201618
       2530.2192     0.055903932
       2530.8309     0.048138377
       2531.4427     0.040337364
       2532.0545     0.045142631
       2532.6662     0.033996587
       2533.2780     0.037001439
       2533.8898     0.024013533
       2534.5015     0.024219977
       2535.1133     0.038037416
       2535.7251     0.042026058
       2536.3368     0.048359543
       2536.9486     0.060104868
       2537.5603     0.057847815
       2538.1721     0.038158644
       2538.7839     0.029543514
       2539.3956     0.034045692
       2540.0074     0.053060515
       2540.6192     0.047384071
       2541.2309     0.035097372
       2541.8427     0.057171908
       2542.4545     0.057924438
       2543.0662     0.041981707
       2543.6780     0.047028310
       2544.2898     0.037753768
       2544.9015     0.034339781
       2545.5133     0.021307011
       2546.1251     0.026323976
       2546.7368     0.029883829
       2547.3486     0.031488695
       2547.9604     0.034765558
       2548.5721     0.044697888
       2549.1839     0.037902092
       2549.7956     0.034546569
       2550.4074     0.042861054
       2551.0192     0.056074247
       2551.6309     0.057163237
       2552.2427     0.054791231
       2552.8545     0.053312590
       2553.4662     0.043164519
       2554.0780     0.059520796
       2554.6898     0.068188325
       2555.3015     0.059457080
       2555.9133     0.055114751
       2556.5251     0.046312249
       2557.1368     0.057870061
       2557.7486     0.053378485
       2558.3604     0.055019940
       2558.9721     0.066565761
       2559.5839     0.071966863
       2560.1957     0.054670145
       2560.8074     0.059400593
       2561.4192     0.056265875
       2562.0309     0.049193704
       2562.6427     0.048823426
       2563.2545     0.041525851
       2563.8662     0.052195349
       2564.4780     0.046033466
       2565.0898     0.047926110
       2565.7015     0.045903085
       2566.3133     0.048347384
       2566.9251     0.044984039
       2567.5368     0.047717132
       2568.1486     0.037913552
       2568.7604     0.042267897
       2569.3721     0.032582944
       2569.9839     0.046606679
       2570.5957     0.049381862
       2571.2074     0.032240305
       2571.8192     0.030587941
       2572.4310     0.057571051
       2573.0427     0.066773357
       2573.6545     0.052388836
       2574.2662     0.027727918
       2574.8780     0.041804029
       2575.4898     0.074261684
       2576.1015     0.063942937
       2576.7133     0.058559086
       2577.3251     0.053190157
       2577.9368     0.045503947
       2578.5486     0.045835232
       2579.1604     0.056761332
       2579.7721     0.056322139
       2580.3839     0.044817647
       2580.9957     0.043483178
       2581.6074     0.072171973
       2582.2192     0.067115636
       2582.8310     0.064956525
       2583.4427     0.056731589
       2584.0545     0.050451665
       2584.6663     0.046371216
       2585.2780     0.046662374
       2585.8898     0.044860016
       2586.5015     0.044618440
       2587.1133     0.041790586
       2587.7251     0.045093496
       2588.3368     0.039664588
       2588.9486     0.044689729
       2589.5604     0.060566733
       2590.1721     0.038017010
       2590.7839     0.014612440
       2591.3957    0.0081442768
       2592.0074     0.018701889
       2592.6192     0.038983983
       2593.2310     0.026414340
       2593.8427     0.036321654
       2594.4545     0.041310770
       2595.0663     0.046000232
       2595.6780     0.056378579
       2596.2898     0.050574830
       2596.9016     0.054100613
       2597.5133     0.054182762
       2598.1251     0.052347591
       2598.7369     0.048588996
       2599.3486     0.048620407
       2599.9604     0.062617062
       2600.5721     0.061029350
       2601.1839     0.045144197
       2601.7957     0.038308143
       2602.4074     0.035688264
       2603.0192     0.034285760
       2603.6310     0.032047301
       2604.2427     0.029828208
       2604.8545     0.018925440
       2605.4663     0.027515949
       2606.0780     0.024471505
       2606.6898     0.040863167
       2607.3016     0.048125070
       2607.9133     0.057073186
       2608.5251     0.044948661
       2609.1369     0.052511936
       2609.7486     0.051942106
       2610.3604     0.044683167
       2610.9722     0.066197680
       2611.5839     0.052542628
       2612.1957     0.051068390
       2612.8074     0.057549755
       2613.4192     0.046194931
       2614.0310     0.049646515
       2614.6427     0.058390999
       2615.2545     0.072822494
       2615.8663     0.054395082
       2616.4780     0.042752862
       2617.0898     0.059487613
       2617.7016     0.057255286
       2618.3133     0.058328834
       2618.9251     0.055393343
       2619.5369     0.063359318
       2620.1486     0.064498189
       2620.7604     0.060261779
       2621.3722     0.055716877
       2621.9839     0.050829963
       2622.5957     0.034203323
       2623.2075     0.046116066
       2623.8192     0.060989746
       2624.4310     0.034837757
       2625.0427     0.036686402
       2625.6545     0.056655631
       2626.2663     0.031789813
       2626.8780     0.032588619
       2627.4898     0.048238972
       2628.1016     0.047939792
       2628.7133     0.056149439
       2629.3251     0.067271188
       2629.9369     0.060014112
       2630.5486     0.056349068
       2631.1604     0.056452927
       2631.7722     0.065722511
       2632.3839     0.066051294
       2632.9957     0.058790187
       2633.6075     0.066501058
       2634.2192     0.082662882
       2634.8310     0.075120297
       2635.4428     0.062139155
       2636.0545     0.048735165
       2636.6663     0.061816844
       2637.2780     0.057798671
       2637.8898     0.049215362
       2638.5016     0.058051564
       2639.1133     0.063450388
       2639.7251     0.062266864
       2640.3369     0.061100228
       2640.9486     0.041755391
       2641.5604     0.051014503
       2642.1722     0.046043925
       2642.7839     0.044369041
       2643.3957     0.067887805
       2644.0075     0.061793384
       2644.6192     0.054554978
       2645.2310     0.057177540
       2645.8428     0.054022617
       2646.4545     0.036932289
       2647.0663     0.047978596
       2647.6781     0.034603496
       2648.2898     0.041015899
       2648.9016     0.052776908
       2649.5133     0.068733220
       2650.1251     0.061874150
       2650.7369     0.059053837
       2651.3486     0.073090188
       2651.9604     0.058836514
       2652.5722     0.048660649
       2653.1839     0.042260530
       2653.7957     0.055049766
       2654.4075     0.064686846
       2655.0192     0.057384994
       2655.6310     0.054710812
       2656.2428     0.055729829
       2656.8545     0.071525990
       2657.4663     0.066623150
       2658.0781     0.067635229
       2658.6898     0.065559072
       2659.3016     0.050799378
       2659.9134     0.060308018
       2660.5251     0.074407054
       2661.1369     0.057898648
       2661.7486     0.055324633
       2662.3604     0.048286672
       2662.9722     0.043824953
       2663.5839     0.066373013
       2664.1957     0.056078256
       2664.8075     0.056390543
       2665.4192     0.055315805
       2666.0310     0.061233928
       2666.6428     0.062585629
       2667.2545     0.062841562
       2667.8663     0.048473854
       2668.4781     0.063900009
       2669.0898     0.067148077
       2669.7016     0.066243814
       2670.3134     0.068689917
       2670.9251     0.058214574
       2671.5369     0.038456141
       2672.1487     0.047406588
       2672.7604     0.054021461
       2673.3722     0.038627502
       2673.9839     0.058187007
       2674.5957     0.076532260
       2675.2075     0.073971557
       2675.8192     0.065169133
       2676.4310     0.055836242
       2677.0428     0.065008113
       2677.6545     0.056993183
       2678.2663     0.056217788
       2678.8781     0.069783148
       2679.4898     0.082153779
       2680.1016     0.045509026
       2680.7134     0.053029171
       2681.3251     0.079276501
       2681.9369     0.067470906
       2682.5487     0.070339306
       2683.1604     0.057806449
       2683.7722     0.055443219
       2684.3840     0.064429218
       2684.9957     0.090322912
       2685.6075     0.081876683
       2686.2193     0.080861233
       2686.8310     0.063535742
       2687.4428     0.040116061
       2688.0545     0.044085565
       2688.6663     0.054736421
       2689.2781     0.070944998
       2689.8898     0.068343177
       2690.5016     0.060368649
       2691.1134     0.075528032
       2691.7251     0.081006178
       2692.3369     0.071917350
       2692.9487     0.063956108
       2693.5604     0.045626045
       2694.1722     0.048385736
       2694.7840     0.069414612
       2695.3957     0.080112428
       2696.0075     0.072655554
       2696.6193     0.060467911
       2697.2310     0.043788381
       2697.8428     0.042785854
       2698.4546     0.055533191
       2699.0663     0.075688643
       2699.6781     0.074655339
       2700.2898     0.066272968
       2700.9016     0.057678800
       2701.5134     0.060657141
       2702.1251     0.057353761
       2702.7369     0.055281123
       2703.3487     0.051606422
       2703.9604     0.051788677
       2704.5722     0.068160946
       2705.1840     0.058679016
       2705.7957     0.067505137
       2706.4075     0.051537631
       2707.0193     0.053918502
       2707.6310     0.049979254
       2708.2428     0.033825791
       2708.8546     0.048604555
       2709.4663     0.061561870
       2710.0781     0.052739624
       2710.6899     0.053701435
       2711.3016     0.055796226
       2711.9134     0.053648606
       2712.5251     0.063304033
       2713.1369     0.044785845
       2713.7487     0.049619626
       2714.3604     0.069916477
       2714.9722     0.051094221
       2715.5840     0.056507710
       2716.1957     0.060052893
       2716.8075     0.073969715
       2717.4193     0.067338595
       2718.0310     0.048241637
       2718.6428     0.053071522
       2719.2546     0.051679576
       2719.8663     0.031227734
       2720.4781     0.050485208
       2721.0899     0.068546864
       2721.7016     0.062619955
       2722.3134     0.053229941
       2722.9252     0.052827333
       2723.5369     0.068859513
       2724.1487     0.064242368
       2724.7604     0.051023184
       2725.3722     0.034984026
       2725.9840     0.040530228
       2726.5957     0.031385646
       2727.2075     0.047223234
       2727.8193     0.050976471
       2728.4310     0.068149347
       2729.0428     0.066102659
       2729.6546     0.048025813
       2730.2663     0.052576700
       2730.8781     0.051811718
       2731.4899     0.042191878
       2732.1016     0.027970066
       2732.7134     0.024300094
       2733.3252     0.022652930
       2733.9369     0.012287997
       2734.5487     0.016563947
       2735.1605     0.014231147
       2735.7722     0.016695923
       2736.3840     0.020733700
       2736.9957     0.021711439
       2737.6075     0.015327019
       2738.2193     0.015453334
       2738.8310     0.027674849
       2739.4428     0.027218000
       2740.0546     0.026148407
       2740.6663     0.027813839
       2741.2781     0.022738982
       2741.8899     0.017689123
       2742.5016    0.0083319300
       2743.1134     0.013047291
       2743.7252     0.018893312
       2744.3369     0.025011282
       2744.9487     0.045388209
       2745.5605     0.065732054
       2746.1722     0.058422919
       2746.7840     0.070407764
       2747.3958     0.057824149
       2748.0075     0.042905557
       2748.6193     0.048355814
       2749.2310     0.064258389
       2749.8428     0.064232062
       2750.4546     0.052118124
       2751.0663     0.055625865
       2751.6781     0.051365767
       2752.2899     0.049364511
       2752.9016     0.061876923
       2753.5134     0.047914214
       2754.1252     0.042805123
       2754.7369     0.056095079
       2755.3487     0.055753432
       2755.9605     0.051934581
       2756.5722     0.058439787
       2757.1840     0.062744361
       2757.7958     0.072604360
       2758.4075     0.054977940
       2759.0193     0.060533759
       2759.6311     0.071659219
       2760.2428     0.069765905
       2760.8546     0.055913187
       2761.4664     0.045788996
       2762.0781     0.061306919
       2762.6899     0.056033340
       2763.3016     0.055050311
       2763.9134     0.067593268
       2764.5252     0.058753174
       2765.1369     0.055480163
       2765.7487     0.058468375
       2766.3605     0.057316025
       2766.9722     0.048503590
       2767.5840     0.035797825
       2768.1958     0.077048638
       2768.8075     0.079475046
       2769.4193     0.068753046
       2770.0311     0.047587276
       2770.6428     0.037620634
       2771.2546     0.057960826
       2771.8664     0.071437798
       2772.4781     0.064343520
       2773.0899     0.046373735
       2773.7017     0.069690751
       2774.3134     0.068907167
       2774.9252     0.053201500
       2775.5369     0.057564012
       2776.1487     0.054347452
       2776.7605     0.052751575
       2777.3722     0.062192228
       2777.9840     0.080147193
       2778.5958     0.076358423
       2779.2075     0.065081977
       2779.8193     0.058073597
       2780.4311     0.049752578
       2781.0428     0.058435064
       2781.6546     0.065486239
       2782.2664     0.041496169
       2782.8781     0.040672213
       2783.4899     0.061697750
       2784.1017     0.043876931
       2784.7134     0.048693798
       2785.3252     0.060601307
       2785.9370     0.052489808
       2786.5487     0.069324004
       2787.1605     0.074312363
       2787.7722     0.050613836
       2788.3840     0.053666806
       2788.9958     0.052938649
       2789.6075     0.034216638
       2790.2193     0.025760912
       2790.8311     0.060516537
       2791.4428     0.051102403
       2792.0546     0.030729540
       2792.6664     0.047915640
       2793.2781     0.063958120
       2793.8899     0.047220530
       2794.5017     0.036069462
       2795.1134     0.044114591
       2795.7252     0.034105407
       2796.3370     0.014097669
       2796.9487     0.014222810
       2797.5605  -0.00054637136
       2798.1723     0.014701082
       2798.7840    0.0086650331
       2799.3958     0.021435459
       2800.0075     0.024090985
       2800.6193     0.041560533
       2801.2311     0.064786666
       2801.8428     0.041638225
       2802.4546     0.033369852
       2803.0664     0.050344121
       2803.6781     0.033253379
       2804.2899     0.015083976
       2804.9017     0.015087063
       2805.5134     0.016531263
       2806.1252     0.043325565
       2806.7370     0.028423521
       2807.3487     0.029667613
       2807.9605     0.032824830
       2808.5723     0.058656750
       2809.1840     0.057290998
       2809.7958     0.066221568
       2810.4076     0.065059067
       2811.0193     0.082670770
       2811.6311     0.057946634
       2812.2428     0.064888535
       2812.8546     0.060312356
       2813.4664     0.063734798
       2814.0781     0.069698757
       2814.6899     0.046392380
       2815.3017     0.050523268
       2815.9134     0.046252269
       2816.5252     0.065360319
       2817.1370     0.079183865
       2817.7487     0.057103056
       2818.3605     0.054375751
       2818.9723     0.058748180
       2819.5840     0.077117480
       2820.1958     0.086256715
       2820.8076     0.056151768
       2821.4193     0.056765209
       2822.0311     0.033498027
       2822.6429     0.036548993
       2823.2546     0.077727903
       2823.8664     0.062201063
       2824.4781     0.059318756
       2825.0899     0.053242573
       2825.7017     0.057264192
       2826.3134     0.067703668
       2826.9252     0.075104158
       2827.5370     0.076702498
       2828.1487     0.057250341
       2828.7605     0.058865716
       2829.3723     0.072801194
       2829.9840     0.068181522
       2830.5958     0.079640225
       2831.2076     0.057231648
       2831.8193     0.051700918
       2832.4311     0.040025731
       2833.0429     0.074485047
       2833.6546     0.076395683
       2834.2664     0.054195305
       2834.8782     0.054709257
       2835.4899     0.071160022
       2836.1017     0.073723469
       2836.7135     0.076274133
       2837.3252     0.056752740
       2837.9370     0.061824554
       2838.5487     0.070248121
       2839.1605     0.053153332
       2839.7723     0.042422181
       2840.3840     0.049729411
       2840.9958     0.069085307
       2841.6076     0.074276734
       2842.2193     0.080435905
       2842.8311     0.068402723
       2843.4429     0.061219758
       2844.0546     0.072447210
       2844.6664     0.057617396
       2845.2782     0.066536811
       2845.8899     0.076783648
       2846.5017     0.076941033
       2847.1135     0.068026665
       2847.7252     0.048151950
       2848.3370     0.049503625
       2848.9488     0.057636857
       2849.5605     0.031933989
       2850.1723     0.057656605
       2850.7840     0.082712179
       2851.3958     0.061540789
       2852.0076     0.047202459
       2852.6193     0.071280358
       2853.2311     0.064072995
       2853.8429     0.060509671
       2854.4546     0.062152836
       2855.0664     0.049887198
       2855.6782     0.049821087
       2856.2899     0.046991347
       2856.9017     0.053791375
       2857.5135     0.064312007
       2858.1252     0.064199879
       2858.7370     0.063192271
       2859.3488     0.060505985
       2859.9605     0.062233636
       2860.5723     0.063281127
       2861.1841     0.068184361
       2861.7958     0.065321628
       2862.4076     0.072878804
       2863.0193     0.070670949
       2863.6311     0.061461964
       2864.2429     0.059446589
       2864.8546     0.066822359
       2865.4664     0.058190684
       2866.0782     0.060759621
       2866.6899     0.063892587
       2867.3017     0.058291160
       2867.9135     0.066745652
       2868.5252     0.072538475
       2869.1370     0.055945283
       2869.7488     0.056926121
       2870.3605     0.060839241
       2870.9723     0.072488206
       2871.5841     0.072699462
       2872.1958     0.056546932
       2872.8076     0.069515261
       2873.4194     0.059637322
       2874.0311     0.061720639
       2874.6429     0.062493482
       2875.2546     0.056062090
       2875.8664     0.069081470
       2876.4782     0.073047352
       2877.0899     0.051340310
       2877.7017     0.034348124
       2878.3135     0.059752816
       2878.9252     0.060425972
       2879.5370     0.040416634
       2880.1488     0.041577023
       2880.7605     0.051284874
       2881.3723     0.050908964
       2881.9841     0.062729926
       2882.5958     0.074010716
       2883.2076     0.059696589
       2883.8194     0.066530892
       2884.4311     0.085137871
       2885.0429     0.072368432
       2885.6547     0.063157978
       2886.2664     0.062185516
       2886.8782     0.056095683
       2887.4899     0.056868472
       2888.1017     0.043280855
       2888.7135     0.039053453
       2889.3252     0.061050515
       2889.9370     0.070323195
       2890.5488     0.070861614
       2891.1605     0.055284350
       2891.7723     0.057591012
       2892.3841     0.051747469
       2892.9958     0.044881484
       2893.6076     0.038398815
       2894.2194     0.054823738
       2894.8311     0.062037551
       2895.4429     0.053850272
       2896.0547     0.069633841
       2896.6664     0.068614102
       2897.2782     0.065261173
       2897.8900     0.080685897
       2898.5017     0.067512980
       2899.1135     0.062765244
       2899.7252     0.072941436
       2900.3370     0.068381724
       2900.9488     0.060292914
       2901.5605     0.071528040
       2902.1723     0.082144082
       2902.7841     0.072399594
       2903.3958     0.064328824
       2904.0076     0.063611750
       2904.6194     0.086362232
       2905.2311     0.091800379
       2905.8429     0.058373097
       2906.4547     0.068429905
       2907.0664     0.055523897
       2907.6782     0.060822732
       2908.2900     0.062528702
       2908.9017     0.049723886
       2909.5135     0.068593715
       2910.1253     0.068677943
       2910.7370     0.048546891
       2911.3488     0.038443299
       2911.9605     0.051968473
       2912.5723     0.047275213
       2913.1841     0.044240132
       2913.7958     0.047123734
       2914.4076     0.072030760
       2915.0194     0.065768934
       2915.6311     0.037911348
       2916.2429     0.064463111
       2916.8547     0.063658367
       2917.4664     0.065476015
       2918.0782     0.070892128
       2918.6900     0.084355873
       2919.3017     0.067112969
       2919.9135     0.066949612
       2920.5253     0.069627604
       2921.1370     0.068588040
       2921.7488     0.072191802
       2922.3606     0.064225499
       2922.9723     0.059440272
       2923.5841     0.062188747
       2924.1959     0.063118521
       2924.8076     0.054797506
       2925.4194     0.050705667
       2926.0311     0.066182735
       2926.6429     0.076850580
       2927.2547     0.081246682
       2927.8664     0.072194893
       2928.4782     0.063237317
       2929.0900     0.051985429
       2929.7017     0.072108522
       2930.3135     0.076331485
       2930.9253     0.054015154
       2931.5370     0.064734995
       2932.1488     0.060774094
       2932.7606     0.036714711
       2933.3723     0.041913673
       2933.9841     0.062719943
       2934.5959     0.073142645
       2935.2076     0.063007055
       2935.8194     0.059617111
       2936.4312     0.058828628
       2937.0429     0.061235226
       2937.6547     0.059241020
       2938.2664     0.060330283
       2938.8782     0.071819767
       2939.4900     0.067872958
       2940.1017     0.055091662
       2940.7135     0.052597848
       2941.3253     0.050299971
       2941.9370     0.040747903
       2942.5488     0.054390411
       2943.1606     0.049114901
       2943.7723     0.055976038
       2944.3841     0.057325815
       2944.9959     0.058750695
       2945.6076     0.063391752
       2946.2194     0.074505323
       2946.8312     0.064968743
       2947.4429     0.062158183
       2948.0547     0.079596171
       2948.6665     0.061206105
       2949.2782     0.041625811
       2949.8900     0.059711980
       2950.5017     0.072571224
       2951.1135     0.070826519
       2951.7253     0.073664828
       2952.3370     0.062741843
       2952.9488     0.070951914
       2953.5606     0.074156529
       2954.1723     0.066505010
       2954.7841     0.073334960
       2955.3959     0.066910049
       2956.0076     0.050252923
       2956.6194     0.063526719
       2957.2312     0.060499701
       2957.8429     0.066209686
       2958.4547     0.055619114
       2959.0665     0.029576118
       2959.6782     0.041090670
       2960.2900     0.057495903
       2960.9018     0.044569839
       2961.5135     0.067165738
       2962.1253     0.074123777
       2962.7370     0.073070152
       2963.3488     0.052990872
       2963.9606     0.070548499
       2964.5723     0.080980396
       2965.1841     0.081980907
       2965.7959     0.096084134
       2966.4076     0.090012651
       2967.0194     0.094000570
       2967.6312     0.094959445
       2968.2429     0.049215666
       2968.8547     0.044139505
       2969.4665     0.045400020
       2970.0782     0.059636905
       2970.6900     0.074857313
       2971.3018     0.059962888
       2971.9135     0.050113169
       2972.5253     0.060808088
       2973.1371     0.061119164
       2973.7488     0.067943211
       2974.3606     0.081222829
       2974.9723     0.079485445
       2975.5841     0.058453671
       2976.1959     0.061729847
       2976.8076     0.054209210
       2977.4194     0.057768439
       2978.0312     0.046268690
       2978.6429     0.049170044
       2979.2547     0.045099866
       2979.8665     0.072105610
       2980.4782     0.064535462
       2981.0900     0.052817904
       2981.7018     0.078088888
       2982.3135     0.059304214
       2982.9253     0.044792713
       2983.5371     0.049744678
       2984.1488     0.036726626
       2984.7606     0.062710407
       2985.3724     0.055427673
       2985.9841     0.059680184
       2986.5959     0.059195578
       2987.2076     0.063585252
       2987.8194     0.066640693
       2988.4312     0.076564287
       2989.0429     0.058473052
       2989.6547     0.047482312
       2990.2665     0.064015081
       2990.8782     0.067799658
       2991.4900     0.069288020
       2992.1018     0.051340169
       2992.7135     0.047542343
       2993.3253     0.059180942
       2993.9371     0.065917566
       2994.5488     0.083939972
       2995.1606     0.067708139
       2995.7724     0.072783469
       2996.3841     0.054675939
       2996.9959     0.057883062
       2997.6077     0.053413887
       2998.2194     0.055344325
       2998.8312     0.056641985
       2999.4430     0.077757468
       3000.0547     0.072988152
       3000.6665     0.073357226
       3001.2782     0.071216766
       3001.8900     0.057800189
       3002.5018     0.065675152
       3003.1135     0.068518171
       3003.7253     0.059476772
       3004.3371     0.065975419
       3004.9488     0.050336395
       3005.5606     0.060691105
       3006.1724     0.063944419
       3006.7841     0.057379491
       3007.3959     0.075999235
       3008.0077     0.066293998
       3008.6194     0.048868818
       3009.2312     0.062035098
       3009.8430     0.041424245
       3010.4547     0.042852702
       3011.0665     0.079327254
       3011.6783     0.092176993
       3012.2900     0.075259988
       3012.9018     0.059453481
       3013.5135     0.043723243
       3014.1253     0.051585613
       3014.7371     0.052070546
       3015.3488     0.065560968
       3015.9606     0.060317086
       3016.5724     0.061194576
       3017.1841     0.052495539
       3017.7959     0.048854145
       3018.4077     0.066569721
       3019.0194     0.057848480
       3019.6312     0.071628336
       3020.2430     0.049503289
       3020.8547     0.073820199
       3021.4665     0.080705203
       3022.0783     0.068856172
       3022.6900     0.075172514
       3023.3018     0.086826675
       3023.9136     0.077429395
       3024.5253     0.081399068
       3025.1371     0.045330810
       3025.7488     0.075258705
       3026.3606     0.060467133
       3026.9724     0.063853142
       3027.5841     0.063785030
       3028.1959     0.082557219
       3028.8077     0.078432733
       3029.4194     0.086517785
       3030.0312     0.056670345
       3030.6430     0.051292781
       3031.2547     0.053943958
       3031.8665     0.052542894
       3032.4783     0.067190611
       3033.0900     0.056802096
       3033.7018     0.045339246
       3034.3136     0.042199333
       3034.9253     0.064859314
       3035.5371     0.048990695
       3036.1489     0.058928144
       3036.7606     0.047333064
       3037.3724     0.017704997
       3037.9841     0.043417097
       3038.5959     0.053444828
       3039.2077     0.068393032
       3039.8194     0.085004275
       3040.4312     0.055212915
       3041.0430     0.044584630
       3041.6547     0.052509146
       3042.2665     0.067554275
       3042.8783     0.058860219
       3043.4900     0.031976728
       3044.1018     0.062382787
       3044.7136     0.075650789
       3045.3253     0.063755677
       3045.9371     0.047755579
       3046.5489     0.034419176
       3047.1606     0.041660457
       3047.7724     0.065531462
       3048.3842     0.057130024
       3048.9959     0.055268285
       3049.6077     0.042663693
       3050.2194     0.052274501
       3050.8312     0.060946782
       3051.4430     0.060492622
       3052.0547     0.032863523
       3052.6665     0.038612034
       3053.2783     0.057047358
       3053.8900     0.059385440
       3054.5018     0.051722136
       3055.1136     0.040462739
       3055.7253     0.061531797
       3056.3371     0.072027992
       3056.9489     0.061040032
       3057.5606     0.046155373
       3058.1724     0.065253719
       3058.7842     0.064290766
       3059.3959     0.050778235
       3060.0077     0.058616004
       3060.6195     0.050828552
       3061.2312     0.060185847
       3061.8430     0.055792325
       3062.4547     0.041911134
       3063.0665     0.058571579
       3063.6783     0.083166644
       3064.2900     0.058605688
       3064.9018     0.057845155
       3065.5136     0.068737268
       3066.1253     0.061175898
       3066.7371     0.045741446
       3067.3489     0.052221244
       3067.9606     0.065624121
       3068.5724     0.056786188
       3069.1842     0.046351859
       3069.7959     0.041408248
       3070.4077     0.047192128
       3071.0195     0.059105057
       3071.6312     0.067600822
       3072.2430     0.052561889
       3072.8548     0.060286656
       3073.4665     0.062017190
       3074.0783     0.053676456
       3074.6901     0.058327099
       3075.3018     0.047558715
       3075.9136     0.045998974
       3076.5253     0.073390900
       3077.1371     0.068375560
       3077.7489     0.063881668
       3078.3606     0.075562397
       3078.9724     0.071713865
       3079.5842     0.084177062
       3080.1959     0.068821886
       3080.8077     0.041812078
       3081.4195     0.057321095
       3082.0312     0.054802832
       3082.6430     0.065098467
       3083.2548     0.062802896
       3083.8665     0.065318802
       3084.4783     0.065790181
       3085.0901     0.081361997
       3085.7018     0.061518120
       3086.3136     0.079881236
       3086.9254     0.063946227
       3087.5371     0.067305322
       3088.1489     0.064046755
       3088.7606     0.066314846
       3089.3724     0.055191580
       3089.9842     0.074237317
       3090.5959     0.069202954
       3091.2077     0.065197911
       3091.8195     0.087793770
       3092.4312     0.066089503
       3093.0430     0.070987047
       3093.6548     0.099092104
       3094.2665     0.077403417
       3094.8783     0.075649330
       3095.4901     0.057203009
       3096.1018     0.058639027
       3096.7136     0.080560807
       3097.3254     0.069098856
       3097.9371     0.078858546
       3098.5489     0.051843690
       3099.1607     0.026175488
       3099.7724     0.050117199
       3100.3842     0.066310733
       3100.9959     0.067850098
       3101.6077     0.076252012
       3102.2195     0.051705730
       3102.8312     0.067659381
       3103.4430     0.048330598
       3104.0548     0.069621036
       3104.6665     0.046393968
       3105.2783     0.041362186
       3105.8901     0.068667688
       3106.5018     0.058218961
       3107.1136     0.066228128
       3107.7254     0.062725428
       3108.3371     0.077710160
       3108.9489     0.058260345
       3109.5607     0.044802967
       3110.1724     0.064180577
       3110.7842     0.077596691
       3111.3960     0.074987947
       3112.0077     0.073199903
       3112.6195     0.068327470
       3113.2312     0.063872956
       3113.8430     0.072439454
       3114.4548     0.048599099
       3115.0665     0.049742264
       3115.6783     0.088263503
       3116.2901     0.053596160
       3116.9018     0.032082446
       3117.5136     0.049178802
       3118.1254     0.070691865
       3118.7371     0.072642082
       3119.3489     0.082140146
       3119.9607     0.055174442
       3120.5724     0.042689092
       3121.1842     0.064696820
       3121.7960     0.050943077
       3122.4077     0.025182386
       3123.0195     0.063224495
       3123.6313     0.041365237
       3124.2430     0.043166701
       3124.8548     0.051857900
       3125.4665     0.046715529
       3126.0783     0.056205903
       3126.6901     0.050860765
       3127.3018     0.037573490
       3127.9136     0.048441395
       3128.5254     0.024263252
       3129.1371     0.026517374
       3129.7489     0.041596659
       3130.3607     0.052867842
       3130.9724     0.053857493
       3131.5842     0.055119067
       3132.1960     0.063569024
       3132.8077     0.075254545
       3133.4195     0.074628769
       3134.0313     0.058126098
       3134.6430     0.078516266
       3135.2548     0.056691667
       3135.8666     0.038892753
       3136.4783     0.066186391
       3137.0901     0.050416375
       3137.7018     0.056764735
       3138.3136     0.075633839
       3138.9254     0.068148979
       3139.5371     0.053939293
       3140.1489     0.054765705
       3140.7607     0.070183768
       3141.3724     0.087819580
       3141.9842     0.064224026
       3142.5960     0.076252194
       3143.2077     0.045493530
       3143.8195     0.061459321
       3144.4313     0.059235084
       3145.0430     0.065077547
       3145.6548     0.058769438
       3146.2666     0.068542226
       3146.8783     0.070194361
       3147.4901     0.072871228
       3148.1019     0.086768893
       3148.7136     0.075488243
       3149.3254     0.066145050
       3149.9371     0.070450932
       3150.5489     0.063263179
       3151.1607     0.090713635
       3151.7724     0.073629159
       3152.3842     0.078761137
       3152.9960     0.068799707
       3153.6077     0.072935097
       3154.2195     0.052402779
       3154.8313     0.067339578
       3155.4430     0.083076212
       3156.0548     0.063869703
       3156.6666     0.065141746
       3157.2783     0.035894263
       3157.8901     0.061487452
       3158.5019     0.062979074
       3159.1136     0.059973541
       3159.7254     0.030468703
       3160.3372     0.043152458
       3160.9489     0.062150753
       3161.5607     0.027937515
       3162.1725     0.053158155
       3162.7842     0.046195038
       3163.3960     0.033276584
       3164.0077     0.032699552
       3164.6195     0.040489062
       3165.2313     0.057179225
       3165.8430     0.059762042
       3166.4548     0.064534947
       3167.0666     0.064400970
       3167.6783     0.010941405
       3168.2901     0.040038402
       3168.9019     0.021989083
       3169.5136     0.045558478
       3170.1254     0.053170832
       3170.7372     0.046223735
       3171.3489     0.038930431
       3305.6187      0.41009787
       3306.3041      0.29883436
       3306.9895      0.37846270
       3307.6749      0.24103562
       3308.3603      0.41034124
       3309.0456      0.32066194
       3309.7310      0.28550533
       3310.4164      0.26533278
       3311.1018      0.35187630
       3311.7872      0.34441646
       3312.4726      0.39876266
       3313.1580      0.23462818
       3313.8434      0.33871641
       3314.5287      0.42116157
       3315.2141      0.26354379
       3315.8995      0.38831577
       3316.5849      0.29840582
       3317.2703      0.38354916
       3317.9557      0.31378302
       3318.6411      0.35714521
       3319.3265      0.39074228
       3320.0119      0.35553865
       3320.6972      0.36838644
       3321.3826      0.25186625
       3322.0680      0.28240300
       3322.7534      0.12431702
       3323.4388      0.29640547
       3324.1242      0.27023399
       3324.8096      0.23036006
       3325.4950      0.18522523
       3326.1803      0.26793541
       3326.8657      0.22019914
       3327.5511      0.35970934
       3328.2365      0.27230703
       3328.9219      0.27060748
       3329.6073      0.35774827
       3330.2927      0.32520076
       3330.9781      0.26964951
       3331.6635      0.24671556
       3332.3488      0.35517171
       3333.0342      0.20951919
       3333.7196      0.29698610
       3334.4050      0.33523480
       3335.0904      0.17827778
       3335.7758      0.17640335
       3336.4612      0.17545844
       3337.1466      0.16837831
       3337.8319      0.25734784
       3338.5173      0.21228072
       3339.2027      0.23671965
       3339.8881      0.21256843
       3340.5735      0.28534998
       3341.2589      0.40756975
       3341.9443      0.30758089
       3342.6297      0.13587542
       3343.3150      0.31741816
       3344.0004      0.41987943
       3344.6858      0.26772963
       3345.3712      0.17047640
       3346.0566      0.31740314
       3346.7420      0.33909050
       3347.4274      0.14599698
       3348.1128      0.14740966
       3348.7982      0.12095960
       3349.4835     0.086616947
       3350.1689      0.22644874
       3350.8543      0.34497554
       3351.5397      0.36322057
       3352.2251      0.13900892
       3352.9105      0.15499891
       3353.5959      0.15139455
       3354.2813      0.30856796
       3354.9666      0.34827280
       3355.6520      0.19795053
       3356.3374     0.099202916
       3357.0228      0.11969652
       3357.7082      0.23054735
       3358.3936      0.28897141
       3359.0790      0.11049016
       3359.7644      0.12515384
       3360.4498      0.21671260
       3361.1351      0.38154730
       3361.8205      0.28061559
       3362.5059      0.16835404
       3363.1913      0.32842293
       3363.8767      0.35536647
       3364.5621      0.39454294
       3365.2475      0.28448074
       3365.9329      0.30000801
       3366.6182      0.23389756
       3367.3036      0.30225285
       3367.9890      0.30752860
       3368.6744      0.28799286
       3369.3598      0.29743336
       3370.0452      0.28398925
       3370.7306      0.31275175
       3371.4160      0.27396023
       3372.1013      0.24404892
       3372.7867      0.25098884
       3373.4721      0.16738893
       3374.1575      0.26788903
       3374.8429      0.42454607
       3375.5283      0.28827711
       3376.2137      0.22859602
       3376.8991     0.098574600
       3377.5845      0.14835289
       3378.2698      0.20612087
       3378.9552      0.18565100
       3379.6406      0.21458092
       3380.3260      0.22921771
       3381.0114      0.29769052
       3381.6968      0.31773474
       3382.3822      0.24083232
       3383.0676      0.17719984
       3383.7529      0.26688747
       3384.4383      0.32625539
       3385.1237      0.15297134
       3385.8091      0.31100649
       3386.4945      0.27908785
       3387.1799      0.35845759
       3387.8653      0.28118775
       3388.5507      0.22901998
       3389.2361      0.30273898
       3389.9214      0.35753307
       3390.6068      0.32441326
       3391.2922      0.28720705
       3391.9776      0.35657863
       3392.6630      0.23970520
       3393.3484      0.35459297
       3394.0338      0.26172404
       3394.7192      0.27020082
       3395.4045      0.26403201
       3396.0899      0.28832480
       3396.7753      0.21628406
       3397.4607      0.28559656
       3398.1461      0.28933840
       3398.8315      0.18557708
       3399.5169      0.16626310
       3400.2023     0.067922341
       3400.8877      0.21311221
       3401.5730      0.29448838
       3402.2584      0.30454039
       3402.9438      0.26094457
       3403.6292      0.22415540
       3404.3146      0.19428718
       3405.0000      0.17177581
       3405.6854      0.21742350
       3406.3708      0.20630877
       3407.0561      0.29445872
       3407.7415      0.27716047
       3408.4269      0.20328124
       3409.1123      0.10654162
       3409.7977      0.20347317
       3410.4831      0.22531985
       3411.1685      0.15798132
       3411.8539      0.25394533
       3412.5392      0.25794819
       3413.2246      0.25840496
       3413.9100      0.38406397
       3414.5954      0.31854459
       3415.2808      0.28623880
       3415.9662      0.27037533
       3416.6516      0.26535438
       3417.3370      0.37099365
       3418.0224      0.32264834
       3418.7077      0.26524140
       3419.3931      0.31904799
       3420.0785      0.21770224
       3420.7639      0.28466584
       3421.4493      0.27348654
       3422.1347      0.30984151
       3422.8201      0.30371056
       3423.5055      0.28047520
       3424.1908      0.27278207
       3424.8762      0.19917352
       3425.5616      0.17987611
       3426.2470      0.25588360
       3426.9324      0.28384094
       3427.6178      0.34346007
       3428.3032      0.22545673
       3428.9886      0.25458849
       3429.6740      0.28325517
       3430.3593      0.26429541
       3431.0447      0.20892193
       3431.7301      0.34505343
       3432.4155      0.21050296
       3433.1009      0.20763054
       3433.7863      0.17883950
       3434.4717      0.27868058
       3435.1571      0.23913327
       3435.8424      0.25218186
       3436.5278      0.25282674
       3437.2132      0.27438060
       3437.8986      0.21669377
       3438.5840      0.21674111
       3439.2694      0.15462548
       3439.9548      0.17007812
       3440.6402      0.24827751
       3441.3255      0.37035123
       3442.0109      0.30841415
       3442.6963      0.28840811
       3443.3817      0.24355072
       3444.0671      0.29407234
       3444.7525      0.24462746
       3445.4379      0.26885578
       3446.1233      0.21998806
       3446.8087      0.26922342
       3447.4940      0.31804434
       3448.1794      0.28419032
       3448.8648      0.33049925
       3449.5502      0.23512053
       3450.2356      0.24378394
       3450.9210      0.27155306
       3451.6064      0.29465013
       3452.2918      0.30924961
       3452.9771      0.27071849
       3453.6625      0.25355686
       3454.3479      0.20718170
       3455.0333      0.23637342
       3455.7187      0.22533204
       3456.4041      0.23309704
       3457.0895      0.22485977
       3457.7749      0.18854690
       3458.4603      0.22667257
       3459.1456      0.24804964
       3459.8310      0.21687865
       3460.5164      0.20529601
       3461.2018      0.29337308
       3461.8872      0.26262843
       3462.5726      0.24886825
       3463.2580      0.27183968
       3463.9434      0.22027285
       3464.6287      0.19217908
       3465.3141      0.20591002
       3465.9995      0.17610218
       3466.6849      0.24029682
       3467.3703      0.14248871
       3468.0557      0.19732589
       3468.7411      0.21936669
       3469.4265      0.24140280
       3470.1118      0.15757955
       3470.7972      0.18944124
       3471.4826      0.20719416
       3472.1680      0.21130577
       3472.8534      0.18546716
       3473.5388      0.18816987
       3474.2242      0.22954119
       3474.9096      0.23524070
       3475.5950      0.18550124
       3476.2803      0.23939239
       3476.9657      0.25990604
       3477.6511      0.27301998
       3478.3365      0.21398067
       3479.0219      0.26027404
       3479.7073      0.29177783
       3480.3927      0.27276509
       3481.0781      0.22276387
       3481.7634      0.25302482
       3482.4488      0.17278974
       3483.1342      0.27734611
       3483.8196      0.27357235
       3484.5050      0.21614142
       3485.1904      0.25315941
       3485.8758      0.30119438
       3486.5612      0.31650742
       3487.2466      0.24248431
       3487.9319      0.21925004
       3488.6173      0.30235166
       3489.3027      0.34531761
       3489.9881      0.23963287
       3490.6735      0.23578066
       3491.3589      0.28536012
       3492.0443      0.26284012
       3492.7297      0.24102203
       3493.4150      0.27310686
       3494.1004      0.24800523
       3494.7858      0.23222427
       3495.4712      0.19807787
       3496.1566      0.24149519
       3496.8420      0.31935707
       3497.5274      0.32394075
       3498.2128      0.35543965
       3498.8982      0.32200162
       3499.5835      0.30894084
       3500.2689      0.26711929
       3500.9543      0.29440355
       3501.6397      0.26691781
       3502.3251      0.22353204
       3503.0105      0.22516077
       3503.6959      0.28372774
       3504.3813      0.24672925
       3505.0666      0.27970157
       3505.7520      0.28875114
       3506.4374      0.34030494
       3507.1228      0.28199755
       3507.8082      0.39003702
       3508.4936      0.34906827
       3509.1790      0.33981063
       3509.8644      0.35091195
       3510.5497      0.31802384
       3511.2351      0.32804768
       3511.9205      0.37069007
       3512.6059      0.19039395
       3513.2913      0.28898694
       3513.9767      0.36697451
       3514.6621      0.31847226
       3515.3475      0.35226411
       3516.0329      0.40849655
       3516.7182      0.36298311
       3517.4036      0.35586301
       3518.0890      0.21456996
       3518.7744      0.16975995
       3519.4598      0.21731415
       3520.1452      0.35829190
       3520.8306      0.27837003
       3521.5160      0.29702113
       3522.2013      0.31534038
       3522.8867      0.29867491
       3523.5721      0.23226967
       3524.2575      0.25083953
       3524.9429      0.37247031
       3525.6283      0.38279566
       3526.3137      0.28031030
       3526.9991      0.29474126
       3527.6845      0.30556212
       3528.3698      0.28072686
       3529.0552      0.19815825
       3529.7406      0.12128833
       3530.4260      0.22289020
       3531.1114      0.25057391
       3531.7968      0.25969083
       3532.4822      0.24277699
       3533.1676      0.24201045
       3533.8529      0.23399730
       3534.5383      0.29559542
       3535.2237      0.32780034
       3535.9091      0.35762046
       3536.5945      0.36052942
       3537.2799      0.27511028
       3537.9653      0.32625456
       3538.6507      0.24964643
       3539.3360      0.37675712
       3540.0214      0.36478837
       3540.7068      0.33698810
       3541.3922      0.22331820
       3542.0776      0.22199034
       3542.7630      0.26749275
       3543.4484      0.18021099
       3544.1338      0.20120954
       3544.8192      0.15724498
       3545.5045      0.28475888
       3546.1899      0.30193961
       3546.8753      0.28344336
       3547.5607      0.36851406
       3548.2461      0.39108955
       3548.9315      0.39491050
       3549.6169      0.36101169
       3550.3023      0.20422778
       3550.9876      0.17084421
       3551.6730      0.20499385
       3552.3584      0.22549382
       3553.0438      0.21575419
       3553.7292      0.24591827
       3554.4146      0.32256132
       3555.1000      0.24004277
       3555.7854      0.30174591
       3556.4708      0.41070772
       3557.1561      0.47323704
       3557.8415      0.37339846
       3558.5269      0.27220568
       3559.2123      0.34060023
       3559.8977      0.29319540
       3560.5831      0.25402782
       3561.2685      0.29699121
       3561.9539      0.34673093
       3562.6392      0.34715762
       3563.3246      0.24886688
       3564.0100      0.19045775
       3564.6954      0.29223332
       3565.3808      0.27292086
       3566.0662      0.23520606
       3566.7516      0.22905788
       3567.4370      0.26101541
       3568.1223      0.32299195
       3568.8077      0.30806014
       3569.4931      0.32336489
       3570.1785      0.32323319
       3570.8639      0.29314023
       3571.5493      0.24789858
       3572.2347      0.26944254
       3572.9201      0.30932939
       3573.6055      0.29693158
       3574.2908      0.37581159
       3574.9762      0.32137132
       3575.6616      0.21924915
       3576.3470      0.23440320
       3577.0324      0.27121866
       3577.7178      0.21444186
       3578.4032      0.23543524
       3579.0886      0.24935977
       3579.7739      0.25109346
       3580.4593      0.16822854
       3581.1447      0.22169393
       3581.8301      0.26908912
       3582.5155      0.23260565
       3583.2009      0.11261047
       3583.8863      0.21487159
       3584.5717      0.18406932
       3585.2571      0.23835553
       3585.9424      0.27598830
       3586.6278      0.21671650
       3587.3132      0.19946281
       3587.9986      0.25151959
       3588.6840      0.22519290
       3589.3694     0.044001567
       3590.0548     -0.15874966
       3590.7402      0.16968488
       3591.4255     0.014069119
       3592.1109     0.015687621
       3592.7963      0.35873730
       3593.4817      0.31210545
       3594.1671      0.28916804
       3594.8525      0.61476176
       3595.5379      0.40881427
       3596.2233      0.42823271
       3596.9087      0.34583467
       3597.5940      0.30769949
       3598.2794      0.35336995
       3598.9648      0.39738866
       3599.6502      0.40069458
       3600.3356      0.38612511
       3601.0210      0.41584724
       3601.7064      0.32356939
       3602.3918      0.28703209
       3603.0771      0.31203232
       3603.7625      0.30065676
       3604.4479      0.33195909
       3605.1333      0.38549402
       3605.8187      0.31281747
       3606.5041      0.33307437
       3607.1895      0.33861968
       3607.8749      0.32402036
       3608.5602      0.28983004
       3609.2456      0.11856314
       3609.9310      0.16237534
       3610.6164      0.16511379
       3611.3018      0.13946029
       3611.9872      0.21653367
       3612.6726      0.25902678
       3613.3580      0.26439302
       3614.0434      0.28077310
       3614.7287      0.32064939
       3615.4141      0.29069711
       3616.0995      0.19153379
       3616.7849      0.25434530
       3617.4703      0.27252366
       3618.1557      0.20956768
       3618.8411      0.17876584
       3619.5265      0.21044697
       3620.2118      0.17936941
       3620.8972      0.28246665
       3621.5826      0.30037925
       3622.2680      0.28980571
       3622.9534      0.31907698
       3623.6388      0.30547983
       3624.3242      0.33544875
       3625.0096      0.38721249
       3625.6950      0.33031092
       3626.3803      0.22874500
       3627.0657      0.14765768
       3627.7511      0.23679706
       3628.4365      0.13800676
       3629.1219      0.22717057
       3629.8073      0.52338167
       3630.4927      0.42300723
       3631.1781      0.37730388
       3631.8634      0.46219330
       3632.5488      0.38108090
       3633.2342      0.41364446
       3633.9196      0.24611848
       3634.6050      0.20599697
       3635.2904      0.28929407
       3635.9758      0.25356020
       3636.6612      0.21669823
       3637.3465      0.30510605
       3638.0319      0.29328801
       3638.7173      0.32097827
       3639.4027      0.31676455
       3640.0881      0.22221238
       3640.7735      0.16598266
       3641.4589      0.22207584
       3642.1443      0.24815997
       3642.8297      0.28117204
       3643.5150      0.23705121
       3644.2004      0.22502505
       3644.8858      0.27399688
       3645.5712      0.29892314
       3646.2566      0.32865796
       3646.9420      0.30274935
       3647.6274      0.30941839
       3648.3128      0.29550338
       3648.9981      0.25600796
       3649.6835      0.28904620
       3650.3689      0.30742774
       3651.0543      0.30279467
       3651.7397      0.29422680
       3652.4251      0.29412923
       3653.1105      0.30030616
       3653.7959      0.27472957
       3654.4813      0.25417443
       3655.1666      0.27568825
       3655.8520      0.27697325
       3656.5374      0.27058847
       3657.2228      0.28886401
       3657.9082      0.28331255
       3658.5936      0.34841900
       3659.2790      0.22801666
       3659.9644      0.27127360
       3660.6497      0.29184206
       3661.3351      0.33542256
       3662.0205      0.30759737
       3662.7059      0.30167810
       3663.3913      0.30759785
       3664.0767      0.31392130
       3664.7621      0.31336971
       3665.4475      0.29466020
       3666.1328      0.24174043
       3666.8182      0.24709423
       3667.5036      0.26168497
       3668.1890      0.29424636
       3668.8744      0.20141465
       3669.5598      0.25589539
       3670.2452      0.23177887
       3670.9306      0.21645263
       3671.6160      0.24327080
       3672.3013      0.26314600
       3672.9867      0.27630343
       3673.6721      0.26037035
       3674.3575      0.25224409
       3675.0429      0.25240717
       3675.7283      0.23718261
       3676.4137      0.22435383
       3677.0991      0.21761786
       3677.7844      0.22680535
       3678.4698      0.25470287
       3679.1552      0.27897205
       3679.8406      0.33636706
       3680.5260      0.26208919
       3681.2114      0.23421800
       3681.8968      0.23547107
       3682.5822      0.21661603
       3683.2676      0.17482104
       3683.9529      0.18036942
       3684.6383      0.29587267
       3685.3237      0.32256785
       3686.0091      0.24172973
       3686.6945      0.30429695
       3687.3799      0.26780821
       3688.0653      0.19072573
       3688.7507      0.21973658
       3689.4360      0.19638966
       3690.1214      0.18146966
       3690.8068      0.20317344
       3691.4922      0.23080887
       3692.1776      0.21371489
       3692.8630      0.19472415
       3693.5484      0.22890962
       3694.2338      0.19781168
       3694.9191      0.33962411
       3695.6045      0.26303917
       3696.2899      0.24142877
       3696.9753      0.23384898
       3697.6607      0.17140131
       3698.3461      0.19382711
       3699.0315      0.23817264
       3699.7169      0.15740111
       3700.4023      0.17472488
       3701.0876      0.28737116
       3701.7730      0.32948476
       3702.4584      0.30611751
       3703.1438      0.27482806
       3703.8292      0.27222085
       3704.5146      0.27978488
       3705.2000      0.26831043
       3705.8854      0.29344261
       3706.5707      0.26342965
       3707.2561      0.25378144
       3707.9415      0.21163587
       3708.6269      0.19244749
       3709.3123      0.27997117
       3709.9977      0.29940661
       3710.6831      0.33058161
       3711.3685      0.33628227
       3712.0539      0.31958292
       3712.7392      0.28266750
       3713.4246      0.29546937
       3714.1100      0.32918205
       3714.7954      0.26219028
       3715.4808      0.27370008
       3716.1662      0.26291715
       3716.8516      0.22816131
       3717.5370      0.27931221
       3718.2223      0.32117343
       3718.9077      0.29261398
       3719.5931      0.31371451
       3720.2785      0.28417237
       3720.9639      0.21647162
       3721.6493      0.18025521
       3722.3347      0.28556252
       3723.0201      0.43391152
       3723.7055      0.63962146
       3724.3908      0.83982423
       3725.0762       1.1678109
       3725.7616       1.3528157
       3726.4470       1.6137233
       3727.1324       1.8461833
       3727.8178       1.9115993
       3728.5032       1.8317521
       3729.1886       1.7665495
       3729.8739       1.5935044
       3730.5593       1.2475192
       3731.2447      0.94337003
       3731.9301      0.59863428
       3732.6155      0.33801358
       3733.3009      0.34630816
       3733.9863      0.27558674
       3734.6717      0.17790193
       3735.3570      0.18393382
       3736.0424      0.28444134
       3736.7278      0.23103165
       3737.4132      0.12271682
       3738.0986      0.18256407
       3738.7840      0.16413485
       3739.4694      0.25867083
       3740.1548      0.27238455
       3740.8402      0.24783509
       3741.5255      0.23459780
       3742.2109      0.28486115
       3742.8963      0.36900746
       3743.5817      0.35152614
       3744.2671      0.29853810
       3744.9525      0.26664777
       3745.6379      0.27882268
       3746.3233      0.26010388
       3747.0086      0.28340610
       3747.6940      0.22512351
       3748.3794      0.27298741
       3749.0648      0.29853618
       3749.7502      0.30808433
       3750.4356      0.27587443
       3751.1210      0.22381113
       3751.8064      0.16036160
       3752.4918      0.16994596
       3753.1771      0.18781309
       3753.8625      0.28581658
       3754.5479      0.31321795
       3755.2333      0.23798333
       3755.9187      0.24852020
       3756.6041      0.25249334
       3757.2895      0.35120746
       3757.9749      0.39662193
       3758.6602      0.25064586
       3759.3456      0.27325227
       3760.0310      0.34148588
       3760.7164      0.30030676
       3761.4018      0.24875808
       3762.0872      0.24803488
       3762.7726      0.32128437
       3763.4580      0.35998059
       3764.1433      0.38184990
       3764.8287      0.35199788
       3765.5141      0.31267733
       3766.1995      0.34452688
       3766.8849      0.35362603
       3767.5703      0.27020046
       3768.2557      0.23880547
       3768.9411      0.20023078
       3769.6265      0.16485948
       3770.3118      0.24308504
       3770.9972      0.18532496
       3771.6826      0.21733510
       3772.3680      0.27175855
       3773.0534      0.31016413
       3773.7388      0.30636523
       3774.4242      0.18726041
       3775.1096      0.23442627
       3775.7949      0.31269937
       3776.4803      0.31062419
       3777.1657      0.35337855
       3777.8511      0.32636304
       3778.5365      0.37615652
       3779.2219      0.33342570
       3779.9073      0.31936290
       3780.5927      0.35498816
       3781.2781      0.39437282
       3781.9634      0.32886106
       3782.6488      0.34892156
       3783.3342      0.40718922
       3784.0196      0.40513272
       3784.7050      0.38050710
       3785.3904      0.43844786
       3786.0758      0.39071262
       3786.7612      0.43253364
       3787.4465      0.53522199
       3788.1319      0.45392192
       3788.8173      0.40026209
       3789.5027      0.37243698
       3790.1881      0.37318491
       3790.8735      0.37448378
       3791.5589      0.38116171
       3792.2443      0.44488476
       3792.9296      0.36875029
       3793.6150      0.32250009
       3794.3004      0.30669061
       3794.9858      0.35306199
       3795.6712      0.30584810
       3796.3566      0.28104732
       3797.0420      0.18195092
       3797.7274      0.21045840
       3798.4128      0.26392504
       3799.0981      0.29617434
       3799.7835      0.32886522
       3800.4689      0.28443387
       3801.1543      0.24188397
       3801.8397      0.27705122
       3802.5251      0.29324169
       3803.2105      0.31328000
       3803.8959      0.34297478
       3804.5812      0.39578846
       3805.2666      0.35447121
       3805.9520      0.33251811
       3806.6374      0.36939162
       3807.3228      0.38601716
       3808.0082      0.36618317
       3808.6936      0.40679215
       3809.3790      0.39688635
       3810.0644      0.37847354
       3810.7497      0.38033818
       3811.4351      0.44722934
       3812.1205      0.51090141
       3812.8059      0.49218261
       3813.4913      0.40000597
       3814.1767      0.37434958
       3814.8621      0.34394140
       3815.5475      0.39342199
       3816.2328      0.44343493
       3816.9182      0.40678161
       3817.6036      0.37142924
       3818.2890      0.37332408
       3818.9744      0.44208205
       3819.6598      0.43166854
       3820.3452      0.46583212
       3821.0306      0.46648012
       3821.7160      0.37991154
       3822.4013      0.35639984
       3823.0867      0.32587152
       3823.7721      0.35222484
       3824.4575      0.33941080
       3825.1429      0.35251903
       3825.8283      0.40158319
       3826.5137      0.33348472
       3827.1991      0.37114282
       3827.8844      0.35028852
       3828.5698      0.31914795
       3829.2552      0.33251522
       3829.9406      0.28751518
       3830.6260      0.32964777
       3831.3114      0.34211198
       3831.9968      0.38050568
       3832.6822      0.33730676
       3833.3675      0.33100683
       3834.0529      0.21305085
       3834.7383      0.16409009
       3835.4237      0.21835368
       3836.1091      0.25171567
       3836.7945      0.22671659
       3837.4799      0.20849696
       3838.1653      0.27502582
       3838.8507      0.31911075
       3839.5360      0.22101203
       3840.2214      0.20597988
       3840.9068      0.24712427
       3841.5922      0.21841770
       3842.2776      0.23344494
       3842.9630      0.24912888
       3843.6484      0.29907429
       3844.3338      0.28979703
       3845.0191      0.22529148
       3845.7045      0.36617220
       3846.3899      0.36827906
       3847.0753      0.34351279
       3847.7607      0.41909619
       3848.4461      0.38118018
       3849.1315      0.37206673
       3849.8169      0.40065145
       3850.5023      0.35193000
       3851.1876      0.28947200
       3851.8730      0.31847050
       3852.5584      0.36484881
       3853.2438      0.41208565
       3853.9292      0.39046475
       3854.6146      0.35934912
       3855.3000      0.36289591
       3855.9854      0.37335739
       3856.6707      0.41158520
       3857.3561      0.46147427
       3858.0415      0.39788780
       3858.7269      0.37620070
       3859.4123      0.37962471
       3860.0977      0.35002786
       3860.7831      0.35094477
       3861.4685      0.43474031
       3862.1538      0.43504550
       3862.8392      0.44327319
       3863.5246      0.43677764
       3864.2100      0.38421370
       3864.8954      0.40848727
       3865.5808      0.38875016
       3866.2662      0.46784847
       3866.9516      0.51101639
       3867.6370      0.46249214
       3868.3223      0.45106253
       3869.0077      0.44351874
       3869.6931      0.44981856
       3870.3785      0.48863212
       3871.0639      0.45795429
       3871.7493      0.49436562
       3872.4347      0.53373788
       3873.1201      0.51369331
       3873.8054      0.49209906
       3874.4908      0.47293160
       3875.1762      0.47261383
       3875.8616      0.41702133
       3876.5470      0.41130139
       3877.2324      0.42030788
       3877.9178      0.45413395
       3878.6032      0.40814427
       3879.2886      0.40785455
       3879.9739      0.42093941
       3880.6593      0.39816610
       3881.3447      0.43566961
       3882.0301      0.47443300
       3882.7155      0.50003916
       3883.4009      0.44588361
       3884.0863      0.39235745
       3884.7717      0.41308894
       3885.4570      0.45625617
       3886.1424      0.34812204
       3886.8278      0.32309509
       3887.5132      0.34466155
       3888.1986      0.34273015
       3888.8840      0.25380018
       3889.5694      0.34326466
       3890.2548      0.36501048
       3890.9401      0.27980530
       3891.6255      0.34297830
       3892.3109      0.37397506
       3892.9963      0.39541861
       3893.6817      0.35669353
       3894.3671      0.33386792
       3895.0525      0.31283824
       3895.7379      0.26778183
       3896.4233      0.23401919
       3897.1086      0.24685954
       3897.7940      0.30476897
       3898.4794      0.32254337
       3899.1648      0.26540112
       3899.8502      0.32608929
       3900.5356      0.45829926
       3901.2210      0.31764434
       3901.9064      0.28061763
       3902.5917      0.23274235
       3903.2771      0.30442579
       3903.9625      0.48042070
       3904.6479      0.36320130
       3905.3333      0.28839578
       3906.0187      0.35109568
       3906.7041      0.28756673
       3907.3895      0.29487276
       3908.0749      0.32339853
       3908.7602      0.34092942
       3909.4456      0.49789520
       3910.1310      0.47238846
       3910.8164      0.48562529
       3911.5018      0.41226525
       3912.1872      0.39175762
       3912.8726      0.49271346
       3913.5580      0.45847156
       3914.2433      0.45266600
       3914.9287      0.48567040
       3915.6141      0.50782167
       3916.2995      0.44804193
       3916.9849      0.39400030
       3917.6703      0.33157841
       3918.3557      0.33536377
       3919.0411      0.50531832
       3919.7265      0.44424210
       3920.4118      0.36467044
       3921.0972      0.38758536
       3921.7826      0.24372687
       3922.4680      0.29029516
       3923.1534      0.27811550
       3923.8388      0.33872329
       3924.5242      0.36826823
       3925.2096      0.27588469
       3925.8949      0.29846247
       3926.5803      0.33371392
       3927.2657      0.31570350
       3927.9511      0.37725704
       3928.6365      0.38158943
       3929.3219      0.37052607
       3930.0073      0.34665226
       3930.6927      0.38442624
       3931.3780      0.41320171
       3932.0634      0.35397975
       3932.7488      0.33767340
       3933.4342      0.35065098
       3934.1196      0.38933881
       3934.8050      0.37624074
       3935.4904      0.25520466
       3936.1758      0.22807104
       3936.8612      0.19036680
       3937.5465      0.12851268
       3938.2319      0.27933680
       3938.9173      0.40439258
       3939.6027      0.34103045
       3940.2881      0.35803295
       3940.9735      0.42391428
       3941.6589      0.38601010
       3942.3443      0.40346149
       3943.0296      0.45750322
       3943.7150      0.49510275
       3944.4004      0.51270700
       3945.0858      0.45009805
       3945.7712      0.40973610
       3946.4566      0.31996879
       3947.1420      0.28416541
       3947.8274      0.35064359
       3948.5128      0.39938681
       3949.1981      0.42421632
       3949.8835      0.47016241
       3950.5689      0.46601308
       3951.2543      0.40339484
       3951.9397      0.33665009
       3952.6251      0.33556816
       3953.3105      0.29943719
       3953.9959      0.36048946
       3954.6812      0.36617960
       3955.3666      0.31429779
       3956.0520      0.49713867
       3956.7374      0.50191627
       3957.4228      0.40952689
       3958.1082      0.43716250
       3958.7936      0.41689139
       3959.4790      0.36197977
       3960.1643      0.37039134
       3960.8497      0.36399755
       3961.5351      0.38386126
       3962.2205      0.38198184
       3962.9059      0.38156176
       3963.5913      0.40516648
       3964.2767      0.38430356
       3964.9621      0.36382144
       3965.6475      0.33109479
       3966.3328      0.32762229
       3967.0182      0.35324176
       3967.7036      0.40040875
       3968.3890      0.29158113
       3969.0744      0.31451903
       3969.7598      0.39684069
       3970.4452      0.44703060
       3971.1306      0.42122386
       3971.8159      0.44351186
       3972.5013      0.40732456
       3973.1867      0.38299929
       3973.8721      0.34867495
       3974.5575      0.34783040
       3975.2429      0.37943895
       3975.9283      0.31846624
       3976.6137      0.31748253
       3977.2991      0.31442861
       3977.9844      0.30233732
       3978.6698      0.29588272
       3979.3552      0.29691888
       3980.0406      0.29034182
       3980.7260      0.30102079
       3981.4114      0.34671547
       3982.0968      0.41496837
       3982.7822      0.45285064
       3983.4675      0.45922557
       3984.1529      0.46778613
       3984.8383      0.39405659
       3985.5237      0.34745245
       3986.2091      0.36806417
       3986.8945      0.42543672
       3987.5799      0.43896522
       3988.2653      0.38442970
       3988.9506      0.45204253
       3989.6360      0.45628769
       3990.3214      0.49115140
       3991.0068      0.42212921
       3991.6922      0.47786204
       3992.3776      0.49845522
       3993.0630      0.46241267
       3993.7484      0.40591093
       3994.4338      0.46013307
       3995.1191      0.42644523
       3995.8045      0.47767884
       3996.4899      0.50443705
       3997.1753      0.49573087
       3997.8607      0.52189643
       3998.5461      0.57025389
       3999.2315      0.53571858
       3999.9169      0.50618814
       4000.6022      0.55985975
       4001.2876      0.51303958
       4001.9730      0.53874833
       4002.6584      0.50300409
       4003.3438      0.57551726
       4004.0292      0.55893279
       4004.7146      0.44117817
       4005.4000      0.42324381
       4006.0854      0.43951659
       4006.7707      0.48060057
       4007.4561      0.50502956
       4008.1415      0.49467811
       4008.8269      0.49988333
       4009.5123      0.47669469
       4010.1977      0.41580863
       4010.8831      0.38923679
       4011.5685      0.43000745
       4012.2538      0.46174172
       4012.9392      0.39266116
       4013.6246      0.47313828
       4014.3100      0.54360670
       4014.9954      0.49797476
       4015.6808      0.47245641
       4016.3662      0.50433204
       4017.0516      0.46685403
       4017.7370      0.50260445
       4018.4223      0.57166211
       4019.1077      0.48465975
       4019.7931      0.48835171
       4020.4785      0.54702932
       4021.1639      0.49128345
       4021.8493      0.45397404
       4022.5347      0.42384259
       4023.2201      0.49311585
       4023.9054      0.53911746
       4024.5908      0.48432881
       4025.2762      0.46346574
       4025.9616      0.56090241
       4026.6470      0.49412304
       4027.3324      0.36779921
       4028.0178      0.46883075
       4028.7032      0.49312329
       4029.3885      0.31473222
       4030.0739      0.28784457
       4030.7593      0.45666118
       4031.4447      0.50393258
       4032.1301      0.43795073
       4032.8155      0.47843184
       4033.5009      0.40325843
       4034.1863      0.41772441
       4034.8717      0.44370861
       4035.5570      0.42884791
       4036.2424      0.43960050
       4036.9278      0.47574294
       4037.6132      0.48908660
       4038.2986      0.48611692
       4038.9840      0.44246703
       4039.6694      0.48749800
       4040.3548      0.49575865
       4041.0401      0.48087103
       4041.7255      0.52860787
       4042.4109      0.48608663
       4043.0963      0.48868412
       4043.7817      0.46815225
       4044.4671      0.48604544
       4045.1525      0.49150442
       4045.8379      0.46234725
       4046.5233      0.44741068
       4047.2086      0.48896656
       4047.8940      0.49502603
       4048.5794      0.42972475
       4049.2648      0.47781991
       4049.9502      0.51222893
       4050.6356      0.42489607
       4051.3210      0.45579385
       4052.0064      0.50269073
       4052.6917      0.50713119
       4053.3771      0.52168659
       4054.0625      0.48212219
       4054.7479      0.48366427
       4055.4333      0.46736839
       4056.1187      0.49052844
       4056.8041      0.48263817
       4057.4895      0.45146315
       4058.1748      0.48009376
       4058.8602      0.54713582
       4059.5456      0.51379599
       4060.2310      0.48346002
       4060.9164      0.51209422
       4061.6018      0.50698899
       4062.2872      0.47178205
       4062.9726      0.53689905
       4063.6580      0.47178850
       4064.3433      0.41101799
       4065.0287      0.40507828
       4065.7141      0.43859514
       4066.3995      0.46002937
       4067.0849      0.45968304
       4067.7703      0.41275847
       4068.4557      0.38519708
       4069.1411      0.45484862
       4069.8264      0.37941195
       4070.5118      0.40806287
       4071.1972      0.47869300
       4071.8826      0.46336475
       4072.5680      0.47137840
       4073.2534      0.50564949
       4073.9388      0.54711482
       4074.6242      0.58189416
       4075.3096      0.50096711
       4075.9949      0.38704984
       4076.6803      0.37810171
       4077.3657      0.45024484
       4078.0511      0.51439627
       4078.7365      0.46081216
       4079.4219      0.40609354
       4080.1073      0.44221725
       4080.7927      0.50402889
       4081.4780      0.46973187
       4082.1634      0.47222670
       4082.8488      0.45517103
       4083.5342      0.42720887
       4084.2196      0.32831735
       4084.9050      0.42427508
       4085.5904      0.45082970
       4086.2758      0.43479414
       4086.9611      0.42869906
       4087.6465      0.42834645
       4088.3319      0.54531135
       4089.0173      0.46525254
       4089.7027      0.40668402
       4090.3881      0.38070969
       4091.0735      0.44683226
       4091.7589      0.46330433
       4092.4443      0.37968756
       4093.1296      0.43152608
       4093.8150      0.50035601
       4094.5004      0.43369436
       4095.1858      0.36908585
       4095.8712      0.45830294
       4096.5566      0.46906663
       4097.2420      0.39432198
       4097.9274      0.37553786
       4098.6127      0.43070201
       4099.2981      0.46087259
       4099.9835      0.42811668
       4100.6689      0.44461504
       4101.3543      0.34855881
       4102.0397      0.43873898
       4102.7251      0.33814253
       4103.4105      0.37466250
       4104.0959      0.32830830
       4104.7812      0.33770977
       4105.4666      0.36276078
       4106.1520      0.35710131
       4106.8374      0.37365769
       4107.5228      0.42877123
       4108.2082      0.50016172
       4108.8936      0.48593208
       4109.5790      0.44837597
       4110.2643      0.38112674
       4110.9497      0.37923046
       4111.6351      0.33099009
       4112.3205      0.33690085
       4113.0059      0.30659155
       4113.6913      0.36528298
       4114.3767      0.34050673
       4115.0621      0.39715788
       4115.7474      0.38834096
       4116.4328      0.41867038
       4117.1182      0.37687492
       4117.8036      0.37863398
       4118.4890      0.37067791
       4119.1744      0.36244016
       4119.8598      0.34385963
       4120.5452      0.36030765
       4121.2306      0.40575116
       4121.9159      0.44072314
       4122.6013      0.43991712
       4123.2867      0.45274762
       4123.9721      0.43858045
       4124.6575      0.37642269
       4125.3429      0.39179666
       4126.0283      0.52033134
       4126.7137      0.48360156
       4127.3990      0.36790870
       4128.0844      0.38045477
       4128.7698      0.45261638
       4129.4552      0.35092196
       4130.1406      0.36039426
       4130.8260      0.41031025
       4131.5114      0.51380297
       4132.1968      0.50188842
       4132.8822      0.48130248
       4133.5675      0.56392194
       4134.2529      0.51181478
       4134.9383      0.45830903
       4135.6237      0.34470412
       4136.3091      0.36981182
       4136.9945      0.34144005
       4137.6799      0.57301817
       4138.3653      0.34341207
       4139.0506      0.52959584
       4139.7360      0.46058364
       4140.4214      0.45320602
       4141.1068      0.42847930
       4141.7922      0.71861743
       4142.4776      0.78904757
       4143.1630      0.66513181
       4143.8484      0.57366533
       4144.5338      0.45809244
       4145.2191      0.53237194
       4145.9045      0.52894777
       4146.5899      0.51330963
       4147.2753      0.45314307
       4147.9607      0.53452134
       4148.6461      0.47623974
       4149.3315      0.48024046
       4150.0169      0.56785785
       4150.7022      0.51561613
       4151.3876      0.37839797
       4152.0730      0.41733556
       4152.7584      0.39720162
       4153.4438      0.45292616
       4154.1292      0.48747027
       4154.8146      0.52328124
       4155.5000      0.47293262
       4156.1853      0.50394020
       4156.8707      0.47145224
       4157.5561      0.25118818
       4158.2415      0.32522894
       4158.9269      0.43741738
       4159.6123      0.64541305
       4160.2977      0.42107470
       4160.9831      0.27824832
       4161.6685      0.28062694
       4162.3538      0.45486856
       4163.0392      0.41505316
       4163.7246      0.48918933
       4164.4100      0.45837350
       4165.0954      0.40031299
       4165.7808      0.56400423
       4166.4662      0.58678605
       4167.1516      0.54708022
       4167.8369      0.54934206
       4168.5223      0.58767307
       4169.2077      0.59678958
       4169.8931      0.59562336
       4170.5785      0.54771321
       4171.2639      0.42107238
       4171.9493      0.60522419
       4172.6347      0.56559352
       4173.3201      0.48271204
       4174.0054      0.47913115
       4174.6908      0.48785348
       4175.3762      0.61609546
       4176.0616      0.51322127
       4176.7470      0.44382485
       4177.4324      0.48512319
       4178.1178      0.42956010
       4178.8032      0.49179928
       4179.4885      0.37127174
       4180.1739      0.33532198
       4180.8593      0.42330258
       4181.5447      0.59680420
       4182.2301      0.39203118
       4182.9155      0.35368463
       4183.6009      0.53126313
       4184.2863      0.48857584
       4184.9716      0.61002094
       4185.6570      0.60419617
       4186.3424      0.58709175
       4187.0278      0.51883632
       4187.7132      0.47804981
       4188.3986      0.41851723
       4189.0840      0.39965223
       4189.7694      0.46197567
       4190.4548      0.53769636
       4191.1401      0.50977070
       4191.8255      0.57775081
       4192.5109      0.48976017
       4193.1963      0.53105864
       4193.8817      0.55217890
       4194.5671      0.44694568
       4195.2525      0.45255755
       4195.9379      0.40999504
       4196.6232      0.56371931
       4197.3086      0.43703519
       4197.9940      0.33551758
       4198.6794      0.34173883
       4199.3648      0.63079797
       4200.0502      0.59824651
       4200.7356      0.46067816
       4201.4210      0.57965091
       4202.1064      0.50310303
       4202.7917      0.48690886
       4203.4771      0.44215068
       4204.1625      0.48260873
       4204.8479      0.47109837
       4205.5333      0.50268756
       4206.2187      0.57407533
       4206.9041      0.45319670
       4207.5895      0.51089944
       4208.2748      0.56462088
       4208.9602      0.42572017
       4209.6456      0.41310928
       4210.3310      0.49107038
       4211.0164      0.33758466
       4211.7018      0.40372335
       4212.3872      0.48707780
       4213.0726      0.63602591
       4213.7579      0.49512215
       4214.4433      0.47947886
       4215.1287      0.49384102
       4215.8141      0.49844404
       4216.4995      0.47631471
       4217.1849      0.53390005
       4217.8703      0.42405253
       4218.5557      0.56009436
       4219.2411      0.53059473
       4219.9264      0.46017248
       4220.6118      0.47240612
       4221.2972      0.48310517
       4221.9826      0.46575039
       4222.6680      0.45193020
       4223.3534      0.43627276
       4224.0388      0.47649719
       4224.7242      0.43039612
       4225.4095      0.47177167
       4226.0949      0.41953846
       4226.7803      0.50446837
       4227.4657      0.50017580
       4228.1511      0.36984189
       4228.8365      0.45854570
       4229.5219      0.37858149
       4230.2073      0.38541599
       4230.8927      0.48718723
       4231.5780      0.49544495
       4232.2634      0.30300669
       4232.9488      0.50748551
       4233.6342      0.39442129
       4234.3196      0.45415598
       4235.0050      0.50472732
       4235.6904      0.54035102
       4236.3758      0.58671920
       4237.0611      0.55424104
       4237.7465      0.55169506
       4238.4319      0.51542428
       4239.1173      0.38121352
       4239.8027      0.48139831
       4240.4881      0.57534333
       4241.1735      0.57541000
       4241.8589      0.48691952
       4242.5443      0.53413358
       4243.2296      0.46359064
       4243.9150      0.55973655
       4244.6004      0.53279183
       4245.2858      0.49943850
       4245.9712      0.50792411
       4246.6566      0.50753861
       4247.3420      0.55306506
       4248.0274      0.43915166
       4248.7127      0.52661009
       4249.3981      0.64135399
       4250.0835      0.61007891
       4250.7689      0.51595265
       4251.4543      0.50162161
       4252.1397      0.53622582
       4252.8251      0.47937744
       4253.5105      0.49556099
       4254.1958      0.56289258
       4254.8812      0.54581895
       4255.5666      0.48847611
       4256.2520      0.47445999
       4256.9374      0.53244192
       4257.6228      0.55488404
       4258.3082      0.48310002
       4258.9936      0.52934827
       4259.6790      0.46906479
       4260.3643      0.52309916
       4261.0497      0.47862515
       4261.7351      0.52355736
       4262.4205      0.61956584
       4263.1059      0.50930174
       4263.7913      0.51678256
       4264.4767      0.56402221
       4265.1621      0.48773603
       4265.8474      0.46612501
       4266.5328      0.60457205
       4267.2182      0.59530105
       4267.9036      0.36635769
       4268.5890      0.49611413
       4269.2744      0.54091858
       4269.9598      0.57007524
       4270.6452      0.43205012
       4271.3306      0.55100942
       4272.0159      0.54753259
       4272.7013      0.62666634
       4273.3867      0.64328619
       4274.0721      0.56103314
       4274.7575      0.53091166
       4275.4429      0.57766670
       4276.1283      0.58915267
       4276.8137      0.43764619
       4277.4990      0.56038900
       4278.1844      0.60109883
       4278.8698      0.58977024
       4279.5552      0.37793583
       4280.2406      0.71055314
       4280.9260      0.57469473
       4281.6114      0.50286892
       4282.2968      0.51287996
       4282.9821      0.48082938
       4283.6675      0.51262309
       4284.3529      0.56761601
       4285.0383      0.53280038
       4285.7237      0.58502243
       4286.4091      0.49983786
       4287.0945      0.71881200
       4287.7799      0.61485697
       4288.4653      0.51637997
       4289.1506      0.55792606
       4289.8360      0.42729543
       4290.5214      0.43297778
       4291.2068      0.50293830
       4291.8922      0.62150072
       4292.5776      0.56162011
       4293.2630      0.47151646
       4293.9484      0.45087770
       4294.6337      0.53515471
       4295.3191      0.49595551
       4296.0045      0.54119845
       4296.6899      0.52403331
       4297.3753      0.35667645
       4298.0607      0.46857412
       4298.7461      0.50338563
       4299.4315      0.53075106
       4300.1169      0.43272082
       4300.8022      0.50929346
       4301.4876      0.59173116
       4302.1730      0.35580633
       4302.8584      0.39162491
       4303.5438      0.57151698
       4304.2292      0.46174886
       4304.9146      0.43978322
       4305.6000      0.51300048
       4306.2853      0.39212799
       4306.9707      0.45349231
       4307.6561      0.50486090
       4308.3415      0.45507036
       4309.0269      0.38486166
       4309.7123      0.44539898
       4310.3977      0.57577280
       4311.0831      0.51597904
       4311.7684      0.44315282
       4312.4538      0.45652244
       4313.1392      0.59233460
       4313.8246      0.45484736
       4314.5100      0.53210445
       4315.1954      0.43225515
       4315.8808      0.46040832
       4316.5662      0.46657347
       4317.2516      0.50116366
       4317.9369      0.43499214
       4318.6223      0.49911445
       4319.3077      0.49847140
       4319.9931      0.49960562
       4320.6785      0.50229083
       4321.3639      0.46355412
       4322.0493      0.49794689
       4322.7347      0.50582280
       4323.4200      0.59642915
       4324.1054      0.46184800
       4324.7908      0.46724006
       4325.4762      0.46580467
       4326.1616      0.53095031
       4326.8470      0.46541593
       4327.5324      0.40147605
       4328.2178      0.52498011
       4328.9032      0.51198932
       4329.5885      0.61560242
       4330.2739      0.58733653
       4330.9593      0.55337139
       4331.6447      0.55314386
       4332.3301      0.57235657
       4333.0155      0.58486818
       4333.7009      0.61147557
       4334.3863      0.38439904
       4335.0716      0.37132424
       4335.7570      0.50210160
       4336.4424      0.44949664
       4337.1278      0.49038686
       4337.8132      0.36658166
       4338.4986      0.47826648
       4339.1840      0.44010141
       4339.8694      0.53325466
       4340.5548      0.38162414
       4341.2401      0.38399939
       4341.9255      0.27423721
       4342.6109      0.19844839
       4343.2963      0.22204098
       4343.9817      0.22177289
       4344.6671      0.10123663
       4345.3525      0.27748708
       4346.0379             NaN
       4346.7232             NaN
       4347.4086             NaN
       4348.0940             NaN
       4348.7794             NaN
       4349.4648             NaN
       4350.1502             NaN
       4350.8356             NaN
       4351.5210             NaN
       4352.2063             NaN
       4352.8917             NaN
       4353.5771             NaN
       4354.2625             NaN
       4354.9479             NaN
       4355.6333             NaN
       4356.3187             NaN
       4357.0041             NaN
       4357.6895             NaN
       4358.3748             NaN
       4359.0602             NaN
       4359.7456             NaN
       4360.4310             NaN
       4361.1164             NaN
       4361.8018             NaN
       4362.4872             NaN
       4363.1726             NaN
       4363.8579             NaN
       4364.5433             NaN
       4365.2287             NaN
       4365.9141             NaN
       4366.5995             NaN
       4367.2849             NaN
       4367.9703             NaN
       4368.6557             NaN
       4369.3411             NaN
       4370.0264             NaN
       4370.7118             NaN
       4371.3972             NaN
       4372.0826             NaN
       4372.7680             NaN
       4373.4534             NaN
       4374.1388             NaN
       4374.8242             NaN
       4375.5095             NaN
       4376.1949             NaN
       4376.8803             NaN
       4377.5657             NaN
       4378.2511             NaN
       4378.9365             NaN
       4379.6219             NaN
       4380.3073             NaN
       4380.9926             NaN
       4381.6780             NaN
       4382.3634             NaN
       4383.0488             NaN
       4383.7342             NaN
       4384.4196             NaN
       4385.1050             NaN
       4385.7904             NaN
       4386.4758             NaN
       4387.1611             NaN
       4387.8465             NaN
       4388.5319             NaN
       4389.2173             NaN
       4389.9027             NaN
       4390.5881             NaN
       4391.2735             NaN
       4391.9589             NaN
       4392.6442             NaN
       4393.3296             NaN
       4394.0150             NaN
       4394.7004             NaN
       4395.3858             NaN
       4396.0712             NaN
       4396.7566             NaN
       4397.4420             NaN
       4398.1274             NaN
       4398.8127             NaN
       4399.4981             NaN
       4400.1835             NaN
       4400.8689             NaN
       4401.5543             NaN
       4402.2397             NaN
       4402.9251             NaN
       4403.6105             NaN
       4404.2958             NaN
       4404.9812             NaN
       4405.6666             NaN
       4406.3520      0.40266159
       4407.0374      0.43997323
       4407.7228      0.38539710
       4408.4082      0.52225003
       4409.0936      0.39171164
       4409.7789      0.34390990
       4410.4643      0.42776160
       4411.1497      0.54721936
       4411.8351      0.81300357
       4412.5205       1.0817948
       4413.2059      0.95056231
       4413.8913      0.85821118
       4414.5767      0.97790334
       4415.2621      0.74070681
       4415.9474      0.62813474
       4416.6328      0.71884639
       4417.3182      0.78126100
       4418.0036      0.67751777
       4418.6890      0.78335086
       4419.3744      0.74512783
       4420.0598      0.70910720
       4420.7452      0.56020581
       4421.4305      0.69899219
       4422.1159      0.61219158
       4422.8013      0.62157996
       4423.4867      0.54677166
       4424.1721      0.58688179
       4424.8575      0.59761500
       4425.5429      0.46095606
       4426.2283      0.59849788
       4426.9137      0.43202257
       4427.5990      0.51210792
       4428.2844      0.43976145
       4428.9698      0.42974877
       4429.6552      0.44157846
       4430.3406      0.43928392
       4431.0260      0.51740781
       4431.7114      0.34360476
       4432.3968      0.48638554
       4433.0821      0.65178314
       4433.7675      0.52051667
       4434.4529      0.51869089
       4435.1383      0.46022995
       4435.8237      0.47121885
       4436.5091      0.43812180
       4437.1945      0.49106471
       4437.8799      0.45896512
       4438.5652      0.45729716
       4439.2506      0.63778168
       4439.9360      0.61549789
       4440.6214      0.53656853
       4441.3068      0.49797924
       4441.9922      0.45497313
       4442.6776      0.47514262
       4443.3630      0.64271329
       4444.0484      0.46826579
       4444.7337      0.50873493
       4445.4191      0.47601940
       4446.1045      0.36327120
       4446.7899      0.52380785
       4447.4753      0.54367901
       4448.1607      0.35650710
       4448.8461      0.37731476
       4449.5315      0.41085879
       4450.2168      0.59318413
       4450.9022      0.49151345
       4451.5876      0.42162580
       4452.2730      0.62566344
       4452.9584      0.58942480
       4453.6438      0.51803411
       4454.3292      0.42209379
       4455.0146      0.52858260
       4455.7000      0.38102570
       4456.3853      0.58296832
       4457.0707      0.56582780
       4457.7561      0.35742087
       4458.4415      0.41395369
       4459.1269      0.50659712
       4459.8123      0.55396644
       4460.4977      0.40573880
       4461.1831      0.57402764
       4461.8684      0.49173501
       4462.5538      0.40670833
       4463.2392      0.55017260
       4463.9246      0.50791723
       4464.6100      0.50563530
       4465.2954      0.45124925
       4465.9808      0.64512723
       4466.6662      0.57422775
       4467.3516      0.36220030
       4468.0369      0.48649733
       4468.7223      0.51050584
       4469.4077      0.45121257
       4470.0931      0.39009337
       4470.7785      0.26607890
       4471.4639      0.49176261
       4472.1493      0.43577719
       4472.8347      0.66241588
       4473.5200      0.82987546
       4474.2054      0.53301726
       4474.8908      0.57399746
       4475.5762      0.33911144
       4476.2616      0.61747948
       4476.9470      0.54761421
       4477.6324      0.52042515
       4478.3178      0.39253528
       4479.0031      0.52382149
       4479.6885      0.56388755
       4480.3739      0.52869255
       4481.0593      0.48955563
       4481.7447      0.35617718
       4482.4301      0.40194467
       4483.1155      0.59686779
       4483.8009      0.53590943
       4484.4863      0.67928945
       4485.1716      0.56802989
       4485.8570      0.60410695
       4486.5424      0.30050025
       4487.2278      0.47618731
       4487.9132      0.48588542
       4488.5986      0.37967509
       4489.2840      0.38259774
       4489.9694      0.30759000
       4490.6547      0.43648696
       4491.3401      0.37743137
       4492.0255      0.51964522
       4492.7109      0.52080009
       4493.3963      0.42754718
       4494.0817      0.52808222
       4494.7671      0.30105176
       4495.4525      0.51222213
       4496.1379      0.35898361
       4496.8232      0.55744234
       4497.5086      0.34815420
       4498.1940      0.47255001
       4498.8794      0.62505949
       4499.5648      0.51602636
       4500.2502      0.36096056
       4500.9356      0.50810825
       4501.6210      0.55378938
       4502.3063      0.41974646
       4502.9917      0.74866887
       4503.6771      0.58102528
       4504.3625      0.61841354
       4505.0479      0.61422237
       4505.7333      0.42315970
       4506.4187      0.48216271
       4507.1041      0.57397548
       4507.7894      0.61061489
       4508.4748      0.49603097
       4509.1602      0.42847592
       4509.8456      0.39268137
       4510.5310      0.36393755
       4511.2164      0.57324125
       4511.9018      0.59933458
       4512.5872      0.57518223
       4513.2726      0.52352380
       4513.9579      0.67180696
       4514.6433      0.39958968
       4515.3287      0.56013882
       4516.0141      0.52894236
       4516.6995      0.49328695
       4517.3849      0.58460804
       4518.0703      0.49560527
       4518.7557      0.52782190
       4519.4410      0.48385144
       4520.1264      0.56446439
       4520.8118      0.50110349
       4521.4972      0.50071062
       4522.1826      0.33069590
       4522.8680      0.50000803
       4523.5534      0.43431881
       4524.2388      0.30771911
       4524.9242      0.14597241
       4525.6095      0.97400256
       4526.2949       1.2881410
       4526.9803       1.3302253
       4527.6657       1.8378818
       4528.3511       1.5438886
       4529.0365       1.0239459
       4529.7219      0.68028066
       4530.4073      0.83115348
       4531.0926      0.19985789
       4531.7780      0.37109232
       4532.4634      0.23846319
       4533.1488      0.46345367
       4533.8342      0.51224501
       4534.5196      0.39770982
       4535.2050      0.55527535
       4535.8904      0.71160494
       4536.5757      0.55821080
       4537.2611      0.50818063
       4537.9465      0.51019625
       4538.6319      0.39473207
       4539.3173      0.57849788
       4540.0027      0.53839923
       4540.6881      0.37087857
       4541.3735      0.56940725
       4542.0589      0.47520674
       4542.7442      0.61244137
       4543.4296      0.52786017
       4544.1150      0.48092738
       4544.8004      0.68458460
       4545.4858      0.58365854
       4546.1712      0.33420215
       4546.8566      0.60764965
       4547.5420      0.63307374
       4548.2273      0.68933269
       4548.9127      0.54659548
       4549.5981      0.59782173
       4550.2835      0.40253171
       4550.9689      0.63201795
       4551.6543      0.52004153
       4552.3397      0.50227362
       4553.0251      0.54113479
       4553.7105      0.60162158
       4554.3958       1.0731275
       4555.0812       1.0224063
       4555.7666      0.91337747
       4556.4520      0.85125540
       4557.1374      0.75551786
       4557.8228      0.26170527
       4558.5082      0.36581843
       4559.1936      0.32256722
       4559.8789      0.49229937
       4560.5643      0.49386195
       4561.2497      0.59694048
       4561.9351      0.46194545
       4562.6205      0.49208432
       4563.3059      0.45090541
       4563.9913      0.36885105
       4564.6767      0.60495699
       4565.3621      0.74070271
       4566.0474      0.51450728
       4566.7328      0.37430812
       4567.4182      0.49154196
       4568.1036      0.44591787
       4568.7890      0.60287268
       4569.4744      0.56311892
       4570.1598     0.011580201
       4570.8452      0.53705806
       4571.5305      0.56734840
       4572.2159      0.28253657
       4572.9013      0.58809846
       4573.5867      0.75592933
       4574.2721      0.64087579
       4574.9575      0.56426731
       4575.6429      0.63552422
       4576.3283      0.51978664
       4577.0136      0.49319682
       4577.6990      0.52022907
       4578.3844      0.58962895
       4579.0698      0.54183629
       4579.7552      0.48624638
       4580.4406      0.48116007
       4581.1260      0.54307543
       4581.8114      0.48393049
       4582.4968      0.35734200
       4583.1821      0.51219386
       4583.8675      0.75034504
       4584.5529      0.52555623
       4585.2383      0.35378339
       4585.9237      0.55167225
       4586.6091      0.46178554
       4587.2945      0.47388179
       4587.9799      0.29827298
       4588.6652      0.30950788
       4589.3506      0.29169150
       4590.0360      0.61858919
       4590.7214      0.61468470
       4591.4068      0.47910797
       4592.0922      0.40159322
       4592.7776      0.38367570
       4593.4630      0.65417712
       4594.1484      0.41458032
       4594.8337      0.52406810
       4595.5191      0.47350674
       4596.2045      0.36552641
       4596.8899      0.69223336
       4597.5753      0.52967191
       4598.2607      0.53452567
       4598.9461      0.53819332
       4599.6315      0.46982817
       4600.3168      0.57557564
       4601.0022      0.50649776
       4601.6876      0.37800977
       4602.3730      0.56220645
       4603.0584      0.57386216
       4603.7438      0.58979402
       4604.4292      0.58294652
       4605.1146      0.25803207
       4605.7999      0.53208591
       4606.4853      0.38783848
       4607.1707      0.47427244
       4607.8561      0.56456924
       4608.5415      0.52937724
       4609.2269      0.43043049
       4609.9123      0.48075775
       4610.5977      0.62742956
       4611.2831      0.79107126
       4611.9684      0.26464897
       4612.6538      0.70421304
       4613.3392      0.52048205
       4614.0246      0.45755918
       4614.7100      0.48418673
       4615.3954      0.47996653
       4616.0808      0.50984976
       4616.7662      0.55801929
       4617.4515      0.58218223
       4618.1369      0.55154356
       4618.8223      0.63173389
       4619.5077      0.54160123
       4620.1931      0.56526053
       4620.8785      0.57606657
       4621.5639      0.56631856
       4622.2493      0.65760156
       4622.9347      0.46083282
       4623.6200      0.51473092
       4624.3054      0.50077022
       4624.9908      0.35319591
       4625.6762      0.45354922
       4626.3616      0.47982285
       4627.0470      0.38777369
       4627.7324      0.43959361
       4628.4178      0.43208508
       4629.1031      0.66328906
       4629.7885      0.42989178
       4630.4739      0.42958558
       4631.1593      0.49345649
       4631.8447      0.62098146
       4632.5301      0.65981671
       4633.2155      0.51319029
       4633.9009      0.44065811
       4634.5862      0.45786252
       4635.2716      0.54598649
       4635.9570      0.58052405
       4636.6424      0.59435404
       4637.3278      0.35595151
       4638.0132      0.60085335
       4638.6986      0.48722075
       4639.3840      0.58038819
       4640.0694      0.46146059
       4640.7547      0.44719099
       4641.4401      0.55748677
       4642.1255      0.59202490
       4642.8109      0.59801648
       4643.4963      0.50648631
       4644.1817      0.59175333
       4644.8671      0.51611778
       4645.5525      0.53413798
       4646.2378      0.60410957
       4646.9232      0.47521519
       4647.6086      0.46300159
       4648.2940      0.56791856
       4648.9794      0.49718158
       4649.6648      0.49002367
       4650.3502      0.53145328
       4651.0356      0.56995669
       4651.7210      0.40362349
       4652.4063      0.48411545
       4653.0917      0.53693433
       4653.7771      0.45162040
       4654.4625      0.57746496
       4655.1479      0.56240936
       4655.8333      0.52738042
       4656.5187      0.37166501
       4657.2041      0.59519583
       4657.8894      0.47939135
       4658.5748      0.51728938
       4659.2602      0.55994942
       4659.9456      0.48214287
       4660.6310      0.45100035
       4661.3164      0.59546194
       4662.0018      0.56622507
       4662.6872      0.61762234
       4663.3726      0.52888549
       4664.0579      0.45528328
       4664.7433      0.50544977
       4665.4287      0.64185908
       4666.1141      0.53034827
       4666.7995      0.54939327
       4667.4849      0.39688385
       4668.1703      0.44263183
       4668.8557      0.51525109
       4669.5410      0.38285502
       4670.2264      0.44370875
       4670.9118      0.48730814
       4671.5972      0.46400747
       4672.2826      0.41529540
       4672.9680      0.57897234
       4673.6534      0.48221914
       4674.3388      0.55889966
       4675.0241      0.59291565
       4675.7095      0.48677541
       4676.3949      0.46411992
       4677.0803      0.47005608
       4677.7657      0.49215392
       4678.4511      0.47752655
       4679.1365      0.47936726
       4679.8219      0.48818568
       4680.5073      0.53814277
       4681.1926      0.45354770
       4681.8780      0.57776332
       4682.5634      0.56587318
       4683.2488      0.40622637
       4683.9342      0.52690247
       4684.6196      0.38995325
       4685.3050      0.44841160
       4685.9904      0.54949744
       4686.6757      0.46211085
       4687.3611      0.54075398
       4688.0465      0.72833672
       4688.7319      0.58637903
       4689.4173      0.41374299
       4690.1027      0.50281679
       4690.7881      0.53952557
       4691.4735      0.42351306
       4692.1589      0.54120552
       4692.8442      0.56679342
       4693.5296      0.63576097
       4694.2150      0.48585171
       4694.9004      0.57816998
       4695.5858      0.59708275
       4696.2712      0.57627752
       4696.9566      0.50246904
       4697.6420      0.42428782
       4698.3273      0.52562709
       4699.0127      0.40288191
       4699.6981      0.52677611
       4700.3835      0.56520917
       4701.0689      0.52046880
       4701.7543      0.49585695
       4702.4397      0.48215255
       4703.1251      0.45566680
       4703.8104      0.49119917
       4704.4958      0.44762268
       4705.1812      0.51450445
       4705.8666      0.56937646
       4706.5520      0.51120978
       4707.2374      0.60968953
       4707.9228      0.54729881
       4708.6082      0.54202621
       4709.2936      0.40898700
       4709.9789      0.35201782
       4710.6643      0.45224031
       4711.3497      0.48095886
       4712.0351      0.50277470
       4712.7205      0.46497051
       4713.4059      0.41876719
       4714.0913      0.55105230
       4714.7767      0.62749424
       4715.4620      0.37383826
       4716.1474      0.41322309
       4716.8328      0.45182035
       4717.5182      0.52413904
       4718.2036      0.59606563
       4718.8890      0.44122954
       4719.5744      0.38985245
       4720.2598      0.57215349
       4720.9452      0.53269799
       4721.6305      0.51584323
       4722.3159      0.50478049
       4723.0013      0.44585034
       4723.6867      0.41590026
       4724.3721      0.47440248
       4725.0575      0.46735291
       4725.7429      0.33254112
       4726.4283      0.39784852
       4727.1136      0.34401738
       4727.7990      0.51001997
       4728.4844      0.40838039
       4729.1698      0.45954180
       4729.8552      0.47850404
       4730.5406      0.49693552
       4731.2260      0.60019660
       4731.9114      0.62668572
       4732.5967      0.56037918
       4733.2821      0.58065709
       4733.9675      0.11034983
       4734.6529      0.14229116
       4735.3383      0.82263805
       4736.0237      0.89697839
       4736.7091      0.44400256
       4737.3945      0.43576897
       4738.0799      0.42163895
       4738.7652      0.50848423
       4739.4506      0.35951481
       4740.1360      0.44600671
       4740.8214      0.47089433
       4741.5068      0.73173997
       4742.1922      0.81773671
       4742.8776      0.53791814
       4743.5630      0.77762008
       4744.2483      0.44433173
       4744.9337      0.73347871
       4745.6191      0.68874284
       4746.3045      0.58824695
       4746.9899      0.54691644
       4747.6753      0.44444595
       4748.3607      0.69286248
       4749.0461      0.39961465
       4749.7315      0.51727760
       4750.4168      0.48972163
       4751.1022      0.57315340
       4751.7876      0.50390051
       4752.4730      0.33138381
       4753.1584      0.40879454
       4753.8438      0.67806686
       4754.5292      0.54062251
       4755.2146      0.70601877
       4755.8999      0.60235643
       4756.5853      0.48086702
       4757.2707      0.60345847
       4757.9561      0.45830425
       4758.6415      0.56221098
       4759.3269      0.50323717
       4760.0123      0.50848888
       4760.6977      0.39682721
       4761.3831      0.48525095
       4762.0684      0.52226697
       4762.7538      0.46093633
       4763.4392      0.57185150
       4764.1246      0.40616751
       4764.8100      0.60921410
       4765.4954      0.61174984
       4766.1808      0.51715554
       4766.8662      0.51644751
       4767.5515      0.54790949
       4768.2369      0.51941115
       4768.9223      0.56842267
       4769.6077      0.12649504
       4770.2931      0.20753626
       4770.9785       1.1107867
       4771.6639      0.60917035
       4772.3493      0.89205007
       4773.0346       1.2648982
       4773.7200       1.0545838
       4774.4054      0.47037635
       4775.0908      0.72899172
       4775.7762      0.71234545
       4776.4616      0.75615706
       4777.1470      0.64525953
       4777.8324      0.67676411
       4778.5178      0.61621906
       4779.2031      0.31281377
       4779.8885      0.54221192
       4780.5739      0.45076896
       4781.2593      0.52069139
       4781.9447      0.45993518
       4782.6301      0.59770772
       4783.3155      0.55771693
       4784.0009      0.56808141
       4784.6862      0.46649026
       4785.3716      0.67972187
       4786.0570      0.52343023
       4786.7424      0.52846507
       4787.4278      0.59939401
       4788.1132      0.45051100
       4788.7986      0.53373094
       4789.4840      0.48138928
       4790.1694      0.65844312
       4790.8547      0.49759710
       4791.5401      0.39050285
       4792.2255      0.54596176
       4792.9109      0.64462759
       4793.5963      0.63357556
       4794.2817      0.37623540
       4794.9671      0.59670288
       4795.6525      0.84838145
       4796.3378      0.55747881
       4797.0232      0.31227788
       4797.7086      0.49862739
       4798.3940      0.44569793
       4799.0794      0.47277076
       4799.7648      0.47114215
       4800.4502      0.22690626
       4801.1356      0.17174437
       4801.8209      0.41708640
       4802.5063      0.51026145
       4803.1917      0.42864252
       4803.8771      0.79922753
       4804.5625      0.79198455
       4805.2479      0.70561937
       4805.9333      0.60981681
       4806.6187      0.60554407
       4807.3041      0.55956729
       4807.9894      0.54014552
       4808.6748      0.57419028
       4809.3602      0.57464077
       4810.0456      0.43879347
       4810.7310      0.55123556
       4811.4164      0.28820122
       4812.1018      0.42627022
       4812.7872      0.46960211
       4813.4725      0.47927520
       4814.1579      0.45007215
       4814.8433      0.63694052
       4815.5287      0.47859341
       4816.2141      0.62043956
       4816.8995      0.59662915
       4817.5849      0.46701807
       4818.2703      0.35455553
       4818.9557      0.56883204
       4819.6410       1.1273091
       4820.3264      0.93198529
       4821.0118      0.37086596
       4821.6972      0.56111983
       4822.3826      0.71051689
       4823.0680       1.0134993
       4823.7534      0.70866004
       4824.4388      0.38870610
       4825.1241      0.54487628
       4825.8095      0.46822007
       4826.4949      0.34315922
       4827.1803      0.48691414
       4827.8657      0.60213867
       4828.5511      0.56010445
       4829.2365      0.53934094
       4829.9219      0.60946071
       4830.6072      0.53936980
       4831.2926      0.35543874
       4831.9780      0.40266068
       4832.6634      0.72957811
       4833.3488      0.69295866
       4834.0342      0.56651739
       4834.7196      0.37662086
       4835.4050      0.55115145
       4836.0904      0.60314362
       4836.7757      0.63446217
       4837.4611      0.47264811
       4838.1465      0.30265794
       4838.8319      0.11981588
       4839.5173      0.34634229
       4840.2027      0.80632237
       4840.8881      0.50328271
       4841.5735      0.80374039
       4842.2588      0.46094257
       4842.9442      0.54534745
       4843.6296      0.57637845
       4844.3150      0.48260786
       4845.0004      0.49866910
       4845.6858      0.54001626
       4846.3712      0.67499178
       4847.0566      0.50397446
       4847.7420      0.60333888
       4848.4273      0.48128798
       4849.1127      0.50795200
       4849.7981      0.54372955
       4850.4835      0.52967429
       4851.1689      0.53043489
       4851.8543      0.54616612
       4852.5397      0.64218258
       4853.2251      0.58090610
       4853.9104      0.49750631
       4854.5958      0.45600976
       4855.2812      0.36740250
       4855.9666      0.54928727
       4856.6520      0.53001124
       4857.3374      0.35029727
       4858.0228      0.58854835
       4858.7082      0.47954541
       4859.3935      0.47803098
       4860.0789      0.83440247
       4860.7643      0.63519718
       4861.4497      0.52707822
       4862.1351      0.52900970
       4862.8205      0.97479478
       4863.5059       1.0508909
       4864.1913      0.78145996
       4864.8767       1.0097477
       4865.5620      0.72062138
       4866.2474      0.52227636
       4866.9328      0.49500920
       4867.6182      0.58018514
       4868.3036      0.90374925
       4868.9890       1.1885972
       4869.6744       1.3815443
       4870.3598       1.5391670
       4871.0451       1.8833979
       4871.7305       1.8021111
       4872.4159       1.5181987
       4873.1013       1.0894332
       4873.7867      0.72859316
       4874.4721      0.57241286
       4875.1575      0.37210320
       4875.8429      0.30286590
       4876.5283      0.34671399
       4877.2136      0.38245247
       4877.8990      0.39796119
       4878.5844      0.39358033
       4879.2698      0.41494444
       4879.9552      0.36574501
       4880.6406      0.44650336
       4881.3260      0.44137527
       4882.0114      0.34471790
       4882.6967      0.16609387
       4883.3821      0.36386437
       4884.0675      0.29464024
       4884.7529      0.19320062
       4885.4383      0.32468679
       4886.1237      0.44255036
       4886.8091      0.28329221
       4887.4945      0.26416153
       4888.1799      0.43565766
       4888.8652      0.19303953
       4889.5506      0.33796959
       4890.2360      0.22242560
       4890.9214      0.18154775
       4891.6068      0.38850184
       4892.2922      0.29415513
       4892.9776      0.38213124
       4893.6630      0.51669343
       4894.3483      0.43549138
       4895.0337      0.54370642
       4895.7191      0.35773714
       4896.4045      0.43470751
       4897.0899      0.37657014
       4897.7753      0.45106525
       4898.4607      0.55919111
       4899.1461      0.33050636
       4899.8314      0.46639836
       4900.5168      0.43838204
       4901.2022      0.32604818
       4901.8876      0.36733583
       4902.5730      0.47050439
       4903.2584      0.43179850
       4903.9438      0.44972828
       4904.6292      0.38051653
       4905.3146      0.36667878
       4905.9999      0.39610993
       4906.6853      0.35691515
       4907.3707      0.43875379
       4908.0561      0.48388529
       4908.7415      0.48645175
       4909.4269      0.50238603
       4910.1123      0.45179222
       4910.7977      0.50841995
       4911.4830      0.51151712
       4912.1684      0.57664748
       4912.8538      0.69730381
       4913.5392      0.70494450
       4914.2246      0.60768398
       4914.9100      0.59780484
       4915.5954      0.72700304
       4916.2808      0.72492158
       4916.9662      0.72801453
       4917.6515      0.65938002
       4918.3369      0.59091484
       4919.0223      0.62236832
       4919.7077      0.48787022
       4920.3931      0.48356614
       4921.0785      0.55800223
       4921.7639      0.53336918
       4922.4493      0.48368771
       4923.1346      0.39539261
       4923.8200      0.39812940
       4924.5054      0.42429690
       4925.1908      0.43127882
       4925.8762      0.59427704
       4926.5616      0.52304962
       4927.2470      0.59711860
       4927.9324      0.49961647
       4928.6177      0.51279834
       4929.3031      0.53031302
       4929.9885      0.34741607
       4930.6739      0.61114294
       4931.3593      0.52550667
       4932.0447      0.46299028
       4932.7301      0.39543263
       4933.4155      0.47772790
       4934.1009      0.47035923
       4934.7862      0.58306198
       4935.4716      0.59380926
       4936.1570      0.64714961
       4936.8424      0.52261962
       4937.5278      0.38744718
       4938.2132      0.49625808
       4938.8986      0.44751130
       4939.5840      0.48878845
       4940.2693      0.49539054
       4940.9547      0.38515178
       4941.6401      0.50801450
       4942.3255      0.57441417
       4943.0109      0.50927620
       4943.6963      0.58110714
       4944.3817      0.54198394
       4945.0671      0.48366069
       4945.7525      0.35764252
       4946.4378      0.46770178
       4947.1232      0.25175670
       4947.8086      0.32243574
       4948.4940      0.41774652
       4949.1794      0.49564902
       4949.8648      0.51997501
       4950.5502      0.55033803
       4951.2356      0.46828229
       4951.9209      0.57470100
       4952.6063      0.42145952
       4953.2917      0.41570353
       4953.9771      0.39931474
       4954.6625      0.58298773
       4955.3479      0.58310052
       4956.0333      0.43439691
       4956.7187      0.52851851
       4957.4040      0.39132379
       4958.0894      0.40137526
       4958.7748      0.40776202
       4959.4602      0.44106343
       4960.1456      0.61023288
       4960.8310      0.62616050
       4961.5164      0.46410143
       4962.2018      0.50009889
       4962.8872      0.60557518
       4963.5725      0.54418191
       4964.2579      0.67781151
       4964.9433      0.63334769
       4965.6287      0.57104737
       4966.3141      0.63276057
       4966.9995      0.66563266
       4967.6849      0.82067239
       4968.3703      0.84203780
       4969.0556      0.84242352
       4969.7410      0.89939366
       4970.4264      0.61253032
       4971.1118      0.61495543
       4971.7972      0.68238654
       4972.4826      0.58433176
       4973.1680      0.54335251
       4973.8534      0.49455841
       4974.5388      0.57472589
       4975.2241      0.48826160
       4975.9095      0.48588819
       4976.5949      0.50041909
       4977.2803      0.50418215
       4977.9657      0.44452263
       4978.6511      0.62269742
       4979.3365      0.61296186
       4980.0219      0.43544272
       4980.7072      0.45780358
       4981.3926      0.52395816
       4982.0780      0.49931282
       4982.7634      0.44991481
       4983.4488      0.40989090
       4984.1342      0.59987620
       4984.8196      0.66936457
       4985.5050      0.55568599
       4986.1904      0.52776787
       4986.8757      0.58553744
       4987.5611      0.57153461
       4988.2465      0.45719445
       4988.9319      0.55663274
       4989.6173      0.48657276
       4990.3027      0.53414077
       4990.9881      0.53531279
       4991.6735      0.40367840
       4992.3588      0.43544851
       4993.0442      0.56527111
       4993.7296      0.49504039
       4994.4150      0.40617841
       4995.1004      0.55153925
       4995.7858      0.40286241
       4996.4712      0.44394253
       4997.1566      0.47573452
       4997.8419      0.55651466
       4998.5273      0.53443494
       4999.2127      0.53447894
       4999.8981      0.57535234
       5000.5835      0.46470365
       5001.2689      0.52118805
       5001.9543      0.59825533
       5002.6397      0.58802413
       5003.3251      0.53942917
       5004.0104      0.52704260
       5004.6958      0.59212655
       5005.3812      0.49724563
       5006.0666      0.55958111
       5006.7520      0.45485582
       5007.4374      0.43149541
       5008.1228      0.37384332
       5008.8082      0.45380341
       5009.4935      0.47606236
       5010.1789      0.75858916
       5010.8643      0.41895796
       5011.5497      0.50470629
       5012.2351      0.71961308
       5012.9205      0.86666857
       5013.6059      0.89423913
       5014.2913      0.94696491
       5014.9767       1.0276623
       5015.6620       1.5394499
       5016.3474       1.8538304
       5017.0328       1.8927162
       5017.7182       1.5916130
       5018.4036       1.2300852
       5019.0890      0.91185661
       5019.7744      0.45146947
       5020.4598       1.0439150
       5021.1451      0.86155875
       5021.8305      0.73598544
       5022.5159      0.47341813
       5023.2013      0.59041191
       5023.8867      0.47761850
       5024.5721      0.54671324
       5025.2575      0.49948958
       5025.9429      0.50943801
       5026.6282      0.70300185
       5027.3136      0.53596047
       5027.9990      0.55873416
       5028.6844      0.55109778
       5029.3698      0.64317761
       5030.0552      0.52708126
       5030.7406      0.56573293
       5031.4260      0.65314991
       5032.1114      0.61258667
       5032.7967      0.51389282
       5033.4821      0.51784170
       5034.1675      0.47025428
       5034.8529      0.46043539
       5035.5383      0.50748016
       5036.2237      0.61218882
       5036.9091      0.60949894
       5037.5945      0.60382915
       5038.2798      0.49065094
       5038.9652      0.53353453
       5039.6506      0.50848212
       5040.3360      0.67510556
       5041.0214      0.59603309
       5041.7068      0.55797547
       5042.3922      0.60625311
       5043.0776      0.58485606
       5043.7630      0.54935769
       5044.4483      0.41848329
       5045.1337      0.38144927
       5045.8191      0.25450151
       5046.5045      0.61155937
       5047.1899       1.0578260
       5047.8753      0.83019514
       5048.5607      0.11017812
       5049.2461      0.65876773
       5049.9314      0.84094706
       5050.6168      0.60675100
       5051.3022      0.38941234
       5051.9876      0.53736613
       5052.6730      0.50281313
       5053.3584      0.56724210
       5054.0438      0.84879279
       5054.7292      0.73978354
       5055.4145      0.11004239
       5056.0999     0.066807399
       5056.7853      0.39210945
       5057.4707      0.51124669
       5058.1561      0.54254581
       5058.8415      0.40460018
       5059.5269      0.42284994
       5060.2123      0.51390781
       5060.8977      0.52764605
       5061.5830      0.60578527
       5062.2684      0.88224204
       5062.9538      0.63473865
       5063.6392      0.57171973
       5064.3246      0.48825572
       5065.0100      0.52373627
       5065.6954      0.62249061
       5066.3808      0.60796541
       5067.0661      0.52571502
       5067.7515      0.50939063
       5068.4369      0.42966441
       5069.1223      0.41595328
       5069.8077      0.46440487
       5070.4931      0.52982406
       5071.1785      0.61225180
       5071.8639      0.98384866
       5072.5493      0.83753811
       5073.2346      0.85950131
       5073.9200      0.65082683
       5074.6054      0.47186055
       5075.2908      0.48679640
       5075.9762      0.59335422
       5076.6616      0.49092530
       5077.3470      0.47763864
       5078.0324      0.40926090
       5078.7177      0.49299439
       5079.4031      0.47322919
       5080.0885     0.012472221
       5080.7739      0.10692715
       5081.4593      0.77826389
       5082.1447      0.78263103
       5082.8301      0.61900710
       5083.5155      0.59778903
       5084.2009      0.89982967
       5084.8862      0.78168719
       5085.5716      0.57733566
       5086.2570      0.53918751
       5086.9424      0.44946856
       5087.6278      0.48217778
       5088.3132      0.45169010
       5088.9986      0.35050154
       5089.6840     0.045251984
       5090.3693      0.20648664
       5091.0547    -0.054665271
       5091.7401     0.040656851
       5092.4255     0.037805036
       5093.1109    -0.050303768
       5093.7963      0.33278796
       5094.4817      0.52023653
       5095.1671      0.50958923
       5095.8524      0.54182606
       5096.5378      0.61677417
       5097.2232      0.61359333
       5097.9086      0.61555495
       5098.5940      0.31626908
       5099.2794     -0.26860494
       5099.9648      0.86209230
       5100.6502      0.82612848
       5101.3356     0.054348793
       5102.0209      0.89740326
       5102.7063       1.2399592
       5103.3917      0.90182748
       5104.0771      0.68601685
       5104.7625      0.49138052
       5105.4479      0.58218181
       5106.1333      0.59315578
       5106.8187      0.54757191
       5107.5040      0.60894594
       5108.1894      0.64227850
       5108.8748      0.51935269
       5109.5602      0.50977179
       5110.2456      0.46558842
       5110.9310      0.58284702
       5111.6164      0.62717276
       5112.3018      0.65457063
       5112.9872      0.36155678
       5113.6725      0.58060768
       5114.3579      0.61245232
       5115.0433      0.42716861
       5115.7287      0.66875178
       5116.4141      0.61812431
       5117.0995      0.60604977
       5117.7849      0.58943082
       5118.4703      0.63286783
       5119.1556      0.54703244
       5119.8410      0.48803847
       5120.5264      0.29083230
       5121.2118    0.0052455215
       5121.8972      0.46307987
       5122.5826      0.85763832
       5123.2680       1.1026609
       5123.9534      0.68592937
       5124.6387      0.89033335
       5125.3241      0.66757980
       5126.0095      0.56443873
       5126.6949      0.46783397
       5127.3803      0.50648510
       5128.0657      0.59782615
       5128.7511      0.48792572
       5129.4365      0.58470708
       5130.1219      0.49294668
       5130.8072      0.53010464
       5131.4926      0.51789972
       5132.1780      0.55955399
       5132.8634      0.45784306
       5133.5488      0.36505898
       5134.2342      0.40931008
       5134.9196      0.42178091
       5135.6050      0.34975038
       5136.2903      0.48531815
       5136.9757      0.49132530
       5137.6611      0.50722962
       5138.3465      0.69810542
       5139.0319      0.63845004
       5139.7173      0.61043762
       5140.4027      0.70898282
       5141.0881      0.55951216
       5141.7735      0.58399808
       5142.4588      0.66720783
       5143.1442      0.66056574
       5143.8296      0.44603647
       5144.5150      0.43596285
       5145.2004      0.39979289
       5145.8858      0.18020514
       5146.5712      0.62132434
       5147.2566      0.40002636
       5147.9419      0.71627237
       5148.6273      0.80389501
       5149.3127      0.46390170
       5149.9981      0.69775842
       5150.6835      0.46013717
       5151.3689      0.42638450
       5152.0543      0.55002925
       5152.7397      0.59099082
       5153.4250      0.53128640
       5154.1104      0.49557179
       5154.7958      0.58484516
       5155.4812      0.52480921
       5156.1666      0.54000604
       5156.8520      0.52502122
       5157.5374      0.62634165
       5158.2228      0.55130360
       5158.9082      0.51158729
       5159.5935      0.54833237
       5160.2789      0.60239882
       5160.9643      0.57198601
       5161.6497      0.60712322
       5162.3351      0.58206053
       5163.0205      0.56834363
       5163.7059      0.57514547
       5164.3913      0.51663513
       5165.0766      0.57298814
       5165.7620      0.43709783
       5166.4474      0.42508801
       5167.1328      0.37343059
       5167.8182      0.46982036
       5168.5036      0.62158865
       5169.1890      0.42217348
       5169.8744      0.77511800
       5170.5598      0.51921937
       5171.2451      0.61304541
       5171.9305      0.58052782
       5172.6159      0.57684261
       5173.3013      0.35375864
       5173.9867      0.23232692
       5174.6721      0.69970462
       5175.3575      0.52121092
       5176.0429      0.78663758
       5176.7282      0.74146826
       5177.4136      0.56896953
       5178.0990      0.60101469
       5178.7844      0.59810928
       5179.4698      0.44317835
       5180.1552      0.51060370
       5180.8406      0.56859335
       5181.5260      0.50247354
       5182.2113      0.54675498
       5182.8967      0.48078358
       5183.5821      0.50111000
       5184.2675      0.47347549
       5184.9529      0.53547609
       5185.6383      0.58197231
       5186.3237      0.47892834
       5187.0091      0.47685750
       5187.6945      0.45167377
       5188.3798      0.44201746
       5189.0652      0.61849261
       5189.7506      0.62223936
       5190.4360      0.54358044
       5191.1214      0.53563119
       5191.8068      0.54436795
       5192.4922      0.52259887
       5193.1776      0.43084220
       5193.8629      0.58370393
       5194.5483      0.49942157
       5195.2337      0.41884471
       5195.9191      0.50801278
       5196.6045      0.51244489
       5197.2899      0.44856986
       5197.9753      0.50446999
       5198.6607      0.48427742
       5199.3461      0.63240163
       5200.0314      0.57501002
       5200.7168      0.60531767
       5201.4022      0.56855644
       5202.0876      0.57788216
       5202.7730      0.58345423
       5203.4584      0.51891740
       5204.1438      0.61722544
       5204.8292      0.58812728
       5205.5145      0.60404141
       5206.1999      0.57890042
       5206.8853      0.73377111
       5207.5707      0.63117214
       5208.2561      0.67673373
       5208.9415      0.75991588
       5209.6269      0.68917026
       5210.3123      0.47483163
       5210.9977      0.59205023
       5211.6830      0.56418424
       5212.3684      0.60163183
       5213.0538      0.54617886
       5213.7392      0.61234854
       5214.4246      0.64152077
       5215.1100      0.57164578
       5215.7954      0.59112593
       5216.4808      0.53637227
       5217.1661      0.58541121
       5217.8515      0.67455288
       5218.5369      0.65722654
       5219.2223      0.55767647
       5219.9077      0.47190755
       5220.5931      0.41868925
       5221.2785      0.53678167
       5221.9639      0.66169368
       5222.6492      0.58040863
       5223.3346      0.54886304
       5224.0200      0.59815622
       5224.7054      0.48472214
       5225.3908      0.51349105
       5226.0762      0.47349490
       5226.7616      0.49478406
       5227.4470      0.71317232
       5228.1324      0.71941278
       5228.8177      0.71283042
       5229.5031      0.72801405
       5230.1885      0.67590984
       5230.8739      0.62613836
       5231.5593      0.47058453
       5232.2447      0.48947730
       5232.9301      0.43291543
       5233.6155      0.59147449
       5234.3008      0.60334497
       5234.9862      0.59839594
       5235.6716      0.54637962
       5236.3570      0.44374945
       5237.0424      0.40660605
       5237.7278      0.43806538
       5238.4132      0.65965117
       5239.0986      0.62166814
       5239.7840      0.57238304
       5240.4693      0.58251931
       5241.1547      0.48727294
       5241.8401      0.58056075
       5242.5255      0.55484067
       5243.2109      0.58635669
       5243.8963      0.64187975
       5244.5817      0.47146379
       5245.2671      0.53717481
       5245.9524      0.48660021
       5246.6378      0.53421440
       5247.3232      0.62181815
       5248.0086      0.61676215
       5248.6940      0.49928589
       5249.3794      0.47530168
       5250.0648      0.51904479
       5250.7502      0.62602876
       5251.4355      0.62600989
       5252.1209      0.56480341
       5252.8063      0.64655432
       5253.4917      0.68662162
       5254.1771      0.64754363
       5254.8625      0.46574358
       5255.5479      0.44741560
       5256.2333      0.62369873
       5256.9187      0.52278246
       5257.6040      0.50149418
       5258.2894      0.57662335
       5258.9748      0.52623593
       5259.6602      0.48506791
       5260.3456      0.65991461
       5261.0310      0.56189703
       5261.7164      0.50028547
       5262.4018      0.57757067
       5263.0871      0.59208974
       5263.7725      0.58966905
       5264.4579      0.66813606
       5265.1433      0.67736705
       5265.8287      0.65237000
       5266.5141      0.58960742
       5267.1995      0.60283438
       5267.8849      0.62892089
       5268.5703      0.69940065
       5269.2556      0.59374951
       5269.9410      0.46383415
       5270.6264      0.63051166
       5271.3118      0.59792298
       5271.9972      0.49656700
       5272.6826      0.53658516
       5273.3680      0.49510578
       5274.0534      0.58145356
       5274.7387      0.49333291
       5275.4241      0.34505996
       5276.1095      0.50324587
       5276.7949      0.53908693
       5277.4803      0.64649378
       5278.1657      0.60999437
       5278.8511      0.55495342
       5279.5365      0.54388611
       5280.2218      0.58244571
       5280.9072      0.43308887
       5281.5926      0.39613591
       5282.2780      0.57952961
       5282.9634      0.60759008
       5283.6488      0.65292219
       5284.3342      0.57847266
       5285.0196      0.57467467
       5285.7050      0.60556646
       5286.3903      0.64319678
       5287.0757      0.65423884
       5287.7611      0.63597859
       5288.4465      0.56452164
       5289.1319      0.58539499
       5289.8173      0.57503187
       5290.5027      0.62490798
       5291.1881      0.61530707
       5291.8734      0.53673425
       5292.5588      0.41478250
       5293.2442      0.68377290
       5293.9296      0.63774459
       5294.6150      0.61336402
       5295.3004      0.54553243
       5295.9858      0.51705603
       5296.6712      0.42688999
       5297.3566      0.64889422
       5298.0419      0.57266384
       5298.7273      0.64182514
       5299.4127      0.73511114
       5300.0981      0.64790591
       5300.7835      0.68099552
       5301.4689      0.59140051
       5302.1543      0.67350915
       5302.8397      0.70817158
       5303.5250      0.66958779
       5304.2104      0.62574221
       5304.8958      0.66474259
       5305.5812      0.57641381
       5306.2666      0.56566206
       5306.9520      0.61198173
       5307.6374      0.61141395
       5308.3228      0.51187166
       5309.0082      0.52256085
       5309.6935      0.60243288
       5310.3789      0.49654626
       5311.0643      0.41255713
       5311.7497      0.50950665
       5312.4351      0.47380455
       5313.1205      0.47173004
       5313.8059      0.59338560
       5314.4913      0.65769539
       5315.1766      0.45968114
       5315.8620      0.46111263
       5316.5474      0.49207214
       5317.2328      0.40165315
       5317.9182      0.48739978
       5318.6036      0.45638778
       5319.2890      0.46780405
       5319.9744      0.39077483
       5320.6597      0.26666742
       5321.3451      0.38471114
       5322.0305      0.68002976
       5322.7159      0.59608568
       5323.4013      0.64745540
       5324.0867      0.37993560
       5324.7721     -0.24544911
       5325.4575      0.23694786
       5326.1429      0.58460891
       5326.8282      0.76390804
       5327.5136      0.77701449
       5328.1990      0.64450152
       5328.8844      0.38136133
       5329.5698     0.068294311
       5330.2552      0.35496288
       5330.9406      0.36825144
       5331.6260      0.43822317
       5332.3113    0.0014169380
       5332.9967      0.56836836
       5333.6821      0.51695308
       5334.3675      0.65054222
       5335.0529      0.69686856
       5335.7383      0.40912222
       5336.4237      0.41376022
       5337.1091      0.54515311
       5337.7945      0.55734021
       5338.4798      0.40803827
       5339.1652      0.14799732
       5339.8506      0.38537403
       5340.5360      0.44470936
       5341.2214      0.35510148
       5341.9068      0.27165113
       5342.5922      0.31777695
       5343.2776      0.38185753
       5343.9629      0.52145878
       5344.6483      0.42750238
       5345.3337      0.46002028
       5346.0191      0.54752791
       5346.7045      0.46186192
       5347.3899      0.55088925
       5348.0753      0.49689878
       5348.7607      0.36643013
       5349.4460      0.46409525
       5350.1314      0.44836204
       5350.8168      0.47004182
       5351.5022      0.49957345
       5352.1876      0.32079308
       5352.8730      0.32491217
       5353.5584      0.48834572
       5354.2438      0.44810990
       5354.9292      0.55061848
       5355.6145      0.50907776
       5356.2999      0.53395871
       5356.9853      0.53196590
       5357.6707      0.47931868
       5358.3561      0.42066883
       5359.0415      0.32669988
       5359.7269     0.026487421
       5360.4123      0.18335037
       5361.0976      0.67538536
       5361.7830      0.64019337
       5362.4684     0.039546780
       5363.1538      0.18608618
       5363.8392      0.99067295
       5364.5246       1.2819747
       5365.2100      0.66258538
       5365.8954      0.34079780
       5366.5808     0.070250667
       5367.2661      0.33898216
       5367.9515      0.73557819
       5368.6369      0.54514725
       5369.3223      0.79565413
       5370.0077      0.66241999
       5370.6931      0.87003091
       5371.3785      0.71274315
       5372.0639      0.62110872
       5372.7492      0.61464194
       5373.4346      0.71807279
       5374.1200      0.79723443
       5374.8054      0.63628220
       5375.4908      0.49094223
       5376.1762      0.65193791
       5376.8616      0.67492746
       5377.5470      0.54527346
       5378.2323      0.53689635
       5378.9177      0.25834341
       5379.6031      0.45525461
       5380.2885      0.70821952
       5380.9739      0.59616372
       5381.6593      0.57123308
       5382.3447      0.55662856
       5383.0301      0.48549805
       5383.7155      0.48191769
       5384.4008      0.44910250
       5385.0862      0.59951890
       5385.7716      0.30766918
       5386.4570      0.14680530
       5387.1424      0.64003313
       5387.8278      0.50084763
       5388.5132      0.24919716
       5389.1986      0.27211153
       5389.8839      0.44319890
       5390.5693      0.44814655
       5391.2547      0.60665324
       5391.9401      0.31593751
       5392.6255      0.40760910
       5393.3109      0.42609271
       5393.9963      0.39887502
       5394.6817      0.47159406
       5395.3671      0.62851075
       5396.0524      0.57076879
       5396.7378      0.15786162
       5397.4232     -0.33793748
       5398.1086       1.5462586
       5398.7940       4.6263051
       5399.4794       6.5724991
       5400.1648      0.52383750
       5400.8502     -0.91383082
       5401.5355      0.61733147
       5402.2209      0.54328072
       5402.9063      0.43696866
       5403.5917      0.56035701
       5404.2771      0.48230484
       5404.9625      0.61253321
       5405.6479      0.61332702
       5406.3333      0.52362097
       5407.0187      0.50446672
       5407.7040      0.46848510
       5408.3894      0.33121155
       5409.0748      0.33851535
       5409.7602      0.40277425
       5410.4456      0.54984158
       5411.1310      0.55508845
       5411.8164      0.51397361
       5412.5018      0.78609686
       5413.1871      0.51315876
       5413.8725      0.66807759
       5414.5579      0.61875827
       5415.2433      0.41180772
       5415.9287      0.32088275
       5416.6141      0.43588952
       5417.2995      0.32194885
       5417.9849      0.34613201
       5418.6702    -0.091156914
       5419.3556      0.14215145
       5420.0410      0.41429446
       5420.7264      0.93197684
       5421.4118       1.1342315
       5422.0972       1.1178015
       5422.7826       1.3076471
       5423.4680       1.2272519
       5424.1534      0.70108369
       5424.8387      0.74207414
       5425.5241      0.72079417
       5426.2095      0.59634909
       5426.8949      0.69527857
       5427.5803      0.65203617
       5428.2657      0.54477307
       5428.9511      0.47074084
       5429.6365      0.50834372
       5430.3218      0.61060614
       5431.0072      0.59819436
       5431.6926      0.49467594
       5432.3780      0.46302970
       5433.0634      0.42031723
       5433.7488     0.020393629
       5434.4342      0.47428229
       5435.1196      0.59073953
       5435.8050      0.73365716
       5436.4903      0.49814717
       5437.1757      0.67779258
       5437.8611      0.70487754
       5438.5465      0.59635690
       5439.2319      0.61542936
       5439.9173      0.54099564
       5440.6027      0.57831553
       5441.2881      0.58754503
       5441.9734      0.41903997
       5442.6588     0.084124609
       5443.3442     -0.42077575
       5444.0296     -0.40634672
       5444.7150     -0.49698385
       5445.4004     -0.20931130
       5446.0858      0.34263621
       5446.7712      0.63389223
       5447.4565      0.98980160
       5448.1419      0.69744919
       5448.8273      0.59414047
       5449.5127      0.45441517
       5450.1981      0.54732098
       5450.8835      0.47238929
       5451.5689      0.59821643
       5452.2543      0.60675974
       5452.9397      0.48740333
       5453.6250      0.52988896
       5454.3104      0.55895652
       5454.9958      0.68461161
       5455.6812      0.51700649
       5456.3666      0.57873954
       5457.0520      0.64168535
       5457.7374      0.55992886
       5458.4228      0.55520170
       5459.1081      0.52071845
       5459.7935      0.52527758
       5460.4789      0.50308195
       5461.1643      0.47779584
       5461.8497      0.46469681
       5462.5351     -0.10334303
       5463.2205     -0.40710245
       5463.9059     -0.32062383
       5464.5913       1.1078072
       5465.2766       1.4406590
       5465.9620       1.8978248
       5466.6474       1.2745695
       5467.3328      0.59648938
       5468.0182      0.70611132
       5468.7036      0.62217748
       5469.3890      0.45267185
       5470.0744      0.65511011
       5470.7597      0.14622368
       5471.4451      0.47898645
       5472.1305      0.47842928
       5472.8159      0.42861844
       5473.5013      0.42149211
       5474.1867      0.52745603
       5474.8721      0.85316206
       5475.5575      0.78794444
       5476.2428      0.77703929
       5476.9282      0.60343098
       5477.6136      0.54030753
       5478.2990      0.51609857
       5478.9844      0.52678891
       5479.6698      0.50400570
       5480.3552      0.41853159
       5481.0406      0.47155713
       5481.7260      0.46021243
       5482.4113      0.68529380
       5483.0967      0.60917711
       5483.7821      0.64105198
       5484.4675      0.65866795
       5485.1529      0.56331987
       5485.8383      0.52006355
       5486.5237      0.55078406
       5487.2091      0.65652096
       5487.8944      0.62347571
       5488.5798      0.55084381
       5489.2652      0.59568379
       5489.9506      0.67343312
       5490.6360      0.76240390
       5491.3214      0.59991737
       5492.0068      0.48467485
       5492.6922      0.54988939
       5493.3776      0.48992893
       5494.0629      0.42883994
       5494.7483      0.65424666
       5495.4337      0.65543832
       5496.1191      0.55073753
       5496.8045      0.36194531
       5497.4899      0.51384849
       5498.1753      0.37352905
       5498.8607      0.55032320
       5499.5460      0.52892324
       5500.2314      0.60518401
       5500.9168      0.59515856
       5501.6022      0.44801886
       5502.2876       1.0197944
       5502.9730      0.75896295
       5503.6584      0.84556029
       5504.3438      0.73756431
       5505.0292      0.34002448
       5505.7145      0.68332135
       5506.3999      0.51214391
       5507.0853      0.54817196
       5507.7707      0.50906451
       5508.4561      0.64409085
       5509.1415      0.59674044
       5509.8269      0.68095700
       5510.5123      0.83448228
       5511.1976      0.56313714
       5511.8830      0.40129066
       5512.5684      0.52944789
       5513.2538      0.58717685
       5513.9392      0.60023828
       5514.6246      0.55506198
       5515.3100      0.66057782
       5515.9954      0.77061099
       5516.6807      0.69923348
       5517.3661      0.52885403
       5518.0515      0.55879806
       5518.7369      0.42539150
       5519.4223      0.43521689
       5520.1077      0.52644230
       5520.7931      0.51010893
       5521.4785      0.43540526
       5522.1639      0.52791838
       5522.8492      0.58098570
       5523.5346      0.43284825
       5524.2200      0.40289158
       5524.9054      0.47441491
       5525.5908      0.59617262
       5526.2762      0.60421943
       5526.9616      0.66243294
       5527.6470      0.69029766
       5528.3323      0.56099761
       5529.0177      0.41183601
       5529.7031      0.64702660
       5530.3885      0.85747066
       5531.0739      0.64597341
       5531.7593      0.51722373
       5532.4447      0.60223302
       5533.1301      0.67814124
       5533.8155      0.57437402
       5534.5008      0.71638579
       5535.1862      0.40196808
       5535.8716      0.24373443
       5536.5570      0.17278458
       5537.2424      0.62170915
       5537.9278      0.61020464
       5538.6132      0.57358870
       5539.2986      0.52483352
       5539.9839      0.80758886
       5540.6693      0.75022706
       5541.3547      0.51015752
       5542.0401      0.72768176
       5542.7255      0.69221825
       5543.4109      0.66671415
       5544.0963      0.83396997
       5544.7817      0.78086223
       5545.4670      0.67886875
       5546.1524      0.45891543
       5546.8378   0.00032396781
       5547.5232     0.083993112
       5548.2086      0.15893250
       5548.8940    0.0045432538
       5549.5794      0.80368501
       5550.2648      0.84733896
       5550.9502      0.83756140
       5551.6355      0.91282912
       5552.3209      0.73373966
       5553.0063      0.67705076
       5553.6917      0.30755533
       5554.3771      0.39421878
       5555.0625      0.38474988
       5555.7479      0.32313086
       5556.4333      0.29726797
       5557.1186      0.25914016
       5557.8040      0.53498295
       5558.4894      0.14349534
       5559.1748      0.19182491
       5559.8602      0.57189679
       5560.5456      0.48343299
       5561.2310      0.84920478
       5561.9164      0.84586668
       5562.6018      0.91909976
       5563.2871      0.60553720
       5563.9725      0.55535306
       5564.6579      0.47489172
       5565.3433      0.73455891
       5566.0287      0.66840451
       5566.7141      0.59743112
       5567.3995      0.58736340
       5568.0849      0.60647912
       5568.7702      0.66058005
       5569.4556      0.43243357
       5570.1410      0.57394185
       5570.8264      0.54785760
       5571.5118      0.59787190
       5572.1972      0.61450474
       5572.8826      0.74037244
       5573.5680      0.63949554
       5574.2533      0.33183651
       5574.9387      0.65260923
       5575.6241      0.63669451
       5576.3095      0.73766903
       5576.9949      0.74805153
       5577.6803      0.66071022
       5578.3657      0.68275470
       5579.0511      0.67687835
       5579.7365      0.65654961
       5580.4218      0.66318093
       5581.1072      0.56692583
       5581.7926      0.60704796
       5582.4780      0.59290852
       5583.1634      0.66778094
       5583.8488      0.61496014
       5584.5342      0.63849999
       5585.2196      0.59001928
       5585.9049      0.58048765
       5586.5903      0.64158433
       5587.2757      0.60230561
       5587.9611      0.63104754
       5588.6465      0.65813587
       5589.3319      0.56182082
       5590.0173      0.45021575
       5590.7027      0.72979166
       5591.3881      0.67671989
       5592.0734      0.66620182
       5592.7588      0.68891807
       5593.4442      0.60445266
       5594.1296      0.70818581
       5594.8150      0.66837147
       5595.5004      0.70294910
       5596.1858      0.68199038
       5596.8712      0.51070114
       5597.5565      0.41841795
       5598.2419     0.065779144
       5598.9273      0.47261517
       5599.6127     -0.28098529
       5600.2981     0.049214438
       5600.9835     -0.15649091
       5601.6689     -0.35950806
       5602.3543      0.81330538
       5603.0396       1.2903329
       5603.7250       1.2075694
       5604.4104      0.50859560
       5605.0958      0.46784987
       5605.7812      0.67895289
       5606.4666     0.037919506
       5607.1520      0.37012954
       5607.8374     -0.15825224
       5608.5228     -0.15122634
       5609.2081      0.57529525
       5609.8935      0.76727108
       5610.5789      0.81820881
       5611.2643      0.86803440
       5611.9497      0.68173389
       5612.6351      0.55369836
       5613.3205      0.73473540
       5614.0059      0.65252309
       5614.6912      0.76191940
       5615.3766       1.0103957
       5616.0620      0.68939579
       5616.7474      0.74015119
       5617.4328      0.63686727
       5618.1182      0.72962208
       5618.8036      0.72739752
       5619.4890      0.54162815
       5620.1744      0.49391077
       5620.8597      0.55803731
       5621.5451      0.36238748
       5622.2305      0.47189558
       5622.9159      0.66656815
       5623.6013      0.67825591
       5624.2867      0.73341006
       5624.9721      0.68149982
       5625.6575      0.60521201
       5626.3428      0.62154219
       5627.0282      0.66161253
       5627.7136      0.75839607
       5628.3990      0.67385137
       5629.0844      0.54100306
       5629.7698      0.48655290
       5630.4552      0.39446147
       5631.1406      0.44856567
       5631.8260      0.72346764
       5632.5113       1.0988930
       5633.1967       1.7108330
       5633.8821       1.3773162
       5634.5675     0.025582772
       5635.2529     -0.62522424
       5635.9383     -0.84667256
       5636.6237      0.81697097
       5637.3091      0.90533685
       5637.9944      0.49944674
       5638.6798      0.57895823
       5639.3652      0.77013025
       5640.0506      0.84932026
       5640.7360      0.67591116
       5641.4214      0.65660685
       5642.1068      0.72274664
       5642.7922      0.62236701
       5643.4775      0.63302095
       5644.1629      0.74451172
       5644.8483      0.73756067
       5645.5337      0.64350455
       5646.2191     -0.48930933
       5646.9045      0.52115228
       5647.5899       1.3323365
       5648.2753      0.42191767
       5648.9607      0.75494815
       5649.6460       1.0099968
       5650.3314       1.1237841
       5651.0168      0.88405266
       5651.7022      0.88002688
       5652.3876      0.77647819
       5653.0730      0.70482669
       5653.7584      0.65370696
       5654.4438      0.62889471
       5655.1291      0.55559900
       5655.8145      0.76326844
       5656.4999      0.67178154
       5657.1853      0.65771911
       5657.8707      0.65169165
       5658.5561      0.67817460
       5659.2415      0.29046313
       5659.9269      0.69763269
       5660.6123      0.41351393
       5661.2976      0.55067963
       5661.9830      0.81528156
       5662.6684      0.88726642
       5663.3538      0.99112573
       5664.0392      0.81760619
       5664.7246      0.64535855
       5665.4100      0.72058315
       5666.0954      0.73505044
       5666.7807      0.52416981
       5667.4661      0.38462253
       5668.1515      0.47202696
       5668.8369      0.79890406
       5669.5223      0.55594245
       5670.2077       1.0338450
       5670.8931      0.20429336
       5671.5785     0.097482191
       5672.2638      0.28500572
       5672.9492      0.53496707
       5673.6346      0.93083240
       5674.3200       1.2750575
       5675.0054       1.5681943
       5675.6908      0.79644120
       5676.3762      0.64042569
       5677.0616      0.62780683
       5677.7470      0.54769003
       5678.4323      0.54978985
       5679.1177      0.59788228
       5679.8031      0.58657305
       5680.4885      0.67383362
       5681.1739      0.57369938
       5681.8593      0.51847396
       5682.5447      0.39300611
       5683.2301      0.56392468
       5683.9154      0.64958181
       5684.6008      0.59326059
       5685.2862      0.68822602
       5685.9716      0.78463345
       5686.6570      0.26983593
       5687.3424      0.14044566
       5688.0278      0.13214834
       5688.7132     -0.35081098
       5689.3986     -0.36445366
       5690.0839      0.51212404
       5690.7693      0.76589867
       5691.4547      0.67618069
       5692.1401      0.50248829
       5692.8255      0.62488844
       5693.5109      0.98257060
       5694.1963      0.59958600
       5694.8817      0.63531720
       5695.5670      0.23534946
       5696.2524    -0.053478419
       5696.9378     -0.19824731
       5697.6232    -0.098435965
       5698.3086    -0.014525743
       5698.9940      0.37939645
       5699.6794      0.20664617
       5700.3648      0.43383690
       5701.0501      0.61516715
       5701.7355      0.92571337
       5702.4209      0.76851266
       5703.1063      0.76347776
       5703.7917      0.57804169
       5704.4771      0.52259038
       5705.1625      0.46745866
       5705.8479      0.58816287
       5706.5333      0.52134794
       5707.2186      0.51528938
