# wavelength flux
       1931.3866    0.0080177639
       1932.0577   -0.0032673562
       1932.7288     0.042219404
       1933.3999    -0.032672709
       1934.0709     0.059403557
       1934.7420     0.017833073
       1935.4131    -0.016952478
       1936.0842    0.0054523395
       1936.7553    -0.033120585
       1937.4263     0.037920102
       1938.0974   -0.0043521147
       1938.7685     0.044417034
       1939.4396     0.038086686
       1940.1107     0.044745891
       1940.7818     0.049409881
       1941.4528     0.016976990
       1942.1239     0.084519910
       1942.7950   -0.0014042902
       1943.4661     0.041380395
       1944.1372     0.021557772
       1944.8082   -0.0080203578
       1945.4793    -0.011239513
       1946.1504   -0.0057488429
       1946.8215     0.087341227
       1947.4926    -0.020107454
       1948.1636    0.0057636492
       1948.8347     0.045199429
       1949.5058   -0.0071046517
       1950.1769   -0.0024946187
       1950.8480    0.0020356867
       1951.5191     0.021701413
       1952.1901     0.025977168
       1952.8612     0.042890012
       1953.5323     0.036738051
       1954.2034    0.0038492461
       1954.8745     0.044051089
       1955.5455     0.021561555
       1956.2166    -0.055345028
       1956.8877     0.053201796
       1957.5588     0.041580295
       1958.2299     0.030222966
       1958.9010     0.023546887
       1959.5720     0.026186441
       1960.2431     0.072791383
       1960.9142     0.015346585
       1961.5853     0.028973619
       1962.2564    -0.014912342
       1962.9274   0.00055271819
       1963.5985    0.0075203789
       1964.2696     0.035148304
       1964.9407     0.024184173
       1965.6118     0.039686940
       1966.2828    0.0054131460
       1966.9539     0.055695371
       1967.6250    0.0011827136
       1968.2961     0.019548430
       1968.9672    0.0034590045
       1969.6383     0.028237287
       1970.3093     0.057011875
       1970.9804     0.010533606
       1971.6515     0.034806890
       1972.3226     0.020971623
       1972.9937   -0.0074763776
       1973.6647   -0.0051263885
       1974.3358     0.034166264
       1975.0069   -0.0091802833
       1975.6780     0.033799961
       1976.3491     0.014868999
       1977.0202    -0.025683328
       1977.6912     0.025452236
       1978.3623    0.0025384046
       1979.0334     0.024631256
       1979.7045     0.010465210
       1980.3756    -0.011623593
       1981.0466     0.022099582
       1981.7177   -0.0013887230
       1982.3888    0.0032870493
       1983.0599     0.050014904
       1983.7310     0.033340836
       1984.4020   -0.0046441325
       1985.0731     0.039751206
       1985.7442     0.035627875
       1986.4153     0.047930736
       1987.0864     0.064796085
       1987.7575     0.050358317
       1988.4285     0.041645123
       1989.0996     0.015848708
       1989.7707     0.036166717
       1990.4418     0.022805056
       1991.1129     0.023325740
       1991.7839     0.042772584
       1992.4550     0.038505701
       1993.1261    0.0095823419
       1993.7972   -0.0015254144
       1994.4683     0.017789865
       1995.1394     0.039925683
       1995.8104     0.018528017
       1996.4815     0.058058239
       1997.1526     0.040388162
       1997.8237     0.011823837
       1998.4948    -0.020409416
       1999.1658     0.015074389
       1999.8369     0.061975128
       2000.5080     0.028740850
       2001.1791     0.036362369
       2001.8502   -0.0047548186
       2002.5212     0.014280817
       2003.1923     0.053107972
       2003.8634     0.075495409
       2004.5345     0.055960308
       2005.2056    -0.017352171
       2005.8767   -0.0052995842
       2006.5477     0.029963776
       2007.2188     0.035736373
       2007.8899   8.8196572e-05
       2008.5610     0.055384539
       2009.2321     0.031990039
       2009.9031     0.046801945
       2010.5742     0.045466494
       2011.2453     0.088221141
       2011.9164     0.062991568
       2012.5875     0.028570252
       2013.2586     0.050338107
       2013.9296     0.050991051
       2014.6007     0.034837558
       2015.2718   -0.0095920361
       2015.9429     0.031651382
       2016.6140     0.042245997
       2017.2850     0.034789605
       2017.9561     0.040026863
       2018.6272     0.043790666
       2019.2983     0.047548836
       2019.9694     0.054145640
       2020.6405     0.017085936
       2021.3115     0.027651222
       2021.9826     0.043814711
       2022.6537     0.028038639
       2023.3248     0.032831411
       2023.9959     0.028469217
       2024.6669     0.010596408
       2025.3380     0.044791972
       2026.0091     0.014369552
       2026.6802     0.034583248
       2027.3513     0.090029310
       2028.0223     0.051267358
       2028.6934     0.071926721
       2029.3645    0.0031394384
       2030.0356     0.055849396
       2030.7067     0.019098512
       2031.3778     0.044920897
       2032.0488    -0.027750931
       2032.7199    -0.026990699
       2033.3910    0.0011191821
       2034.0621    0.0075966687
       2034.7332    0.0079914196
       2035.4042     0.020014576
       2036.0753     0.022995164
       2036.7464    0.0071673042
       2037.4175     0.081047570
       2038.0886     0.062691121
       2038.7597     0.054129802
       2039.4307     0.029703687
       2040.1018     0.030045018
       2040.7729     0.058866917
       2041.4440     0.037433236
       2042.1151     0.046118464
       2042.7861     0.051096613
       2043.4572     0.035648347
       2044.1283     0.058146188
       2044.7994     0.024057984
       2045.4705     0.070133713
       2046.1415     0.060252296
       2046.8126     0.018118964
       2047.4837     0.048884253
       2048.1548     0.021979995
       2048.8259     0.028415356
       2049.4970     0.029768938
       2050.1680     0.036837988
       2050.8391   0.00031622821
       2051.5102     0.055809041
       2052.1813     0.024835624
       2052.8524     0.018194419
       2053.5234   -0.0086455175
       2054.1945     0.014981926
       2054.8656    0.0026617269
       2055.5367     0.012890055
       2056.2078     0.076297482
       2056.8789    -0.025129463
       2057.5499     0.015646285
       2058.2210    0.0050702977
       2058.8921     0.039442170
       2059.5632     0.056469556
       2060.2343     0.067951969
       2060.9053   -0.0064583814
       2061.5764     0.070647467
       2062.2475     0.063518957
       2062.9186     0.024871841
       2063.5897     0.058793352
       2064.2607     0.029758705
       2064.9318     0.045745963
       2065.6029     0.010669916
       2066.2740     0.039960745
       2066.9451    0.0016033038
       2067.6162     0.013727700
       2068.2872     0.053561230
       2068.9583     0.031850467
       2069.6294     0.028476127
       2070.3005     0.032727322
       2070.9716     0.029546984
       2071.6426     0.048812952
       2072.3137     0.017169079
       2072.9848     0.029606431
       2073.6559     0.054433609
       2074.3270     0.010060540
       2074.9981     0.037216685
       2075.6691     0.077062554
       2076.3402     0.024720044
       2077.0113     0.035525109
       2077.6824     0.026717206
       2078.3535     0.061991737
       2079.0245     0.086341905
       2079.6956    -0.021372267
       2080.3667     0.074705932
       2081.0378     0.016988686
       2081.7089     0.018263086
       2082.3799     0.023032040
       2083.0510     0.042293674
       2083.7221     0.049318731
       2084.3932     0.082462623
       2085.0643     0.011861308
       2085.7354     0.054736640
       2086.4064     0.016085340
       2087.0775     0.023463343
       2087.7486    -0.010090063
       2088.4197     0.016262250
       2089.0908     0.031424414
       2089.7618     0.065191039
       2090.4329     0.038513634
       2091.1040     0.038843674
       2091.7751     0.014701819
       2092.4462     0.022835199
       2093.1173     0.037757987
       2093.7883     0.028489849
       2094.4594     0.047694571
       2095.1305   -0.0083152578
       2095.8016     0.027025285
       2096.4727     0.056740248
       2097.1437     0.045739212
       2097.8148     0.078643874
       2098.4859     0.030236302
       2099.1570     0.043014183
       2099.8281     0.042783555
       2100.4991     0.031804828
       2101.1702     0.051539310
       2101.8413     0.017808777
       2102.5124     0.047891124
       2103.1835     0.043240048
       2103.8546     0.020220816
       2104.5256     0.039086601
       2105.1967     0.011204775
       2105.8678     0.055039613
       2106.5389     0.054744099
       2107.2100     0.041213669
       2107.8810     0.048009550
       2108.5521     0.045097341
       2109.2232     0.031995858
       2109.8943     0.069712625
       2110.5654     0.031928005
       2111.2365     0.014128135
       2111.9075     0.049486141
       2112.5786     0.046984984
       2113.2497     0.043576062
       2113.9208     0.037697988
       2114.5919     0.016841261
       2115.2629     0.044508096
       2115.9340     0.026715511
       2116.6051     0.059739723
       2117.2762     0.052401036
       2117.9473     0.027528874
       2118.6183     0.021293038
       2119.2894     0.054426586
       2119.9605     0.054565387
       2120.6316     0.085272808
       2121.3027     0.034463626
       2121.9738     0.015056916
       2122.6448    0.0052577356
       2123.3159    0.0075558088
       2123.9870     0.071278748
       2124.6581    0.0017810214
       2125.3292     0.034055978
       2126.0002     0.030357730
       2126.6713     0.061151551
       2127.3424     0.061536174
       2128.0135     0.039562633
       2128.6846     0.022604311
       2129.3557    0.0057473608
       2130.0267     0.037392644
       2130.6978     0.019392031
       2131.3689    0.0021191340
       2132.0400     0.026425046
       2132.7111  -0.00029735955
       2133.3821     0.020663830
       2134.0532     0.023081362
       2134.7243     0.037884957
       2135.3954     0.036439843
       2136.0665     0.016698226
       2136.7375     0.052294918
       2137.4086     0.027871391
       2138.0797     0.056672071
       2138.7508   -0.0016216872
       2139.4219     0.054564698
       2140.0930     0.047582994
       2140.7640     0.074386954
       2141.4351    0.0010794694
       2142.1062     0.041718915
       2142.7773     0.022103985
       2143.4484    -0.011728306
       2144.1194   -0.0087853045
       2144.7905     0.026613042
       2145.4616     0.054219015
       2146.1327     0.054199922
       2146.8038     0.031822732
       2147.4749     0.047420192
       2148.1459     0.055567277
       2148.8170     0.032677497
       2149.4881     0.019721123
       2150.1592     0.031113547
       2150.8303     0.034316846
       2151.5013    0.0092155772
       2152.1724     0.010341424
       2152.8435    0.0050699366
       2153.5146   -0.0010884074
       2154.1857   -0.0010609110
       2154.8567     0.026602175
       2155.5278     0.012501458
       2156.1989     0.021591498
       2156.8700     0.025065205
       2157.5411     0.048157245
       2158.2122     0.037911116
       2158.8832     0.031897249
       2159.5543     0.058213040
       2160.2254     0.020827168
       2160.8965     0.025160798
       2161.5676     0.079100476
       2162.2386     0.022587617
       2162.9097     0.015601537
       2163.5808    0.0020854112
       2164.2519     0.042500178
       2164.9230     0.036993460
       2165.5941     0.042720779
       2166.2651     0.066980883
       2166.9362     0.036729781
       2167.6073     0.050404408
       2168.2784     0.029769590
       2168.9495     0.057425113
       2169.6205     0.033063697
       2170.2916     0.011437700
       2170.9627     0.040290901
       2171.6338     0.016141182
       2172.3049    0.0063462135
       2172.9759     0.054564174
       2173.6470     0.066968598
       2174.3181     0.027364139
       2174.9892    0.0035957344
       2175.6603     0.048752426
       2176.3314     0.026176746
       2177.0024     0.039841655
       2177.6735     0.020992402
       2178.3446     0.046442039
       2179.0157     0.055810533
       2179.6868     0.066589608
       2180.3578     0.084789412
       2181.0289     0.053715560
       2181.7000     0.074709191
       2182.3711     0.024634538
       2183.0422     0.028526215
       2183.7133     0.056787829
       2184.3843     0.047583261
       2185.0554     0.041992287
       2185.7265     0.029284435
       2186.3976     0.037481633
       2187.0687     0.062728325
       2187.7397   -0.0027499610
       2188.4108     0.075385181
       2189.0819     0.013708265
       2189.7530     0.010231009
       2190.4241    -0.013436281
       2191.0952     0.051175727
       2191.7662     0.072119211
       2192.4373     0.055639763
       2193.1084     0.042997414
       2193.7795     0.063593266
       2194.4506     0.055709138
       2195.1216     0.049697876
       2195.7927     0.044525925
       2196.4638     0.036190185
       2197.1349     0.038602717
       2197.8060      0.11900303
       2198.4770     0.034714936
       2199.1481     0.084548856
       2199.8192     0.049862741
       2200.4903     0.019602194
       2201.1614     0.037719713
       2201.8325     0.049234970
       2202.5035     0.049199463
       2203.1746     0.090812609
       2203.8457     0.013075804
       2204.5168     0.012150794
       2205.1879     0.035487684
       2205.8589     0.074529931
       2206.5300     0.054369663
       2207.2011     0.057432452
       2207.8722     0.025305231
       2208.5433    0.0088862634
       2209.2144     0.032497857
       2209.8854    0.0013774149
       2210.5565     0.032312976
       2211.2276     0.051369724
       2211.8987     0.039210070
       2212.5698     0.054784899
       2213.2408     0.072946383
       2213.9119     0.063919265
       2214.5830     0.036429984
       2215.2541     0.043857582
       2215.9252     0.024793467
       2216.5962     0.032579051
       2217.2673     0.036990150
       2217.9384     0.058457774
       2218.6095     0.071755601
       2219.2806     0.038222525
       2219.9517     0.033882564
       2220.6227     0.024842501
       2221.2938     0.035264110
       2221.9649     0.035491698
       2222.6360     0.020597813
       2223.3071     0.012126247
       2223.9781     0.039293657
       2224.6492     0.011424896
       2225.3203     0.030993004
       2225.9914     0.032337909
       2226.6625     0.034040505
       2227.3336     0.047453517
       2228.0046     0.036923472
       2228.6757     0.029123360
       2229.3468     0.074711772
       2230.0179     0.032987866
       2230.6890     0.030870453
       2231.3600     0.027119364
       2232.0311     0.048032049
       2232.7022     0.052053766
       2233.3733     0.036590544
       2234.0444     0.092313430
       2234.7154     0.035144907
       2235.3865     0.015216383
       2236.0576     0.051849122
       2236.7287     0.015974978
       2237.3998     0.020954097
       2238.0709     0.049945160
       2238.7419     0.033937153
       2239.4130     0.045591549
       2240.0841     0.039231933
       2240.7552     0.010410587
       2241.4263     0.046097005
       2242.0973     0.042045200
       2242.7684     0.032665721
       2243.4395     0.024131383
       2244.1106     0.022012553
       2244.7817     0.051554992
       2245.4528     0.053097776
       2246.1238     0.036537317
       2246.7949     0.061096347
       2247.4660     0.033204655
       2248.1371     0.012270240
       2248.8082     0.019653707
       2249.4792     0.034915422
       2250.1503     0.059422231
       2250.8214     0.051655691
       2251.4925     0.065907848
       2252.1636     0.014483912
       2252.8346     0.027679536
       2253.5057     0.011691367
       2254.1768     0.029069105
       2254.8479     0.068025581
       2255.5190     0.024403716
       2256.1901     0.052990298
       2256.8611     0.038211290
       2257.5322     0.047136727
       2258.2033     0.047946224
       2258.8744     0.058971815
       2259.5455     0.046995038
       2260.2165     0.078367702
       2260.8876     0.066861405
       2261.5587     0.057850717
       2262.2298     0.067390082
       2262.9009     0.068716382
       2263.5720     0.011467958
       2264.2430     0.065550444
       2264.9141     0.064496997
       2265.5852   -0.0074354730
       2266.2563     0.057552774
       2266.9274     0.027758997
       2267.5984     0.032246767
       2268.2695     0.014790245
       2268.9406      0.11313638
       2269.6117     0.052101570
       2270.2828     0.028495254
       2270.9538     0.058956737
       2271.6249     0.050094503
       2272.2960     0.052294506
       2272.9671     0.063998219
       2273.6382     0.040275804
       2274.3093     0.060296175
       2274.9803     0.057151830
       2275.6514     0.061194697
       2276.3225     0.039156054
       2276.9936     0.037343287
       2277.6647     0.066198928
       2278.3357     0.017061387
       2279.0068     0.080719525
       2279.6779     0.049365903
       2280.3490     0.053442183
       2281.0201     0.065587454
       2281.6912     0.052660736
       2282.3622     0.034368645
       2283.0333     0.021303689
       2283.7044     0.068426159
       2284.3755     0.081824868
       2285.0466     0.048040124
       2285.7176     0.076879427
       2286.3887     0.072084785
       2287.0598     0.037199245
       2287.7309     0.057004961
       2288.4020     0.062304436
       2289.0730     0.078807562
       2289.7441     0.066441374
       2290.4152     0.053228508
       2291.0863     0.014151956
       2291.7574     0.042305617
       2292.4285     0.066187503
       2293.0995     0.055812006
       2293.7706     0.059524187
       2294.4417     0.045043342
       2295.1128     0.049863364
       2295.7839     0.060705120
       2296.4549     0.049677548
       2297.1260   -0.0019957920
       2297.7971    0.0099143071
       2298.4682     0.017397739
       2299.1393     0.042825708
       2299.8104     0.053064497
       2300.4814     0.091283138
       2301.1525     0.042474710
       2301.8236     0.043272621
       2302.4947     0.075632251
       2303.1658     0.037208891
       2303.8368     0.061213425
       2304.5079     0.066255165
       2305.1790     0.034330605
       2305.8501     0.056857620
       2306.5212     0.063696123
       2307.1922     0.070745385
       2307.8633     0.019100932
       2308.5344     0.060319327
       2309.2055     0.086201566
       2309.8766     0.037688254
       2310.5477     0.053674213
       2311.2187     0.072800868
       2311.8898     0.017346865
       2312.5609     0.080120460
       2313.2320    0.0085636812
       2313.9031     0.083096993
       2314.5741     0.044852285
       2315.2452     0.059227524
       2315.9163     0.067898191
       2316.5874     0.030857879
       2317.2585     0.036307892
       2317.9296     0.044316088
       2318.6006     0.036625394
       2319.2717     0.055876814
       2319.9428     0.053909632
       2320.6139     0.045234015
       2321.2850     0.073368618
       2321.9560     0.062700956
       2322.6271     0.053436309
       2323.2982     0.054310170
       2323.9693     0.058678127
       2324.6404     0.050072401
       2325.3114     0.057454282
       2325.9825     0.038782545
       2326.6536     0.049970648
       2327.3247     0.066718173
       2327.9958     0.060995662
       2328.6669     0.059089215
       2329.3379     0.058594277
       2330.0090     0.051686257
       2330.6801     0.063728523
       2331.3512    0.0072649576
       2332.0223     0.060970616
       2332.6933     0.051263904
       2333.3644     0.048523912
       2334.0355     0.060852775
       2334.7066     0.052985280
       2335.3777     0.054358508
       2336.0488     0.054675169
       2336.7198     0.050244648
       2337.3909     0.097145345
       2338.0620     0.067047844
       2338.7331     0.086335059
       2339.4042     0.028854655
       2340.0752     0.051690621
       2340.7463     0.049165375
       2341.4174     0.023743852
       2342.0885     0.018327872
       2342.7596     0.012653630
       2343.4307     0.032279244
       2344.1017     0.058100494
       2344.7728     0.045214716
       2345.4439     0.017042643
       2346.1150     0.020954991
       2346.7861     0.038265630
       2347.4571     0.046499734
       2348.1282     0.036242042
       2348.7993     0.047237147
       2349.4704     0.090230214
       2350.1415     0.072858921
       2350.8125    -0.011615067
       2351.4836     0.076389396
       2352.1547     0.066511683
       2352.8258     0.099110532
       2353.4969     0.081052239
       2354.1680     0.018482706
       2354.8390     0.039167352
       2355.5101     0.083619285
       2356.1812     0.077282385
       2356.8523     0.068413351
       2357.5234     0.073668781
       2358.1944     0.069817955
       2358.8655     0.053151613
       2359.5366     0.034801894
       2360.2077     0.033735095
       2360.8788     0.023065883
       2361.5499     0.052505529
       2362.2209     0.058334284
       2362.8920     0.040065814
       2363.5631     0.052544987
       2364.2342     0.078482124
       2364.9053     0.031998540
       2365.5763     0.028860364
       2366.2474     0.029101599
       2366.9185     0.071932478
       2367.5896     0.041280424
       2368.2607     0.060874715
       2368.9317      0.10234964
       2369.6028     0.087548078
       2370.2739     0.067875161
       2370.9450     0.046330286
       2371.6161     0.063430579
       2372.2872     0.045421499
       2372.9582     0.042749369
       2373.6293     0.060291588
       2374.3004     0.061602306
       2374.9715     0.030114436
       2375.6426     0.031311955
       2376.3136     0.017169700
       2376.9847     0.028778996
       2377.6558     0.047895959
       2378.3269     0.042642069
       2378.9980     0.055024248
       2379.6691     0.052205753
       2380.3401     0.056350290
       2381.0112     0.058246202
       2381.6823     0.053463548
       2382.3534     0.042522892
       2383.0245     0.040516554
       2383.6955     0.040557497
       2384.3666     0.023275488
       2385.0377     0.035292670
       2385.7088     0.022261716
       2386.3799     0.039281481
       2387.0509     0.028494692
       2387.7220     0.054175011
       2388.3931     0.017674869
       2389.0642     0.057220648
       2389.7353     0.063104148
       2390.4064     0.047427804
       2391.0774     0.030950831
       2391.7485     0.074982278
       2392.4196     0.054790734
       2393.0907     0.029133173
       2393.7618     0.027014875
       2394.4328     0.031909793
       2395.1039     0.036374182
       2395.7750     0.039424778
       2396.4461     0.064331101
       2397.1172     0.040656689
       2397.7883     0.031431757
       2398.4593     0.065333284
       2399.1304    0.0058237808
       2399.8015     0.089911276
       2400.4726     0.042551276
       2401.1437     0.031971381
       2401.8147     0.059601099
       2402.4858     0.059500626
       2403.1569     0.030001987
       2403.8280     0.055392504
       2404.4991     0.047811348
       2405.1701    -0.012555425
       2405.8412     0.072197738
       2406.5123     0.025991998
       2407.1834     0.025675973
       2407.8545     0.028628654
       2408.5256     0.063493028
       2409.1966     0.068867908
       2409.8677     0.038376622
       2410.5388     0.055788793
       2411.2099     0.063033940
       2411.8810     0.025339192
       2412.5520     0.053569040
       2413.2231     0.064311577
       2413.8942     0.066030924
       2414.5653     0.056350018
       2415.2364     0.052520154
       2415.9075     0.028603855
       2416.5785     0.054124660
       2417.2496     0.077105075
       2417.9207     0.062050165
       2418.5918     0.039392911
       2419.2629     0.027953988
       2419.9339     0.028027978
       2420.6050     0.051432352
       2421.2761     0.040366817
       2421.9472     0.044482398
       2422.6183     0.046631045
       2423.2893     0.045778712
       2423.9604     0.039220888
       2424.6315     0.079593826
       2425.3026     0.055013585
       2425.9737     0.037795853
       2426.6448     0.071804793
       2427.3158     0.058768517
       2427.9869     0.031728079
       2428.6580     0.055297631
       2429.3291     0.032196621
       2430.0002     0.051693487
       2430.6712     0.036438254
       2431.3423     0.047866416
       2432.0134     0.050433041
       2432.6845     0.073625023
       2433.3556     0.046796532
       2434.0267     0.059217805
       2434.6977     0.060561317
       2435.3688     0.055246713
       2436.0399     0.068036716
       2436.7110     0.076463094
       2437.3821     0.064393973
       2438.0531     0.019756950
       2438.7242     0.029094973
       2439.3953     0.054707921
       2440.0664     0.055965635
       2440.7375     0.048335883
       2441.4085     0.064575771
       2442.0796     0.045076358
       2442.7507     0.043944435
       2443.4218     0.043685984
       2444.0929     0.069069689
       2444.7640     0.044117099
       2445.4350     0.056136503
       2446.1061     0.034678958
       2446.7772     0.044188230
       2447.4483     0.047550170
       2448.1194     0.046427077
       2448.7904     0.074142468
       2449.4615     0.057108575
       2450.1326     0.051934681
       2450.8037     0.064011877
       2451.4748     0.087037752
       2452.1459     0.030533704
       2452.8169     0.049463693
       2453.4880      0.10907719
       2454.1591     0.053454695
       2454.8302    0.0075359955
       2455.5013     0.056527859
       2456.1723     0.037784967
       2456.8434     0.044188168
       2457.5145     0.019535065
       2458.1856     0.064490165
       2458.8567     0.046051883
       2459.5277     0.088702861
       2460.1988     0.071682680
       2460.8699     0.059706291
       2461.5410     0.089496511
       2462.2121     0.051471718
       2462.8832     0.038714030
       2463.5542     0.050253740
       2464.2253     0.049605194
       2464.8964     0.064030687
       2465.5675     0.035368243
       2466.2386     0.039969722
       2466.9096     0.041474646
       2467.5807     0.030541892
       2468.2518     0.050630116
       2468.9229     0.064122572
       2469.5940     0.043848632
       2470.2651     0.029622335
       2470.9361     0.044621438
       2471.6072     0.068598106
       2472.2783     0.049657985
       2472.9494     0.057868345
       2473.6205     0.064942452
       2474.2915     0.055619809
       2474.9626     0.061622456
       2475.6337     0.078012992
       2476.3048     0.041422301
       2476.9759     0.035518202
       2477.6469     0.036299279
       2478.3180     0.043323006
       2478.9891     0.076258286
       2479.6602     0.054993089
       2480.3313     0.065286776
       2481.0024     0.078464696
       2481.6734     0.075314944
       2482.3445     0.066413107
       2483.0156     0.060655512
       2483.6867     0.070235956
       2484.3578     0.019734921
       2485.0288     0.087144910
       2485.6999     0.079664535
       2486.3710     0.038477708
       2487.0421     0.057402573
       2487.7132     0.043951096
       2488.3843    0.0043887790
       2489.0553     0.054717032
       2489.7264     0.062616395
       2490.3975     0.027047814
       2491.0686     0.028286130
       2491.7397     0.085903356
       2492.4107      0.10872054
       2493.0818     0.078709565
       2493.7529     0.075130498
       2494.4240     0.079782890
       2495.0951     0.021879776
       2495.7661     0.050896083
       2496.4372     0.046470678
       2497.1083     0.037814416
       2497.7794     0.038094943
       2498.4505     0.035970258
       2499.1216     0.028450453
       2499.7926     0.059946056
       2500.4637     0.086055653
       2501.1348     0.070656290
       2501.8059     0.075854190
       2502.4770     0.039091424
       2503.1480     0.013360386
       2503.8191     0.045329913
       2504.4902     0.051880160
       2505.1613     0.068671222
       2505.8324     0.086387838
       2506.5035     0.050980104
       2507.1745     0.055689518
       2507.8456     0.085302913
       2508.5167     0.031406658
       2509.1878     0.080216531
       2509.8589     0.083085991
       2510.5299      0.10254546
       2511.2010     0.016050672
       2511.8721     0.064811832
       2512.5432     0.076071034
       2513.2143     0.012774130
       2513.8854     0.062293822
       2514.5564     0.094008921
       2515.2275     0.074147003
       2515.8986     0.061572817
       2516.5697     0.060206562
       2517.2408     0.054632430
       2517.9118     0.018753605
       2518.5829     0.056353390
       2519.2540     0.061657198
       2519.9251     0.050099856
       2520.5962     0.055902536
       2521.2672     0.043986204
       2521.9383     0.042533009
       2522.6094     0.032544770
       2523.2805     0.074831489
       2523.9516     0.051813248
       2524.6227     0.048991623
       2525.2937     0.051827592
       2525.9648     0.058690505
       2526.6359     0.090591364
       2527.3070     0.041636647
       2527.9781     0.063528877
       2528.6491     0.029041638
       2529.3202     0.049519819
       2529.9913     0.087343915
       2530.6624     0.052082681
       2531.3335     0.082510163
       2532.0046     0.048124324
       2532.6756     0.028715979
       2533.3467     0.076923585
       2534.0178     0.056521617
       2534.6889     0.075404750
       2535.3600     0.038396418
       2536.0310     0.036659233
       2536.7021     0.074091409
       2537.3732     0.064124172
       2538.0443     0.057809186
       2538.7154     0.096026827
       2539.3864     0.098583281
       2540.0575     0.074294502
       2540.7286     0.054968383
       2541.3997    0.0050949668
       2542.0708     0.069939819
       2542.7419     0.048600402
       2543.4129     0.077044540
       2544.0840     0.080987254
       2544.7551     0.037466368
       2545.4262     0.082938729
       2546.0973     0.027153499
       2546.7683     0.044272663
       2547.4394     0.045063661
       2548.1105     0.076578697
       2548.7816     0.086384825
       2549.4527     0.041034774
       2550.1238     0.052946925
       2550.7948     0.058212934
       2551.4659     0.056263768
       2552.1370     0.077874178
       2552.8081     0.081218848
       2553.4792     0.057451532
       2554.1502     0.056429239
       2554.8213     0.065348948
       2555.4924     0.067710888
       2556.1635     0.065260735
       2556.8346     0.048770792
       2557.5056     0.054658415
       2558.1767     0.081048754
       2558.8478     0.061719382
       2559.5189     0.070916070
       2560.1900     0.079198269
       2560.8611     0.048333144
       2561.5321     0.088442373
       2562.2032     0.047029238
       2562.8743     0.094075543
       2563.5454     0.074361540
       2564.2165     0.071687608
       2564.8875      0.11537302
       2565.5586     0.063167092
       2566.2297      0.12377104
       2566.9008     0.073300425
       2567.5719     0.040033135
       2568.2430     0.069124157
       2568.9140     0.095655153
       2569.5851     0.059983625
       2570.2562     0.057380260
       2570.9273     0.058023035
       2571.5984     0.069278896
       2572.2694     0.058789270
       2572.9405     0.026702473
       2573.6116     0.017002431
       2574.2827     0.088225543
       2574.9538     0.031813937
       2575.6248     0.057685430
       2576.2959     0.072403437
       2576.9670     0.062880004
       2577.6381     0.034952527
       2578.3092     0.025471771
       2578.9803     0.048169501
       2579.6513     0.055317116
       2580.3224     0.043636436
       2580.9935     0.058620916
       2581.6646     0.088319260
       2582.3357     0.055380594
       2583.0067     0.075657069
       2583.6778     0.084498387
       2584.3489     0.072712703
       2585.0200     0.080133406
       2585.6911     0.029541435
       2586.3622     0.061687765
       2587.0332     0.042632433
       2587.7043     0.056631746
       2588.3754     0.074010271
       2589.0465     0.043263530
       2589.7176     0.073270236
       2590.3886     0.036288399
       2591.0597     0.053375191
       2591.7308     0.051987731
       2592.4019     0.069299314
       2593.0730     0.047424486
       2593.7440     0.089351758
       2594.4151  -5.9769337e-05
       2595.0862     0.080280896
       2595.7573     0.023412708
       2596.4284      0.11874471
       2597.0995     0.068245255
       2597.7705     0.062806255
       2598.4416     0.056462854
       2599.1127     0.068765238
       2599.7838     0.055775555
       2600.4549     0.050047534
       2601.1259     0.043122086
       2601.7970     0.055990181
       2602.4681     0.055943135
       2603.1392     0.043912464
       2603.8103     0.058346653
       2604.4814     0.028171779
       2605.1524     0.060968240
       2605.8235     0.051781246
       2606.4946     0.057349580
       2607.1657     0.072386771
       2607.8368     0.063118739
       2608.5078     0.047425348
       2609.1789     0.096773468
       2609.8500     0.058466423
       2610.5211     0.081146749
       2611.1922     0.086814047
       2611.8632     0.092187296
       2612.5343     0.037130582
       2613.2054     0.062652225
       2613.8765     0.059742396
       2614.5476     0.069835214
       2615.2187     0.067630237
       2615.8897     0.077687998
       2616.5608     0.058644030
       2617.2319     0.058417777
       2617.9030     0.045580211
       2618.5741     0.040566559
       2619.2451     0.089655785
       2619.9162      0.10100469
       2620.5873     0.047665567
       2621.2584     0.057452951
       2621.9295     0.043045507
       2622.6006     0.058592701
       2623.2716     0.039773266
       2623.9427     0.064074719
       2624.6138     0.086538370
       2625.2849     0.079824170
       2625.9560     0.053931155
       2626.6270     0.063251759
       2627.2981     0.044159121
       2627.9692     0.065180313
       2628.6403     0.098598759
       2629.3114      0.10908153
       2629.9824     0.079363237
       2630.6535     0.061853666
       2631.3246     0.043979610
       2631.9957     0.057109163
       2632.6668     0.093698529
       2633.3379     0.064113223
       2634.0089     0.066484526
       2634.6800     0.076522134
       2635.3511     0.072599450
       2636.0222     0.040685967
       2636.6933     0.047520443
       2637.3643     0.040403716
       2638.0354     0.025582457
       2638.7065     0.060845846
       2639.3776     0.069333783
       2640.0487     0.070758974
       2640.7198     0.048454537
       2641.3908     0.085312188
       2642.0619     0.036630205
       2642.7330     0.079380252
       2643.4041     0.071486725
       2644.0752     0.054792343
       2644.7462     0.069963179
       2645.4173     0.069576949
       2646.0884     0.057093219
       2646.7595     0.085869153
       2647.4306     0.070861097
       2648.1016     0.098659604
       2648.7727     0.082116614
       2649.4438     0.063975090
       2650.1149     0.092173843
       2650.7860     0.054019162
       2651.4571     0.072819731
       2652.1281      0.12416836
       2652.7992     0.060675154
       2653.4703     0.069125406
       2654.1414     0.074452247
       2654.8125     0.059170543
       2655.4835     0.051407219
       2656.1546     0.083002716
       2656.8257     0.040670925
       2657.4968     0.054418852
       2658.1679      0.10870745
       2658.8390     0.083341355
       2659.5100     0.089586319
       2660.1811     0.061397461
       2660.8522     0.059303003
       2661.5233     0.079577350
       2662.1944     0.066238484
       2662.8654      0.10644953
       2663.5365     0.084138572
       2664.2076     0.062982413
       2664.8787     0.048546002
       2665.5498     0.089477651
       2666.2209     0.081495731
       2666.8919      0.14047412
       2667.5630     0.072910231
       2668.2341     0.064138344
       2668.9052     0.021034407
       2669.5763     0.093067788
       2670.2473     0.067340876
       2670.9184     0.018714840
       2671.5895     0.054006258
       2672.2606     0.055684195
       2672.9317     0.055293776
       2673.6027     0.073249452
       2674.2738     0.074734574
       2674.9449     0.084212831
       2675.6160     0.054891326
       2676.2871     0.067421502
       2676.9582     0.070328041
       2677.6292     0.068792652
       2678.3003     0.082989504
       2678.9714     0.078325527
       2679.6425     0.083775282
       2680.3136     0.042214687
       2680.9846     0.078745522
       2681.6557     0.076981542
       2682.3268     0.091400514
       2682.9979     0.061912403
       2683.6690     0.094018069
       2684.3401     0.057434871
       2685.0111     0.096335209
       2685.6822     0.060061925
       2686.3533     0.071123809
       2687.0244     0.051859005
       2687.6955     0.055664719
       2688.3665     0.060290985
       2689.0376     0.071195330
       2689.7087     0.043677854
       2690.3798     0.079999313
       2691.0509      0.10732666
       2691.7219     0.090701871
       2692.3930     0.041481798
       2693.0641     0.043002235
       2693.7352     0.091689975
       2694.4063     0.084059760
       2695.0774     0.042518724
       2695.7484     0.070185287
       2696.4195     0.075467149
       2697.0906      0.10524059
       2697.7617     0.089946061
       2698.4328     0.070041223
       2699.1038     0.075329639
       2699.7749     0.061365819
       2700.4460     0.055366459
       2701.1171     0.080400289
       2701.7882     0.065605948
       2702.4593     0.088282787
       2703.1303     0.091913740
       2703.8014     0.087434654
       2704.4725     0.058540741
       2705.1436     0.084509506
       2705.8147     0.053615591
       2706.4857     0.070230904
       2707.1568     0.084748410
       2707.8279     0.074057875
       2708.4990     0.092695800
       2709.1701     0.070013314
       2709.8411     0.049261770
       2710.5122     0.084075390
       2711.1833     0.052763015
       2711.8544     0.061122849
       2712.5255     0.082024893
       2713.1966     0.056205277
       2713.8676     0.099227191
       2714.5387     0.072602621
       2715.2098     0.089566293
       2715.8809     0.090353369
       2716.5520     0.067055021
       2717.2230     0.073626092
       2717.8941     0.083802106
       2718.5652     0.075822310
       2719.2363     0.066721725
       2719.9074     0.079558251
       2720.5785     0.064818421
       2721.2495     0.080751142
       2721.9206     0.082103040
       2722.5917     0.054580596
       2723.2628     0.069337529
       2723.9339     0.032071484
       2724.6049     0.076782130
       2725.2760     0.061248890
       2725.9471     0.083692013
       2726.6182     0.032996772
       2727.2893     0.084224441
       2727.9603     0.080873128
       2728.6314     0.079645906
       2729.3025     0.036547538
       2729.9736     0.095436605
       2730.6447     0.080328907
       2731.3158      0.12127324
       2731.9868     0.077899025
       2732.6579     0.079832645
       2733.3290     0.046221635
       2734.0001     0.079566818
       2734.6712     0.063881788
       2735.3422     0.051637997
       2736.0133      0.10193701
       2736.6844     0.058195442
       2737.3555     0.057105846
       2738.0266     0.075997835
       2738.6977     0.087174571
       2739.3687     0.083582117
       2740.0398     0.075849514
       2740.7109      0.10803955
       2741.3820     0.082352577
       2742.0531      0.11046311
       2742.7241     0.070130479
       2743.3952      0.11753108
       2744.0663     0.061295009
       2744.7374     0.087884993
       2745.4085      0.11410798
       2746.0795     0.080647455
       2746.7506     0.089184115
       2747.4217     0.047593504
       2748.0928     0.040338183
       2748.7639     0.082901604
       2749.4350     0.071019091
       2750.1060     0.071450075
       2750.7771     0.083343247
       2751.4482     0.062371838
       2752.1193     0.084096946
       2752.7904     0.057296915
       2753.4614      0.10386937
       2754.1325     0.051115526
       2754.8036     0.061656116
       2755.4747      0.10271505
       2756.1458     0.053508069
       2756.8169     0.093583901
       2757.4879     0.047131251
       2758.1590     0.018373153
       2758.8301     0.062386545
       2759.5012     0.091967677
       2760.1723      0.10242815
       2760.8433     0.084321237
       2761.5144     0.088156773
       2762.1855     0.063325075
       2762.8566     0.052549227
       2763.5277     0.065746708
       2764.1987      0.10533812
       2764.8698     0.063593215
       2765.5409     0.077701320
       2766.2120     0.099423934
       2766.8831     0.037277843
       2767.5542     0.072258531
       2768.2252     0.083554373
       2768.8963     0.098249408
       2769.5674      0.10749701
       2770.2385     0.082484588
       2770.9096     0.031688881
       2771.5806     0.045302192
       2772.2517      0.12269497
       2772.9228     0.076367376
       2773.5939     0.044891429
       2774.2650     0.071541482
       2774.9361     0.045787412
       2775.6071     0.077473158
       2776.2782     0.079273303
       2776.9493     0.085851284
       2777.6204     0.087863149
       2778.2915     0.088625220
       2778.9625     0.066894650
       2779.6336     0.073623223
       2780.3047     0.045659716
       2780.9758     0.077555573
       2781.6469      0.10838477
       2782.3179     0.034844880
       2782.9890     0.098355443
       2783.6601     0.064531486
       2784.3312     0.058606914
       2785.0023     0.095944098
       2785.6734     0.071432977
       2786.3444     0.093404142
       2787.0155     0.066386036
       2787.6866     0.077653619
       2788.3577      0.11029634
       2789.0288     0.061100208
       2789.6998     0.085124262
       2790.3709     0.066438807
       2791.0420     0.080390101
       2791.7131     0.063422000
       2792.3842     0.076002926
       2793.0553     0.037646692
       2793.7263     0.052359838
       2794.3974     0.031364174
       2795.0685     0.029306581
       2795.7396     0.025747539
       2796.4107     0.058046253
       2797.0817     0.026961788
       2797.7528   -0.0042929495
       2798.4239     0.034685612
       2799.0950     0.036530158
       2799.7661     0.057580208
       2800.4371     0.025849579
       2801.1082    0.0094735537
       2801.7793     0.055173388
       2802.4504     0.080359271
       2803.1215     0.012190660
       2803.7926     0.021596590
       2804.4636     0.019617792
       2805.1347     0.019259295
       2805.8058     0.030187075
       2806.4769     0.032226834
       2807.1480     0.049524889
       2807.8190     0.066214931
       2808.4901     0.034216808
       2809.1612     0.031799577
       2809.8323     0.068238499
       2810.5034     0.077172621
       2811.1745      0.10989234
       2811.8455     0.074611291
       2812.5166     0.093595082
       2813.1877     0.062688174
       2813.8588     0.072378025
       2814.5299     0.050001945
       2815.2009     0.063684833
       2815.8720     0.049798263
       2816.5431     0.056776151
       2817.2142     0.043854851
       2817.8853     0.076701165
       2818.5563     0.057924752
       2819.2274     0.035500702
       2819.8985     0.055666174
       2820.5696     0.078502527
       2821.2407     0.090580015
       2821.9118     0.093416492
       2822.5828      0.10130857
       2823.2539     0.072197061
       2823.9250     0.095215301
       2824.5961     0.090070642
       2825.2672     0.083397007
       2825.9382     0.036948354
       2826.6093     0.020006924
       2827.2804     0.075473033
       2827.9515     0.084427305
       2828.6226     0.070148602
       2829.2937     0.080698847
       2829.9647     0.086687850
       2830.6358     0.068748008
       2831.3069     0.092068490
       2831.9780     0.096534951
       2832.6491     0.028675688
       2833.3201     0.092264001
       2833.9912     0.090818013
       2834.6623     0.056554076
       2835.3334     0.052560232
       2836.0045     0.048862454
       2836.6756     0.069834552
       2837.3466     0.050224117
       2838.0177     0.068749741
       2838.6888     0.040397254
       2839.3599     0.059275793
       2840.0310     0.041428381
       2840.7020     0.062224259
       2841.3731      0.10229209
       2842.0442     0.060712457
       2842.7153     0.063120564
       2843.3864     0.072608790
       2844.0574     0.088175278
       2844.7285     0.039020815
       2845.3996     0.060991222
       2846.0707     0.030763459
       2846.7418     0.049552493
       2847.4129     0.047163012
       2848.0839     0.048992607
       2848.7550     0.039955358
       2849.4261     0.058693816
       2850.0972     0.047842387
       2850.7683     0.033430571
       2851.4393     0.021113446
       2852.1104     0.090886285
       2852.7815     0.067879317
       2853.4526     0.051159109
       2854.1237     0.076615536
       2854.7948      0.14731231
       2855.4658     0.078786025
       2856.1369      0.12231800
       2856.8080      0.12410014
       2857.4791      0.11296890
       2858.1502     0.071418857
       2858.8212     0.075705027
       2859.4923      0.10428896
       2860.1634     0.099445872
       2860.8345     0.073894198
       2861.5056      0.10567862
       2862.1766     0.076441554
       2862.8477     0.083655821
       2863.5188     0.045034208
       2864.1899      0.11169231
       2864.8610     0.055798658
       2865.5321     0.052452322
       2866.2031      0.10630812
       2866.8742     0.032791515
       2867.5453     0.082030969
       2868.2164      0.10457072
       2868.8875     0.065189424
       2869.5585     0.060706840
       2870.2296     0.082682104
       2870.9007     0.060698248
       2871.5718     0.047831231
       2872.2429     0.082890146
       2872.9140     0.098726589
       2873.5850     0.073445914
       2874.2561     0.077296034
       2874.9272     0.072254407
       2875.5983     0.052132437
       2876.2694     0.066480346
       2876.9404     0.051534880
       2877.6115     0.079387603
       2878.2826     0.038123849
       2878.9537     0.055058587
       2879.6248     0.071224468
       2880.2958     0.030266754
       2880.9669      0.10280307
       2881.6380     0.080068693
       2882.3091     0.042717495
       2882.9802     0.054339482
       2883.6513     0.063233885
       2884.3223     0.077017896
       2884.9934     0.087885618
       2885.6645     0.043875740
       2886.3356     0.088264838
       2887.0067     0.050103370
       2887.6777     0.070763823
       2888.3488     0.068367964
       2889.0199     0.074018379
       2889.6910     0.094880091
       2890.3621     0.055271861
       2891.0332     0.050129722
       2891.7042     0.074898865
       2892.3753     0.087747385
       2893.0464      0.11767785
       2893.7175     0.073802486
       2894.3886     0.065501301
       2895.0596     0.081387073
       2895.7307     0.090114163
       2896.4018      0.11221638
       2897.0729     0.060841644
       2897.7440     0.088821953
       2898.4150     0.073007144
       2899.0861     0.070993699
       2899.7572     0.042739173
       2900.4283     0.095974316
       2901.0994      0.12223600
       2901.7705      0.10978400
       2902.4415     0.084870521
       2903.1126      0.11827788
       2903.7837      0.10536898
       2904.4548     0.080243741
       2905.1259      0.10896420
       2905.7969     0.089734839
       2906.4680     0.089884881
       2907.1391     0.076133358
       2907.8102      0.10518278
       2908.4813      0.11302268
       2909.1524     0.099567309
       2909.8234     0.093223724
       2910.4945     0.072330230
       2911.1656     0.079180444
       2911.8367     0.086188029
       2912.5078     0.060067016
       2913.1788     0.098926389
       2913.8499     0.095306088
       2914.5210     0.047101688
       2915.1921     0.093979064
       2915.8632     0.097512081
       2916.5342     0.042784050
       2917.2053     0.068872563
       2917.8764     0.053832050
       2918.5475     0.066287940
       2919.2186     0.090217390
       2919.8897      0.10053905
       2920.5607     0.089888708
       2921.2318     0.091285046
       2921.9029     0.095812126
       2922.5740     0.085073862
       2923.2451     0.043985974
       2923.9161     0.081053793
       2924.5872      0.11308093
       2925.2583     0.094395788
       2925.9294     0.035259271
       2926.6005     0.058622553
       2927.2716     0.093174638
       2927.9426     0.095697686
       2928.6137      0.13072885
       2929.2848     0.096794344
       2929.9559     0.080691148
       2930.6270     0.039018522
       2931.2980     0.076409212
       2931.9691     0.056723514
       2932.6402     0.062148421
       2933.3113     0.079620598
       2933.9824     0.086714139
       2934.6534      0.11019720
       2935.3245      0.10381465
       2935.9956     0.084071404
       2936.6667     0.091100619
       2937.3378     0.095658462
       2938.0089     0.038873986
       2938.6799     0.092694734
       2939.3510      0.10616749
       2940.0221      0.13826970
       2940.6932     0.095561873
       2941.3643     0.048554980
       2942.0353     0.058356204
       2942.7064     0.049878126
       2943.3775     0.042717171
       2944.0486     0.071465810
       2944.7197     0.070795304
       2945.3908      0.10112746
       2946.0618     0.081590758
       2946.7329     0.080301213
       2947.4040     0.089850109
       2948.0751     0.096845190
       2948.7462     0.074372525
       2949.4172     0.080066078
       2950.0883     0.075422876
       2950.7594     0.077565009
       2951.4305      0.12114885
       2952.1016     0.082132456
       2952.7726      0.13934235
       2953.4437     0.053830108
       2954.1148     0.079261054
       2954.7859      0.10036523
       2955.4570     0.050324553
       2956.1281     0.095674703
       2956.7991      0.10104207
       2957.4702      0.10797406
       2958.1413      0.13507912
       2958.8124     0.053735081
       2959.4835     0.082598694
       2960.1545      0.10990383
       2960.8256      0.10030957
       2961.4967     0.059791352
       2962.1678      0.11395330
       2962.8389     0.048571667
       2963.5100     0.064596078
       2964.1810     0.061126995
       2964.8521     0.055361298
       2965.5232     0.029065086
       2966.1943      0.10082273
       2966.8654     0.082908692
       2967.5364     0.074713362
       2968.2075     0.066994594
       2968.8786     0.054968890
       2969.5497     0.060816385
       2970.2208     0.099739215
       2970.8918      0.10901583
       2971.5629      0.12605382
       2972.2340     0.091379786
       2972.9051      0.11580369
       2973.5762      0.11633633
       2974.2473     0.080046576
       2974.9183     0.088534180
       2975.5894      0.13254367
       2976.2605      0.11850474
       2976.9316      0.11001345
       2977.6027     0.082000738
       2978.2737     0.091733904
       2978.9448     0.078198804
       2979.6159     0.068191063
       2980.2870     0.054461603
       2980.9581     0.048637914
       2981.6292     0.055166502
       2982.3002      0.10109459
       2982.9713      0.12808489
       2983.6424      0.12949858
       2984.3135     0.058243348
       2984.9846     0.061655955
       2985.6556     0.074752373
       2986.3267      0.11900969
       2986.9978     0.075346725
       2987.6689     0.066035631
       2988.3400     0.077111330
       2989.0111     0.040620941
       2989.6821     0.091930555
       2990.3532      0.10100911
       2991.0243     0.097687297
       2991.6954      0.10855078
       2992.3665     0.068219155
       2993.0375     0.075486094
       2993.7086      0.10621298
       2994.3797      0.10303962
       2995.0508      0.10780378
       2995.7219     0.089787477
       2996.3929     0.051355422
       2997.0640     0.040770455
       2997.7351     0.046880896
       2998.4062     0.084890369
       2999.0773     0.098309202
       2999.7484     0.066098873
       3000.4194     0.056451953
       3001.0905     0.057240163
       3001.7616     0.084709313
       3002.4327     0.083944729
       3003.1038      0.11835860
       3003.7748      0.10576573
       3004.4459     0.098902904
       3005.1170     0.055530451
       3005.7881     0.085623778
       3006.4592     0.093681144
       3007.1303      0.11667296
       3007.8013     0.064225643
       3008.4724     0.078662362
       3009.1435     0.085161223
       3009.8146      0.10016213
       3010.4857     0.087973081
       3011.1567     0.068217452
       3011.8278     0.093540707
       3012.4989     0.090079952
       3013.1700      0.10939676
       3013.8411     0.091188429
       3014.5121      0.13250969
       3015.1832      0.10111748
       3015.8543     0.040913641
       3016.5254     0.081547605
       3017.1965     0.065762126
       3017.8676      0.11703062
       3018.5386     0.097407588
       3019.2097     0.091405349
       3019.8808     0.063543469
       3020.5519     0.067210557
       3021.2230     0.090745485
       3021.8940      0.12030625
       3022.5651     0.093306159
       3023.2362      0.11157840
       3023.9073     0.058746489
       3024.5784     0.090897935
       3025.2495      0.10121233
       3025.9205     0.075600200
       3026.5916     0.074030563
       3027.2627     0.078113282
       3027.9338     0.060217376
       3028.6049     0.057405957
       3029.2759      0.11553757
       3029.9470     0.078743169
       3030.6181     0.054984649
       3031.2892     0.081479558
       3031.9603     0.086113107
       3032.6313     0.074794575
       3033.3024     0.083534018
       3033.9735     0.074454898
       3034.6446     0.068051073
       3035.3157      0.10150602
       3035.9868     0.078043496
       3036.6578     0.062086954
       3037.3289     0.095805155
       3038.0000     0.082604934
       3038.6711      0.10346566
       3039.3422     0.098780267
       3040.0132     0.078974799
       3040.6843      0.11082546
       3041.3554     0.096198076
       3042.0265     0.064938923
       3042.6976     0.073427290
       3043.3687     0.050026824
       3044.0397     0.078481441
       3044.7108      0.13371314
       3045.3819      0.10555759
       3046.0530     0.090962757
       3046.7241     0.091874582
       3047.3951     0.082717608
       3048.0662     0.096053797
       3048.7373     0.053207600
       3049.4084      0.10427920
       3050.0795     0.075699425
       3050.7505     0.063427013
       3051.4216     0.060698822
       3052.0927     0.079436846
       3052.7638     0.095076159
       3053.4349     0.070142908
       3054.1060     0.019822847
       3054.7770      0.10336249
       3055.4481      0.10913817
       3056.1192     0.062885110
       3056.7903     0.095283973
       3057.4614      0.10409341
       3058.1324     0.099654276
       3058.8035     0.087036278
       3059.4746     0.079754283
       3060.1457      0.11951942
       3060.8168      0.11789539
       3061.4879      0.10874476
       3062.1589     0.050983833
       3062.8300     0.093477733
       3063.5011     0.089910731
       3064.1722     0.097099676
       3064.8433     0.079100207
       3065.5143     0.072838821
       3066.1854     0.047715584
       3066.8565     0.088261593
       3067.5276      0.10496065
       3068.1987     0.079594568
       3068.8697     0.073468332
       3069.5408      0.10733537
       3070.2119     0.062518405
       3070.8830      0.11156303
       3071.5541      0.11357024
       3072.2252     0.089702423
       3072.8962     0.051359237
       3073.5673     0.083902148
       3074.2384     0.090325349
       3074.9095     0.092079463
       3075.5806     0.064112894
       3076.2516     0.087434569
       3076.9227     0.089678536
       3077.5938      0.10035667
       3078.2649     0.035068472
       3078.9360     0.080397272
       3079.6071     0.060408464
       3080.2781     0.076442324
       3080.9492     0.055140183
       3081.6203      0.12702670
       3082.2914     0.090721171
       3082.9625     0.096965204
       3083.6335     0.095079491
       3084.3046     0.069847492
       3084.9757      0.10698863
       3085.6468     0.074197158
       3086.3179     0.048131567
       3086.9889     0.096275585
       3087.6600      0.12412623
       3088.3311     0.071146917
       3089.0022     0.038724895
       3089.6733     0.073114980
       3090.3444     0.091642308
       3091.0154     0.056397431
       3091.6865     0.049680496
       3092.3576     0.071416101
       3093.0287     0.074102039
       3093.6998     0.092225113
       3094.3708     0.051978018
       3095.0419     0.071228289
       3095.7130      0.10582002
       3096.3841     0.081585922
       3097.0552     0.087640983
       3097.7263      0.10502309
       3098.3973     0.066044599
       3099.0684      0.10462081
       3099.7395     0.093480197
       3100.4106      0.13764024
       3101.0817     0.086436655
       3101.7527     0.094223697
       3102.4238     0.067574847
       3103.0949     0.094427071
       3103.7660     0.067188097
       3104.4371     0.078514128
       3105.1081      0.10848715
       3105.7792     0.043821072
       3106.4503     0.094898420
       3107.1214      0.10200367
       3107.7925     0.045882233
       3108.4636     0.073805898
       3109.1346     0.084962649
       3109.8057     0.090394507
       3110.4768     0.098214374
       3111.1479     0.078107532
       3111.8190     0.079345868
       3112.4900     0.095773574
       3113.1611     0.079099899
       3113.8322     0.068898258
       3114.5033     0.065354580
       3115.1744     0.057799733
       3115.8455     0.080730430
       3116.5165      0.11705268
       3117.1876      0.10603848
       3117.8587     0.055079496
       3118.5298     0.099007588
       3119.2009     0.064431490
       3119.8719     0.040296348
       3120.5430     0.073054727
       3121.2141     0.058338852
       3121.8852     0.097096128
       3122.5563      0.10592702
       3123.2273     0.059328428
       3123.8984     0.061991325
       3124.5695     0.075707378
       3125.2406     0.051883266
       3125.9117     0.082326554
       3126.5828     0.098562858
       3127.2538     0.093185675
       3127.9249     0.081260611
       3128.5960     0.084064129
       3129.2671     0.076569900
       3129.9382     0.082032986
       3130.6092     0.092666800
       3131.2803      0.10682164
       3131.9514     0.087591661
       3132.6225     0.062937114
       3133.2936     0.082552641
       3133.9647      0.12166716
       3134.6357      0.11623996
       3135.3068     0.086895903
       3135.9779      0.12063909
       3136.6490      0.10069771
       3137.3201     0.035792629
       3137.9911     0.064598659
       3138.6622     0.076783937
       3139.3333     0.090328085
       3140.0044     0.072392069
       3140.6755      0.10560011
       3141.3465      0.10050447
       3142.0176      0.12542824
       3142.6887      0.11703763
       3143.3598     0.081369139
       3144.0309      0.11203057
       3144.7020     0.082163846
       3145.3730     0.086173498
       3146.0441     0.087334731
       3146.7152     0.059317467
       3147.3863     0.096681597
       3148.0574      0.11364988
       3148.7284      0.10738136
       3149.3995      0.11982408
       3150.0706     0.070672307
       3150.7417     0.074539650
       3151.4128      0.10194653
       3152.0839     0.069335548
       3152.7549     0.077706338
       3153.4260     0.089153516
       3154.0971     0.077079218
       3154.7682     0.095465349
       3155.4393     0.070623385
       3156.1103     0.071514289
       3156.7814      0.10662765
       3157.4525      0.12071261
       3158.1236      0.10360171
       3158.7947     0.093151314
       3159.4658     0.082241268
       3160.1368      0.10419654
       3160.8079      0.10968978
       3161.4790      0.14897214
       3162.1501      0.11235047
       3162.8212     0.097689637
       3163.4922     0.090967366
       3164.1633     0.096142133
       3164.8344     0.079020684
       3165.5055     0.093025493
       3166.1766     0.078746179
       3166.8476     0.062026552
       3167.5187      0.11670528
       3168.1898      0.12517399
       3168.8609      0.11034441
       3169.5320      0.11954273
       3170.2031      0.10334590
       3170.8741     0.095266196
       3171.5452     0.090705301
       3172.2163     0.097058415
       3172.8874      0.13180473
       3173.5585      0.13501493
       3174.2295      0.10723597
       3174.9006     0.087402039
       3175.5717      0.10077959
       3176.2428     0.077816091
       3176.9139     0.082409639
       3177.5850      0.10731114
       3178.2560      0.11000114
       3178.9271      0.13318650
       3179.5982      0.10964021
       3180.2693      0.10928145
       3180.9404     0.088991450
       3181.6114     0.074366908
       3182.2825     0.044200270
       3182.9536     0.061362259
       3183.6247     0.076960872
       3184.2958     0.089561355
       3184.9668      0.11210565
       3185.6379     0.098055782
       3186.3090      0.11518992
       3186.9801     0.087349523
       3187.6512     0.074860807
       3188.3223     0.083893650
       3188.9933     0.075503099
       3189.6644     0.097749845
       3190.3355     0.091090077
       3191.0066     0.077194346
       3191.6777     0.093618995
       3192.3487     0.092401288
       3193.0198     0.091304098
       3193.6909      0.11171057
       3194.3620     0.080518938
       3195.0331     0.087043809
       3195.7042      0.10776774
       3196.3752      0.10362529
       3197.0463     0.093833087
       3197.7174     0.093844486
       3198.3885     0.076577817
       3199.0596     0.079730166
       3199.7306     0.085282881
       3200.4017      0.10083186
       3201.0728      0.12946513
       3201.7439      0.12970057
       3202.4150      0.15104362
       3203.0860      0.11207995
       3203.7571     0.098030099
       3204.4282      0.10191022
       3205.0993      0.12968756
       3205.7704     0.090231943
       3206.4415     0.096348102
       3207.1125     0.091384590
       3207.7836      0.12833947
       3208.4547      0.11092290
       3209.1258     0.083616655
       3209.7969     0.084023996
       3210.4679     0.083491086
       3211.1390      0.11483529
       3211.8101      0.10828105
       3212.4812     0.092473341
       3213.1523      0.10695695
       3213.8234      0.10174347
       3214.4944      0.11468763
       3215.1655     0.076046760
       3215.8366      0.12924994
       3216.5077      0.14802908
       3217.1788     0.069097471
       3217.8498     0.068708638
       3218.5209     0.049892174
       3219.1920     0.064542921
       3219.8631     0.067541259
       3220.5342     0.093067241
       3221.2052     0.089622520
       3221.8763     0.096627260
       3222.5474      0.11307719
       3223.2185     0.083289489
       3223.8896     0.079934872
       3224.5607      0.12258336
       3225.2317      0.10218378
       3225.9028     0.094665107
       3226.5739     0.082817329
       3227.2450     0.070388305
       3227.9161     0.090416034
       3228.5871      0.11038902
       3229.2582     0.090395525
       3229.9293     0.091821460
       3230.6004      0.11474301
       3231.2715     0.089734842
       3231.9426      0.13300724
       3232.6136      0.10124269
       3233.2847     0.097459288
       3233.9558      0.10103134
       3234.6269      0.10651871
       3235.2980      0.11835751
       3235.9690      0.12937836
       3236.6401     0.098901958
       3237.3112     0.090966824
       3237.9823     0.071146915
       3238.6534     0.088967000
       3239.3244     0.097188732
       3239.9955     0.096886003
       3240.6666      0.11743567
       3241.3377      0.11748640
       3242.0088      0.10946692
       3242.6799      0.10832444
       3243.3509     0.093372451
       3244.0220     0.072239553
       3244.6931     0.080021311
       3245.3642     0.092763017
       3246.0353     0.062598028
       3246.7063     0.031639969
       3247.3774     0.066821961
       3248.0485      0.11131654
       3248.7196      0.11052185
       3249.3907      0.11101458
       3250.0618      0.10947574
       3250.7328      0.10849419
       3251.4039      0.10194701
       3252.0750      0.10301156
       3252.7461      0.11413563
       3253.4172     0.082945628
       3254.0882     0.094050988
       3254.7593     0.093342544
       3255.4304     0.098541353
       3256.1015     0.088380993
       3256.7726      0.10274869
       3257.4436      0.12265752
       3258.1147     0.091598295
       3258.7858     0.081547057
       3259.4569     0.062116371
       3260.1280     0.073605989
       3260.7991      0.13911594
       3261.4701      0.12062618
       3262.1412      0.12126629
       3262.8123     0.088435255
       3263.4834     0.077756177
       3264.1545     0.066593809
       3264.8255      0.11325935
       3265.4966     0.090124072
       3266.1677      0.12089023
       3266.8388     0.089182430
       3267.5099     0.099021574
       3268.1810     0.092094964
       3268.8520      0.10414285
       3269.5231     0.091185914
       3270.1942      0.11223742
       3270.8653     0.081343262
       3271.5364     0.060986182
       3272.2074     0.094777446
       3272.8785      0.10340734
       3273.5496      0.11216731
       3274.2207      0.12828919
       3274.8918      0.10544056
       3275.5628     0.075438094
       3276.2339     0.087152592
       3276.9050     0.090543834
       3277.5761     0.071969738
       3278.2472     0.081158997
       3278.9183      0.10638796
       3279.5893      0.10453739
       3280.2604      0.11027724
       3280.9315     0.090274348
       3281.6026      0.13048415
       3282.2737      0.10432499
       3282.9447     0.070668568
       3283.6158     0.093625894
       3284.2869     0.083356731
       3284.9580     0.045039522
       3285.6291     0.088583517
       3286.3002      0.13293388
       3286.9712     0.097350889
       3287.6423     0.065601802
       3288.3134     0.054742899
       3288.9845     0.085944899
       3289.6556     0.064800102
       3290.3266     0.092207688
       3290.9977      0.10574545
       3291.6688      0.11739368
       3292.3399     0.096935282
       3293.0110      0.13647266
       3293.6820     0.098174497
       3294.3531     0.095947545
       3295.0242      0.11068559
       3295.6953      0.10060468
       3296.3664     0.077093631
       3297.0375     0.092832137
       3297.7085     0.085773462
       3298.3796     0.080627851
       3299.0507      0.10386164
       3299.7218      0.12660989
       3300.3929      0.12270995
       3301.0639     0.094965513
       3301.7350     0.076705369
       3302.4061      0.10128377
       3303.0772      0.11657007
       3303.7483      0.13425595
       3304.4194      0.11929981
       3305.0904      0.12170616
       3305.7615     0.080489799
       3306.4326      0.10380426
       3307.1037     0.090816252
       3307.7748      0.12234911
       3308.4458      0.14097199
       3309.1169      0.10950635
       3309.7880      0.10754362
       3310.4591      0.13426021
       3311.1302      0.12422790
       3311.8013      0.10358977
       3312.4723     0.056612357
       3313.1434     0.060607816
       3313.8145     0.085759414
       3314.4856      0.12226189
       3315.1567      0.13174510
       3315.8277      0.12113894
       3316.4988      0.10929033
       3317.1699     0.088758402
       3317.8410     0.080075151
       3318.5121     0.085645693
       3319.1831      0.12018324
       3319.8542      0.10128847
       3320.5253      0.12471237
       3321.1964      0.13439046
       3321.8675     0.085801692
       3322.5386      0.11274450
       3323.2096     0.071989429
       3323.8807     0.095228527
       3324.5518      0.10115877
       3325.2229      0.11547592
       3325.8940     0.092256442
       3326.5650      0.10015513
       3327.2361      0.10510957
       3327.9072     0.098391643
       3328.5783      0.10933758
       3329.2494      0.10237569
       3329.9205     0.057377783
       3330.5915     0.074147507
       3331.2626     0.079076590
       3331.9337      0.11390199
       3332.6048      0.11887269
       3333.2759      0.15339507
       3333.9469      0.10991671
       3334.6180     0.083241991
       3335.2891     0.084476441
       3335.9602      0.10064776
       3336.6313      0.11841271
       3337.3023     0.066564792
       3337.9734     0.051925727
       3338.6445      0.11232670
       3339.3156      0.10241333
       3339.9867     0.081734101
       3340.6578      0.10643168
       3341.3288      0.12139695
       3341.9999     0.078353192
       3342.6710     0.079760761
       3343.3421      0.10275147
       3344.0132      0.13755873
       3344.6842      0.11855755
       3345.3553      0.15918662
       3346.0264      0.12054305
       3346.6975     0.099448282
       3347.3686     0.074761746
       3348.0397      0.11250084
       3348.7107     0.097397164
       3349.3818      0.11025899
       3350.0529     0.079242042
       3350.7240     0.093381169
       3351.3951     0.090999977
       3352.0661      0.12533594
       3352.7372      0.12200997
       3353.4083     0.086177607
       3354.0794     0.051264557
       3354.7505     0.067373423
       3355.4215      0.10075814
       3356.0926     0.086511556
       3356.7637     0.047500841
       3357.4348     0.097616184
       3358.1059     0.097266030
       3358.7770      0.11019972
       3359.4480     0.075773950
       3360.1191     0.079111102
       3360.7902      0.11351299
       3361.4613      0.10972089
       3362.1324      0.12107580
       3362.8034     0.085719310
       3363.4745     0.095980305
       3364.1456     0.091543188
       3364.8167      0.13740141
       3365.4878      0.11724989
       3366.1589      0.10248034
       3366.8299      0.12488038
       3367.5010     0.066112763
       3368.1721     0.078363487
       3368.8432     0.070611182
       3369.5143     0.097337928
       3370.1853     0.093276997
       3370.8564      0.12899405
       3371.5275     0.085053430
       3372.1986      0.11585771
       3372.8697     0.089611608
       3373.5407     0.059343696
       3374.2118     0.076838126
       3374.8829      0.10717756
       3375.5540      0.10988077
       3376.2251     0.086337164
       3376.8962     0.094482741
       3377.5672     0.094104566
       3378.2383     0.094564859
       3378.9094      0.13070985
       3379.5805      0.10203049
       3380.2516     0.054868560
       3380.9226      0.12869682
       3381.5937     0.089045631
       3382.2648     0.083380153
       3382.9359      0.10174454
       3383.6070     0.067517529
       3384.2781     0.067139507
       3384.9491     0.079620232
       3385.6202     0.086655714
       3386.2913     0.098572661
       3386.9624     0.083187131
       3387.6335     0.085032889
       3388.3045     0.066732370
       3388.9756     0.088966719
       3389.6467     0.088652812
       3390.3178      0.10923583
       3390.9889     0.093511586
       3391.6599     0.079829291
       3392.3310      0.10177100
       3393.0021      0.10351313
       3393.6732     0.095080610
       3394.3443      0.10466522
       3395.0154      0.11230092
       3395.6864     0.082801783
       3396.3575     0.077531259
       3397.0286      0.12130541
       3397.6997     0.088941250
       3398.3708      0.13070138
       3399.0418      0.12638916
       3399.7129      0.11533060
       3400.3840      0.10492628
       3401.0551     0.070766340
       3401.7262      0.10898300
       3402.3973     0.073466441
       3403.0683     0.096053399
       3403.7394     0.088695808
       3404.4105      0.10701181
       3405.0816      0.16890406
       3405.7527      0.12397389
       3406.4237     0.094133394
       3407.0948      0.12169650
       3407.7659      0.14071836
       3408.4370      0.10491899
       3409.1081     0.071282168
       3409.7791      0.11506423
       3410.4502     0.087546577
       3411.1213     0.077212505
       3411.7924      0.13541496
       3412.4635     0.066670658
       3413.1346     0.077050715
       3413.8056      0.11523830
       3414.4767     0.082008057
       3415.1478     0.072587058
       3415.8189     0.084690810
       3416.4900      0.10087801
       3417.1610      0.12157031
       3417.8321      0.10129426
       3418.5032     0.075147657
       3419.1743     0.099263826
       3419.8454      0.13216075
       3420.5165     0.077383214
       3421.1875      0.10983855
       3421.8586     0.086741759
       3422.5297      0.10398709
       3423.2008     0.075408482
       3423.8719     0.093810924
       3424.5429      0.11306796
       3425.2140     0.095298290
       3425.8851     0.079809881
       3426.5562     0.077347721
       3427.2273      0.11819055
       3427.8983      0.10855011
       3428.5694      0.12358812
       3429.2405      0.12793483
       3429.9116     0.096967443
       3430.5827     0.065994672
       3431.2538     0.078355248
       3431.9248     0.060594873
       3432.5959     0.036519087
       3433.2670     0.092927134
       3433.9381     0.085075287
       3434.6092     0.094425897
       3435.2802     0.069767980
       3435.9513     0.093687484
       3436.6224     0.030490338
       3437.2935    -0.054700812
       3437.9646     -0.16695517
       3438.6357     0.038572579
       3439.3067    -0.010276962
       3439.9778     0.036991386
       3440.6489     0.071504009
       3441.3200     0.078414313
       3441.9911      0.32449659
       3442.6621      0.27041554
       3443.3332      0.17874598
       3444.0043      0.11540972
       3444.6754      0.10364226
       3445.3465     0.077842766
       3446.0175     0.081292694
       3446.6886     0.051751696
       3447.3597     0.051370218
       3448.0308     0.080290809
       3448.7019      0.10175742
       3449.3730      0.11533710
       3450.0440     0.092311734
       3450.7151     0.065541431
       3451.3862     0.079884790
       3776.2317      0.96809155
       3776.9644      0.75948574
       3777.6970      0.65598645
       3778.4297      0.65878563
       3779.1624      0.61704877
       3779.8951      0.54922813
       3780.6278      0.35672694
       3781.3605      0.48464587
       3782.0932      0.49807163
       3782.8259      0.53820257
       3783.5586      0.52733806
       3784.2913      0.45829963
       3785.0240      0.53116058
       3785.7566      0.58504154
       3786.4893      0.45577962
       3787.2220      0.48653910
       3787.9547      0.55870572
       3788.6874      0.66339917
       3789.4201      0.55589674
       3790.1528      0.72357409
       3790.8855      0.71342863
       3791.6182      0.72092791
       3792.3509      0.75278132
       3793.0836      0.70837143
       3793.8162      0.71059772
       3794.5489      0.93913345
       3795.2816      0.88480432
       3796.0143      0.59530753
       3796.7470      0.70726625
       3797.4797      0.91221051
       3798.2124      0.91131029
       3798.9451      0.81789646
       3799.6778      0.87452279
       3800.4105      0.74171877
       3801.1432      0.59583694
       3801.8758      0.71320613
       3802.6085      0.75291787
       3803.3412      0.79369069
       3804.0739      0.88509839
       3804.8066      0.77351578
       3805.5393      0.60037477
       3806.2720      0.57790944
       3807.0047      0.54568146
       3807.7374      0.51628088
       3808.4701      0.67228409
       3809.2028      0.84163543
       3809.9354      0.79378532
       3810.6681      0.65620415
       3811.4008      0.79192138
       3812.1335      0.81232404
       3812.8662      0.90428501
       3813.5989      0.87338096
       3814.3316      0.67068016
       3815.0643      0.57804308
       3815.7970      0.56821933
       3816.5297      0.47089258
       3817.2624      0.56115093
       3817.9950      0.56264478
       3818.7277      0.60123902
       3819.4604      0.62692806
       3820.1931      0.52400516
       3820.9258      0.41215975
       3821.6585      0.51410644
       3822.3912      0.51156641
       3823.1239      0.38784243
       3823.8566      0.52671846
       3824.5893      0.52788677
       3825.3220      0.49016221
       3826.0546      0.50088958
       3826.7873      0.55136242
       3827.5200      0.53808708
       3828.2527      0.54063594
       3828.9854      0.58176162
       3829.7181      0.70446784
       3830.4508      0.72892016
       3831.1835      0.69264993
       3831.9162      0.78564835
       3832.6489      0.72434299
       3833.3816      0.76792675
       3834.1142      0.78072866
       3834.8469      0.75300886
       3835.5796      0.85956693
       3836.3123      0.94914132
       3837.0450      0.59938052
       3837.7777      0.76854319
       3838.5104      0.82151520
       3839.2431      0.70301119
       3839.9758      0.82483109
       3840.7085      0.81710585
       3841.4412      0.67192414
       3842.1738      0.84391836
       3842.9065      0.82645701
       3843.6392      0.96450159
       3844.3719      0.86817806
       3845.1046      0.75960964
       3845.8373      0.60508091
       3846.5700      0.78283224
       3847.3027      0.87023767
       3848.0354      0.82062456
       3848.7681      0.75358841
       3849.5008      0.86368133
       3850.2334      0.85878431
       3850.9661      0.96176396
       3851.6988       1.0413385
       3852.4315       1.0105234
       3853.1642       1.0059719
       3853.8969      0.99742151
       3854.6296      0.84272806
       3855.3623      0.73196587
       3856.0950      0.92891581
       3856.8277      0.77455605
       3857.5604      0.76357714
       3858.2930      0.70367221
       3859.0257      0.60175867
       3859.7584      0.57981165
       3860.4911      0.81209376
       3861.2238      0.89401981
       3861.9565      0.80694929
       3862.6892      0.69832658
       3863.4219      0.84989153
       3864.1546      0.86959115
       3864.8873      0.88308058
       3865.6200      0.70896107
       3866.3526      0.66660703
       3867.0853      0.70725162
       3867.8180      0.60233904
       3868.5507      0.52818401
       3869.2834      0.57419280
       3870.0161      0.48697165
       3870.7488      0.67279649
       3871.4815      0.78136119
       3872.2142      0.58359157
       3872.9469      0.54799701
       3873.6796      0.50666715
       3874.4122      0.61067698
       3875.1449      0.43967163
       3875.8776      0.46403935
       3876.6103      0.56689774
       3877.3430      0.65332863
       3878.0757      0.63221285
       3878.8084      0.54707458
       3879.5411      0.50590254
       3880.2738      0.73270335
       3881.0065      0.60904206
       3881.7392      0.66396463
       3882.4718      0.59626760
       3883.2045      0.62396690
       3883.9372      0.70954146
       3884.6699      0.67399643
       3885.4026      0.57780664
       3886.1353      0.69555935
       3886.8680      0.81174024
       3887.6007       1.1063905
       3888.3334      0.97891458
       3889.0661      0.88902951
       3889.7988      0.95583166
       3890.5314       1.1066575
       3891.2641       1.3567283
       3891.9968       1.0328463
       3892.7295       1.5860231
       3893.4622       1.3979068
       3894.1949       1.1203249
       3894.9276      0.45378704
       3895.6603      0.52967194
       3896.3930      0.89928745
       3897.1257      0.83923366
       3897.8584      0.92885959
       3898.5910      0.68876965
       3899.3237      0.68963585
       3900.0564      0.78584488
       3900.7891      0.76493461
       3901.5218      0.91981510
       3902.2545      0.76409598
       3902.9872      0.70372646
       3903.7199      0.95305114
       3904.4526      0.86402039
       3905.1853      0.71190318
       3905.9180      0.86249641
       3906.6506      0.78898893
       3907.3833      0.92128495
       3908.1160      0.93064312
       3908.8487      0.80450239
       3909.5814      0.98799832
       3910.3141      0.93669612
       3911.0468      0.78483640
       3911.7795      0.86590915
       3912.5122      0.93531857
       3913.2449      0.94545991
       3913.9776      0.64939376
       3914.7102      0.70723276
       3915.4429      0.73703614
       3916.1756      0.68234326
       3916.9083      0.73874876
       3917.6410      0.69926582
       3918.3737      0.61127116
       3919.1064      0.63007129
       3919.8391      0.57392334
       3920.5718      0.65698462
       3921.3045      0.72521233
       3922.0372      0.49184318
       3922.7698      0.48344015
       3923.5025      0.57088160
       3924.2352      0.54759555
       3924.9679      0.60069089
       3925.7006      0.58899516
       3926.4333      0.65289288
       3927.1660      0.80659765
       3927.8987      0.90057682
       3928.6314      0.79350567
       3929.3641      0.68815308
       3930.0968      0.95432067
       3930.8294      0.81715317
       3931.5621      0.83997059
       3932.2948      0.86308036
       3933.0275      0.72030516
       3933.7602      0.59297049
       3934.4929      0.57855323
       3935.2256      0.71322667
       3935.9583      0.72471731
       3936.6910      0.94440199
       3937.4237      0.60302306
       3938.1564      0.87593775
       3938.8890      0.85348421
       3939.6217      0.76563245
       3940.3544      0.79369690
       3941.0871      0.78196472
       3941.8198      0.84329021
       3942.5525      0.77533161
       3943.2852      0.68375157
       3944.0179      0.87109003
       3944.7506      0.75638993
       3945.4833      0.64114713
       3946.2160      0.75831620
       3946.9486      0.80512664
       3947.6813      0.63693760
       3948.4140      0.70386170
       3949.1467      0.72411445
       3949.8794      0.80504450
       3950.6121      0.66868418
       3951.3448      0.56974599
       3952.0775      0.48945581
       3952.8102      0.62975384
       3953.5429      0.49304595
       3954.2756      0.56625932
       3955.0082      0.55760492
       3955.7409      0.55936321
       3956.4736      0.42431072
       3957.2063      0.44304870
       3957.9390      0.42252837
       3958.6717      0.47026062
       3959.4044      0.44933114
       3960.1371      0.45170911
       3960.8698      0.56445996
       3961.6025      0.49916261
       3962.3352      0.52001136
       3963.0678      0.57251304
       3963.8005      0.70856570
       3964.5332      0.73351222
       3965.2659      0.76768006
       3965.9986      0.69780190
       3966.7313      0.59389435
       3967.4640      0.58864243
       3968.1967      0.73413676
       3968.9294      0.66260455
       3969.6621      0.66334688
       3970.3948      0.72656187
       3971.1274      0.92016557
       3971.8601      0.80521252
       3972.5928      0.85457706
       3973.3255      0.79187148
       3974.0582      0.71239346
       3974.7909      0.78483805
       3975.5236      0.63882825
       3976.2563      0.57454263
       3976.9890      0.74907847
       3977.7217      0.71564468
       3978.4544      0.80697275
       3979.1870      0.77568991
       3979.9197      0.71754546
       3980.6524      0.73686132
       3981.3851      0.85104004
       3982.1178       1.0111084
       3982.8505      0.95428166
       3983.5832      0.76096593
       3984.3159      0.74151841
       3985.0486      0.88180873
       3985.7813      0.87605012
       3986.5140      0.85122407
       3987.2466      0.86452267
       3987.9793      0.91896429
       3988.7120      0.89137142
       3989.4447      0.88414051
       3990.1774      0.97638861
       3990.9101      0.96460750
       3991.6428      0.93972592
       3992.3755      0.84032234
       3993.1082      0.86226432
       3993.8409      0.91592916
       3994.5736      0.78233857
       3995.3062      0.74471995
       3996.0389      0.84509303
       3996.7716      0.82425006
       3997.5043      0.78189183
       3998.2370      0.81233834
       3998.9697      0.83527150
       3999.7024      0.97711954
       4000.4351      0.93090843
       4001.1678      0.88465214
       4001.9005      0.90691820
       4002.6332      0.91799769
       4003.3658      0.90222286
       4004.0985      0.95360682
       4004.8312      0.79208708
       4005.5639      0.96284730
       4006.2966      0.98858949
       4007.0293      0.82951884
       4007.7620      0.97240079
       4008.4947      0.91617871
       4009.2274       1.0183520
       4009.9601      0.90840797
       4010.6928      0.77345954
       4011.4255      0.76791718
       4012.1581      0.81084160
       4012.8908      0.79914680
       4013.6235      0.99341047
       4014.3562       1.1155886
       4015.0889      0.92573993
       4015.8216      0.80797751
       4016.5543      0.84217052
       4017.2870      0.82109436
       4018.0197      0.95168863
       4018.7524       1.0029781
       4019.4851       1.0013437
       4020.2177      0.79191827
       4020.9504      0.80239632
       4021.6831      0.85130554
       4022.4158      0.77382065
       4023.1485      0.79176990
       4023.8812      0.82127269
       4024.6139      0.92626234
       4025.3466      0.93188008
       4026.0793      0.89330943
       4026.8120      0.84974645
       4027.5447      0.89659372
       4028.2773      0.93631962
       4029.0100      0.81959226
       4029.7427       1.0189954
       4030.4754       1.0541126
       4031.2081      0.94706421
       4031.9408      0.85589927
       4032.6735      0.79883589
       4033.4062      0.74070729
       4034.1389      0.76162220
       4034.8716      0.88786448
       4035.6043      0.77652891
       4036.3369      0.81473536
       4037.0696      0.78671731
       4037.8023      0.85960487
       4038.5350      0.71643559
       4039.2677      0.79916269
       4040.0004      0.91386465
       4040.7331       1.0001091
       4041.4658      0.97254633
       4042.1985      0.84778761
       4042.9312      0.85661308
       4043.6639      0.93628417
       4044.3965      0.88058686
       4045.1292      0.75817400
       4045.8619      0.89474456
       4046.5946      0.83087173
       4047.3273      0.85471595
       4048.0600      0.74703868
       4048.7927      0.85342653
       4049.5254      0.82067993
       4050.2581      0.72933228
       4050.9908      0.88250812
       4051.7235      0.93096053
       4052.4561      0.93088078
       4053.1888      0.88020287
       4053.9215      0.79735419
       4054.6542      0.71528307
       4055.3869      0.88159191
       4056.1196      0.72997635
       4056.8523      0.52104264
       4057.5850      0.82701770
       4058.3177      0.77822454
       4059.0504      0.79297341
       4059.7831      0.76222474
       4060.5157      0.82053376
       4061.2484      0.99614604
       4061.9811      0.91915502
       4062.7138      0.95725219
       4063.4465      0.80370997
       4064.1792      0.80088124
       4064.9119      0.89143974
       4065.6446      0.85375256
       4066.3773      0.84142172
       4067.1100      0.79274476
       4067.8427      0.77773679
       4068.5753      0.75319007
       4069.3080      0.79042245
       4070.0407      0.86593483
       4070.7734      0.70603557
       4071.5061      0.73003719
       4072.2388      0.68553126
       4072.9715      0.89089290
       4073.7042      0.78011505
       4074.4369      0.83179153
       4075.1696      0.90633742
       4075.9023      0.88755962
       4076.6349      0.71990091
       4077.3676      0.75454244
       4078.1003      0.63173974
       4078.8330      0.75856420
       4079.5657      0.82144434
       4080.2984      0.82804965
       4081.0311      0.91457370
       4081.7638      0.80192627
       4082.4965      0.76871585
       4083.2292      0.82754444
       4083.9619      0.72221993
       4084.6945      0.75835047
       4085.4272      0.82714206
       4086.1599      0.63638756
       4086.8926      0.72757178
       4087.6253      0.70712348
       4088.3580      0.66956465
       4089.0907      0.52607835
       4089.8234      0.53718402
       4090.5561      0.62946232
       4091.2888      0.65618380
       4092.0215      0.56978111
       4092.7541      0.66084317
       4093.4868      0.68179166
       4094.2195      0.68881320
       4094.9522      0.69457603
       4095.6849      0.66724214
       4096.4176      0.60334917
       4097.1503      0.54855361
       4097.8830      0.60048965
       4098.6157      0.70839143
       4099.3484      0.66058954
       4100.0811      0.60921109
       4100.8137      0.67800596
       4101.5464      0.71022825
       4102.2791      0.65801693
       4103.0118      0.67495087
       4103.7445      0.67886546
       4104.4772      0.60743782
       4105.2099      0.63519347
       4105.9426      0.75162542
       4106.6753      0.87831423
       4107.4080      0.72321166
       4108.1407      0.64320254
       4108.8733      0.70100231
       4109.6060      0.71522339
       4110.3387      0.74202609
       4111.0714      0.68374959
       4111.8041      0.70675218
       4112.5368      0.72607841
       4113.2695      0.64612545
       4114.0022      0.60397171
       4114.7349      0.70098086
       4115.4676      0.69023482
       4116.2003      0.54881866
       4116.9329      0.74641652
       4117.6656      0.90339116
       4118.3983      0.81909063
       4119.1310      0.58952128
       4119.8637      0.73252957
       4120.5964      0.75847533
       4121.3291      0.74870437
       4122.0618      0.75788749
       4122.7945      0.86224988
       4123.5272      0.77727250
       4124.2599      0.75918540
       4124.9925      0.84496180
       4125.7252      0.84734641
       4126.4579       1.0230392
       4127.1906      0.84568415
       4127.9233      0.84596814
       4128.6560       1.0076658
       4129.3887      0.97234592
       4130.1214      0.66614587
       4130.8541      0.92411893
       4131.5868      0.81539544
       4132.3195      0.79875602
       4133.0521      0.86171374
       4133.7848      0.87059451
       4134.5175      0.83265792
       4135.2502      0.83850683
       4135.9829      0.85924690
       4136.7156      0.77209700
       4137.4483      0.86805052
       4138.1810      0.75258290
       4138.9137      0.73956267
       4139.6464      0.75482463
       4140.3791      0.66311461
       4141.1117      0.73824124
       4141.8444      0.89329458
       4142.5771      0.83479734
       4143.3098      0.74744736
       4144.0425      0.96950178
       4144.7752       1.0232684
       4145.5079      0.94088765
       4146.2406      0.87132490
       4146.9733      0.95344534
       4147.7060      0.95462832
       4148.4387      0.89221031
       4149.1713      0.79873817
       4149.9040      0.79900227
       4150.6367      0.73489887
       4151.3694      0.94848755
       4152.1021      0.88941926
       4152.8348      0.91286312
       4153.5675      0.93945266
       4154.3002      0.93949809
       4155.0329      0.87711774
       4155.7656      0.78522898
       4156.4983      0.81401041
       4157.2309      0.74885160
       4157.9636      0.64099516
       4158.6963      0.84828377
       4159.4290      0.78389571
       4160.1617      0.82072555
       4160.8944      0.82053256
       4161.6271      0.83200509
       4162.3598      0.95721008
       4163.0925      0.86847529
       4163.8252      0.81788868
       4164.5579      0.79770605
       4165.2905      0.74940929
       4166.0232      0.69343053
       4166.7559      0.72282729
       4167.4886      0.66669267
       4168.2213      0.67247529
       4168.9540      0.65731731
       4169.6867      0.66641128
       4170.4194      0.93576287
       4171.1521      0.86139113
       4171.8848      0.80530438
       4172.6175      0.82015255
       4173.3501      0.67875391
       4174.0828      0.77667487
       4174.8155      0.79933924
       4175.5482      0.84023826
       4176.2809      0.88631350
       4177.0136      0.94524055
       4177.7463      0.94118690
       4178.4790      0.93932561
       4179.2117      0.90330984
       4179.9444      0.74727412
       4180.6771      0.81661617
       4181.4097      0.83746653
       4182.1424      0.79116881
       4182.8751      0.86687785
       4183.6078      0.85852832
       4184.3405      0.74471199
       4185.0732      0.78047520
       4185.8059      0.83303937
       4186.5386      0.68048263
       4187.2713      0.76898959
       4188.0040      0.77305056
       4188.7367      0.85245990
       4189.4693      0.72721343
       4190.2020      0.73894988
       4190.9347      0.72265098
       4191.6674      0.76178750
       4192.4001      0.71710363
       4193.1328      0.69545049
       4193.8655      0.67461003
       4194.5982      0.82891321
       4195.3309      0.84582400
       4196.0636      0.82278388
       4196.7963      0.89608000
       4197.5289      0.89332380
       4198.2616      0.90760853
       4198.9943      0.91080652
       4199.7270      0.88582506
       4200.4597      0.77022363
       4201.1924      0.86732009
       4201.9251      0.93507413
       4202.6578      0.88723942
       4203.3905      0.76922464
       4204.1232      0.78662742
       4204.8559      0.83750677
       4205.5885      0.77471298
       4206.3212      0.83709597
       4207.0539      0.84852606
       4207.7866      0.76671256
       4208.5193      0.78599901
       4209.2520      0.88239191
       4209.9847      0.76830363
       4210.7174      0.81366763
       4211.4501      0.80255673
       4212.1828      0.78983298
       4212.9155      0.84887728
       4213.6481      0.76060280
       4214.3808      0.86530836
       4215.1135      0.93263672
       4215.8462      0.88349877
       4216.5789      0.93135909
       4217.3116      0.94811418
       4218.0443      0.86945188
       4218.7770      0.87118962
       4219.5097      0.72852083
       4220.2424      0.84247240
       4220.9751      0.79032734
       4221.7077      0.65368252
       4222.4404      0.79325679
       4223.1731      0.90045405
       4223.9058      0.81566473
       4224.6385      0.79107222
       4225.3712      0.91010564
       4226.1039      0.87103453
       4226.8366      0.91276024
       4227.5693      0.78139228
       4228.3020      0.86699693
       4229.0347      0.88459495
       4229.7673      0.88131863
       4230.5000      0.88871699
       4231.2327      0.72298753
       4231.9654      0.92758024
       4232.6981       1.0136929
       4233.4308      0.84553907
       4234.1635      0.93413659
       4234.8962      0.89627806
       4235.6289      0.75605932
       4236.3616      0.88665226
       4237.0943      0.74213105
       4237.8269      0.79656877
       4238.5596      0.78098205
       4239.2923      0.75553613
       4240.0250      0.76721744
       4240.7577      0.76613019
       4241.4904      0.82280599
       4242.2231      0.74945969
       4242.9558      0.75243417
       4243.6885      0.87832810
       4244.4212      0.94010570
       4245.1539      0.75002439
       4245.8865      0.96019421
       4246.6192      0.92737077
       4247.3519      0.86847466
       4248.0846      0.80694964
       4248.8173      0.82472485
       4249.5500      0.88288328
       4250.2827      0.83682505
       4251.0154      0.85655560
       4251.7481      0.78547172
       4252.4808      0.88627920
       4253.2135      0.72679247
       4253.9461      0.72846797
       4254.6788      0.94376964
       4255.4115      0.60430104
       4256.1442      0.61102622
       4256.8769      0.61932363
       4257.6096      0.69348527
       4258.3423      0.50514460
       4259.0750      0.58103214
       4259.8077      0.62284344
       4260.5404      0.61762038
       4261.2731      0.77084748
       4262.0057      0.76183026
       4262.7384      0.89195278
       4263.4711      0.74659573
       4264.2038      0.82547036
       4264.9365      0.79126766
       4265.6692      0.75658497
       4266.4019      0.71044381
       4267.1346      0.66405988
       4267.8673      0.77517642
       4268.6000      0.64342165
       4269.3327      0.72005580
       4270.0653      0.64929506
       4270.7980      0.61893660
       4271.5307      0.77914389
       4272.2634      0.70221169
       4272.9961      0.66350243
       4273.7288      0.71969211
       4274.4615      0.69191861
       4275.1942      0.67711557
       4275.9269      0.69731272
       4276.6596      0.85791542
       4277.3923      0.75092789
       4278.1249      0.89680441
       4278.8576      0.85531955
       4279.5903      0.82505190
       4280.3230      0.89397613
       4281.0557      0.85559456
       4281.7884      0.79298460
       4282.5211      0.75578977
       4283.2538      0.92648607
       4283.9865      0.94507252
       4284.7192      0.60421814
       4285.4519      0.76004262
       4286.1845      0.82576361
       4286.9172      0.77181277
       4287.6499      0.83375941
       4288.3826      0.87613694
       4289.1153      0.72944591
       4289.8480      0.73568470
       4290.5807      0.88217418
       4291.3134      0.93125160
       4292.0461      0.85555291
       4292.7788      0.60179581
       4293.5115      0.90758777
       4294.2441      0.61467805
       4294.9768      0.74915829
       4295.7095      0.72003210
       4296.4422      0.78097807
       4297.1749      0.68133697
       4297.9076      0.62772030
       4298.6403      0.73229169
       4299.3730      0.73721257
       4300.1057      0.77221890
       4300.8384      0.77467864
       4301.5711      0.64924137
       4302.3037      0.69207026
       4303.0364      0.97586230
       4303.7691      0.96737829
       4304.5018      0.72223349
       4305.2345      0.72835281
       4305.9672      0.55776816
       4306.6999      0.67071250
       4307.4326      0.65758996
       4308.1653      0.59987700
       4308.8980      0.54819706
       4309.6307      0.81258579
       4310.3633      0.82171966
       4311.0960      0.86090648
       4311.8287      0.70826177
       4312.5614      0.97152853
       4313.2941      0.77401066
       4314.0268      0.73431198
       4314.7595      0.94296189
       4315.4922      0.85733203
       4316.2249      0.93398657
       4316.9576      0.94929039
       4317.6903      0.93830719
       4318.4229      0.91144571
       4319.1556      0.71981501
       4319.8883      0.78287045
       4320.6210      0.57229256
       4321.3537      0.69635804
       4322.0864      0.85444408
       4322.8191      0.60075882
       4323.5518      0.56699941
       4324.2845      0.64955563
       4325.0172      0.42982689
       4325.7499      0.43555300
       4326.4826      0.51995273
       4327.2152      0.49392961
       4327.9479      0.58122088
       4328.6806      0.70408816
       4329.4133      0.68942422
       4330.1460      0.62623638
       4330.8787      0.73360662
       4331.6114      0.79940333
       4332.3441      0.71146565
       4333.0768      0.68546109
       4333.8095      0.74187284
       4334.5422      0.66136660
       4335.2748      0.88558950
       4336.0075      0.98591056
       4336.7402       1.0215163
       4337.4729       1.0997277
       4338.2056      0.99776797
       4338.9383      0.87508002
       4339.6710      0.95776009
       4340.4037      0.94558550
       4341.1364      0.82504011
       4341.8691      0.81302421
       4342.6018      0.84760224
       4343.3344      0.81716529
       4344.0671      0.77126221
       4344.7998      0.82628297
       4345.5325      0.55740490
       4346.2652      0.65334185
       4346.9979      0.74952246
       4347.7306      0.67730286
       4348.4633      0.68237035
       4349.1960      0.72160872
       4349.9287      0.70025642
       4350.6614      0.72665095
       4351.3940      0.83668984
       4352.1267      0.77674285
       4352.8594      0.81606843
       4353.5921      0.83375742
       4354.3248      0.77012422
       4355.0575      0.88034020
       4355.7902      0.82692535
       4356.5229      0.83305930
       4357.2556      0.78042584
       4357.9883      0.90072035
       4358.7210      0.85768156
       4359.4536      0.89885632
       4360.1863      0.85565604
       4360.9190      0.91857635
       4361.6517      0.89709878
       4362.3844      0.87656291
       4363.1171      0.79765430
       4363.8498       1.0266683
       4364.5825      0.93363705
       4365.3152      0.85419877
       4366.0479      0.89791611
       4366.7806      0.86630028
       4367.5132      0.98780054
       4368.2459      0.95608831
       4368.9786       1.0677802
       4369.7113      0.85055400
       4370.4440      0.84364139
       4371.1767      0.83210185
       4371.9094      0.73501782
       4372.6421      0.88258929
       4373.3748      0.79480913
       4374.1075      0.84382045
       4374.8402      0.81651184
       4375.5728      0.83336665
       4376.3055      0.73946302
       4377.0382      0.86236301
       4377.7709      0.79296013
       4378.5036      0.81828456
       4379.2363      0.78051123
       4379.9690      0.92768539
       4380.7017      0.80156374
       4381.4344      0.96586962
       4382.1671      0.83607751
       4382.8998      0.75857209
       4383.6324      0.99114001
       4384.3651      0.87416828
       4385.0978      0.73386374
       4385.8305      0.75734360
       4386.5632      0.75063447
       4387.2959      0.80874869
       4388.0286      0.87718030
       4388.7613      0.78160438
       4389.4940      0.88363195
       4390.2267       1.0200913
       4390.9594      0.88185561
       4391.6920      0.87501627
       4392.4247      0.90451466
       4393.1574      0.90639715
       4393.8901      0.81130272
       4394.6228      0.90524445
       4395.3555      0.91653099
       4396.0882      0.87142333
       4396.8209      0.91579092
       4397.5536      0.91701901
       4398.2863      0.83628822
       4399.0190      0.66440084
       4399.7516      0.77118860
       4400.4843      0.65309591
       4401.2170      0.79954151
       4401.9497      0.78292939
       4402.6824      0.81048492
       4403.4151      0.86986208
       4404.1478      0.88864577
       4404.8805      0.84013785
       4405.6132      0.76531165
       4406.3459      0.87911556
       4407.0786      0.94556071
       4407.8112      0.96335973
       4408.5439      0.84888833
       4409.2766      0.88268210
       4410.0093      0.94814044
       4410.7420       1.0048758
       4411.4747       1.0170743
       4412.2074      0.88318785
       4412.9401       1.0206795
       4413.6728      0.81313105
       4414.4055      0.84986911
       4415.1382      0.91040182
       4415.8708      0.87228474
       4416.6035      0.80423695
       4417.3362      0.88334261
       4418.0689      0.89711961
       4418.8016      0.85118133
       4419.5343      0.92318463
       4420.2670      0.82466405
       4420.9997      0.85581776
       4421.7324      0.91565899
       4422.4651      0.84662529
       4423.1978      0.67638189
       4423.9304      0.70762310
       4424.6631      0.71938895
       4425.3958      0.87627889
       4426.1285      0.88238517
       4426.8612      0.88761691
       4427.5939      0.76970630
       4428.3266      0.91126943
       4429.0593       1.0034673
       4429.7920      0.87173919
       4430.5247      0.81239472
       4431.2574      0.86879660
       4431.9900      0.76699949
       4432.7227      0.95210009
       4433.4554      0.88101181
       4434.1881      0.91989656
       4434.9208      0.94973076
       4435.6535      0.96578474
       4436.3862      0.99667023
       4437.1189      0.90131896
       4437.8516       1.0187800
       4438.5843      0.82948059
       4439.3170      0.78145947
       4440.0496      0.99067257
       4440.7823      0.98505233
       4441.5150      0.88384431
       4442.2477      0.88782955
       4442.9804      0.86466080
       4443.7131      0.91542714
       4444.4458      0.88766681
       4445.1785      0.93641396
       4445.9112      0.86693754
       4446.6439      0.88164493
       4447.3766      0.87888427
       4448.1092      0.95421971
       4448.8419      0.78136513
       4449.5746      0.85910000
       4450.3073      0.89503201
       4451.0400      0.97107557
       4451.7727      0.85080067
       4452.5054      0.79298997
       4453.2381      0.78547710
       4453.9708      0.87818155
       4454.7035      0.86505553
       4455.4362      0.82040448
       4456.1688      0.94119206
       4456.9015      0.77414063
       4457.6342      0.92241050
       4458.3669      0.82327498
       4459.0996      0.75390983
       4459.8323      0.69680979
       4460.5650      0.62637255
       4461.2977      0.70206630
       4462.0304      0.68343128
       4462.7631      0.76360651
       4463.4958      0.93025186
       4464.2284      0.81110216
       4464.9611      0.75056580
       4465.6938      0.73884164
       4466.4265      0.78701418
       4467.1592      0.76229517
       4467.8919      0.72940176
       4468.6246      0.93634970
       4469.3573      0.78833480
       4470.0900      0.72913094
       4470.8227      0.83713764
       4471.5554      0.96481041
       4472.2880      0.84722152
       4473.0207      0.87836857
       4473.7534      0.88574143
       4474.4861      0.87204243
       4475.2188      0.85692732
       4475.9515      0.97519661
       4476.6842      0.88028450
       4477.4169      0.94221670
       4478.1496      0.92048380
       4478.8823      0.96054331
       4479.6150       1.0184045
       4480.3476      0.98486047
       4481.0803      0.88336700
       4481.8130      0.97345119
       4482.5457      0.88716516
       4483.2784      0.97565373
       4484.0111      0.86241620
       4484.7438      0.99136956
       4485.4765       1.1821445
       4486.2092       1.4011933
       4486.9419       1.3308379
       4487.6746       1.1034037
       4488.4072       1.0070217
       4489.1399       1.0644912
       4489.8726       1.4076551
       4490.6053       1.5806719
       4491.3380       1.0905560
       4492.0707      0.81221602
       4492.8034      0.98072477
       4493.5361      0.82806034
       4494.2688       1.1014413
       4495.0015      0.87458133
       4495.7342      0.92185446
       4496.4668       1.0375417
       4497.1995       1.0057103
       4497.9322      0.98664865
       4498.6649      0.97031698
       4499.3976       1.0440753
       4500.1303      0.90559996
       4500.8630      0.98237709
       4501.5957      0.85607155
       4502.3284      0.99075954
       4503.0611      0.99751753
       4503.7938      0.97649521
       4504.5264      0.97955242
       4505.2591       1.0187561
       4505.9918       1.0021889
       4506.7245      0.95475602
       4507.4572       1.0037883
       4508.1899      0.79383873
       4508.9226      0.96558059
       4509.6553      0.77795974
       4510.3880      0.97591483
       4511.1207      0.87901199
       4511.8534      0.76140785
       4512.5860      0.91926643
       4513.3187      0.98988235
       4514.0514       1.0131486
       4514.7841      0.75816726
       4515.5168      0.90486430
       4516.2495      0.92034754
       4516.9822      0.98963066
       4517.7149       1.0626397
       4518.4476      0.75857250
       4519.1803      0.98701576
       4519.9130      0.88127590
       4520.6456      0.97248915
       4521.3783      0.85429232
       4522.1110      0.82602546
       4522.8437      0.79662125
       4523.5764      0.77686916
       4524.3091      0.91203650
       4525.0418      0.77559581
       4525.7745      0.86936696
       4526.5072      0.94869325
       4527.2399      0.90768781
       4527.9726      0.77953992
       4528.7052      0.95906507
       4529.4379      0.87639195
       4530.1706       1.0425291
       4530.9033      0.80915762
       4531.6360      0.87291935
       4532.3687      0.87477015
       4533.1014      0.87196651
       4533.8341      0.94253908
       4534.5668       1.0256402
       4535.2995       1.1631285
       4536.0322       1.0581732
       4536.7648      0.83133210
       4537.4975       1.1847713
       4538.2302      0.73988647
       4538.9629      0.93305873
       4539.6956      0.97735188
       4540.4283      0.68275081
       4541.1610      0.87812560
       4541.8937      0.96623844
       4542.6264       1.0167720
       4543.3591      0.84146111
       4544.0918       1.0661181
       4544.8244      0.79692043
       4545.5571       1.0176380
       4546.2898      0.85971849
       4547.0225      0.91150029
       4547.7552      0.86366024
       4548.4879      0.92524860
       4549.2206      0.79795667
       4549.9533      0.92589932
       4550.6860       1.2497944
       4551.4187      0.81278778
       4552.1514       1.0286512
       4552.8840       1.0341131
       4553.6167      0.66961845
       4554.3494      0.49464747
       4555.0821      0.92687856
       4555.8148       1.0375300
       4556.5475       1.0559500
       4557.2802      0.95819321
       4558.0129      0.87229438
       4558.7456      0.91441504
       4559.4783       1.0612419
       4560.2110       1.0051492
       4560.9436       1.1709427
       4561.6763       1.0270005
       4562.4090       1.1061312
       4563.1417      0.95284900
       4563.8744      0.89455945
       4564.6071       1.1022286
       4565.3398      0.94234952
       4566.0725      0.87629750
       4566.8052      0.97309263
       4567.5379      0.76411105
       4568.2706      0.94937253
       4569.0032      0.96425778
       4569.7359      0.96317954
       4570.4686      0.11462160
       4571.2013      0.52528896
       4571.9340      0.40587120
       4572.6667      0.87324910
       4573.3994      0.89868666
       4574.1321       1.2386561
       4574.8648      0.92057463
       4575.5975      0.96809195
       4576.3302      0.96701136
       4577.0628       1.0462218
       4577.7955      0.89378963
       4578.5282      0.97862406
       4579.2609      0.92862225
       4579.9936      0.87837409
       4580.7263      0.94338295
       4581.4590      0.89954770
       4582.1917      0.87656232
       4582.9244      0.97264800
       4583.6571      0.92594238
       4584.3898      0.85443412
       4585.1224      0.83695981
       4585.8551      0.93243257
       4586.5878       1.0692471
       4587.3205       1.0164169
       4588.0532      0.87497889
       4588.7859       1.0761888
       4589.5186       1.0352610
       4590.2513      0.81686473
       4590.9840      0.90343544
       4591.7167      0.77606133
       4592.4494      0.76702189
       4593.1820      0.89389812
       4593.9147      0.70346979
       4594.6474      0.98302738
       4595.3801       1.0957825
       4596.1128      0.90171193
       4596.8455      0.99449336
       4597.5782      0.97045506
       4598.3109       1.0169696
       4599.0436       1.0770704
       4599.7763       1.0223464
       4600.5090       1.2080999
       4601.2416      0.96316811
       4601.9743       1.0635528
       4602.7070       1.0160350
       4603.4397       1.0765485
       4604.1724      0.98796812
       4604.9051      0.94852387
       4605.6378       1.0287378
       4606.3705      0.95957676
       4607.1032      0.93583327
       4607.8359       1.0711414
       4608.5686      0.83251920
       4609.3012       1.1653891
       4610.0339      0.90805001
       4610.7666      0.93223489
       4611.4993       1.0812246
       4612.2320       1.0722027
       4612.9647      0.98220533
       4613.6974      0.95296808
       4614.4301       1.1627290
       4615.1628      0.82475113
       4615.8955       1.0732317
       4616.6282      0.89325972
       4617.3608      0.90284361
       4618.0935      0.90361677
       4618.8262      0.99528172
       4619.5589      0.89843128
       4620.2916       1.1590168
       4621.0243       1.0774621
       4621.7570       1.0639259
       4622.4897       1.0396476
       4623.2224       1.1651749
       4623.9551       1.1063996
       4624.6878      0.99994058
       4625.4204       1.1049758
       4626.1531       1.2625979
       4626.8858       1.0671776
       4627.6185       1.1578689
       4628.3512       1.0915278
       4629.0839       1.1236456
       4629.8166      0.99607091
       4630.5493       1.0926144
       4631.2820       1.0941347
       4632.0147       1.1001735
       4632.7474       1.0486557
       4633.4800      0.99394883
       4634.2127      0.76286450
       4634.9454       1.1437910
       4635.6781      0.83177715
       4636.4108      0.84797683
       4637.1435       1.2580360
       4637.8762       1.1410221
       4638.6089       1.1224847
       4639.3416       1.1210069
       4640.0743       1.1592840
       4640.8070       1.2517247
       4641.5397       1.3120536
       4642.2723       1.3987255
       4643.0050       1.2228029
       4643.7377       1.1886854
       4644.4704       1.0212697
       4645.2031      0.99458236
       4645.9358       1.0297176
       4646.6685       1.1209410
       4647.4012      0.88855461
       4648.1339      0.63561140
       4648.8666      0.70706273
       4649.5993      0.86509675
       4650.3319       1.0048556
       4651.0646      0.93283547
       4651.7973      0.94601336
       4652.5300       1.1545957
       4653.2627      0.84128137
       4653.9954      0.81360995
       4654.7281      0.89896159
       4655.4608      0.92787794
       4656.1935      0.86947122
       4656.9262       1.0818993
       4657.6589      0.96941695
       4658.3915       1.0245825
       4659.1242      0.93893383
       4659.8569       1.0186333
       4660.5896       1.1000593
       4661.3223      0.99773202
       4662.0550       1.1459651
       4662.7877      0.91928143
       4663.5204       1.3979283
       4664.2531      0.96990378
       4664.9858      0.99475806
       4665.7185       1.0645959
       4666.4511       1.0134560
       4667.1838      0.89883438
       4667.9165       1.1888889
       4668.6492       1.1498512
       4669.3819      0.81722208
       4670.1146      0.96818966
       4670.8473      0.81750951
       4671.5800      0.77365557
       4672.3127      0.90611778
       4673.0454       1.0051602
       4673.7781       1.1073926
       4674.5107       1.2252429
       4675.2434       1.1246570
       4675.9761       1.1043897
       4676.7088       1.2646188
       4677.4415       1.1231476
       4678.1742       1.1982291
       4678.9069       1.2945497
       4679.6396       1.1922291
       4680.3723       1.1035495
       4681.1050      0.94909070
       4681.8377      0.91858283
       4682.5703       1.0353185
       4683.3030       1.0531460
       4684.0357      0.97703717
       4684.7684       1.0118643
       4685.5011       1.0363428
       4686.2338       1.1407319
       4686.9665      0.98920917
       4687.6992      0.89458057
       4688.4319       1.0665035
       4689.1646       1.0089095
       4689.8973       1.0648494
       4690.6299       1.0233586
       4691.3626       1.0736099
       4692.0953       1.0778292
       4692.8280       1.0603641
       4693.5607       1.1704149
       4694.2934       1.0877989
       4695.0261      0.87284850
       4695.7588       1.2817463
       4696.4915       1.0425004
       4697.2242       1.0635561
       4697.9569       1.1679220
       4698.6895      0.99767739
       4699.4222       1.2057714
       4700.1549       1.0326623
       4700.8876       1.1266164
       4701.6203       1.0068584
       4702.3530       1.0174501
       4703.0857      0.96702032
       4703.8184       1.0122826
       4704.5511       1.0747394
       4705.2838       1.0136953
       4706.0165      0.82812702
       4706.7491      0.48302721
       4707.4818      0.57644613
       4708.2145      0.67994134
       4708.9472             NaN
       4709.6799             NaN
       4710.4126             NaN
       4711.1453             NaN
       4711.8780             NaN
       4712.6107             NaN
       4713.3434             NaN
       4714.0761             NaN
       4714.8087             NaN
       4715.5414             NaN
       4716.2741             NaN
       4717.0068             NaN
       4717.7395             NaN
       4718.4722             NaN
       4719.2049             NaN
       4719.9376             NaN
       4720.6703             NaN
       4721.4030             NaN
       4722.1357             NaN
       4722.8683             NaN
       4723.6010             NaN
       4724.3337             NaN
       4725.0664             NaN
       4725.7991             NaN
       4726.5318             NaN
       4727.2645             NaN
       4727.9972             NaN
       4728.7299             NaN
       4729.4626             NaN
       4730.1953             NaN
       4730.9279             NaN
       4731.6606             NaN
       4732.3933             NaN
       4733.1260             NaN
       4733.8587             NaN
       4734.5914             NaN
       4735.3241             NaN
       4736.0568             NaN
       4736.7895             NaN
       4737.5222             NaN
       4738.2549             NaN
       4738.9875             NaN
       4739.7202             NaN
       4740.4529             NaN
       4741.1856             NaN
       4741.9183             NaN
       4742.6510             NaN
       4743.3837             NaN
       4744.1164             NaN
       4744.8491             NaN
       4745.5818             NaN
       4746.3145             NaN
       4747.0471             NaN
       4747.7798             NaN
       4748.5125             NaN
       4749.2452             NaN
       4749.9779             NaN
       4750.7106             NaN
       4751.4433             NaN
       4752.1760             NaN
       4752.9087             NaN
       4753.6414             NaN
       4754.3741             NaN
       4755.1067             NaN
       4755.8394             NaN
       4756.5721             NaN
       4757.3048             NaN
       4758.0375             NaN
       4758.7702             NaN
       4759.5029             NaN
       4760.2356             NaN
       4760.9683             NaN
       4761.7010             NaN
       4762.4337             NaN
       4763.1663             NaN
       4763.8990             NaN
       4764.6317             NaN
       4765.3644             NaN
       4766.0971             NaN
       4766.8298             NaN
       4767.5625             NaN
       4768.2952             NaN
       4769.0279             NaN
       4769.7606             NaN
       4770.4933             NaN
       4771.2259             NaN
       4771.9586             NaN
       4772.6913             NaN
       4773.4240             NaN
       4774.1567             NaN
       4774.8894      0.80517440
       4775.6221      0.79037196
       4776.3548      0.71638446
       4777.0875      0.86357126
       4777.8202      0.97992514
       4778.5529      0.85734718
       4779.2855       1.3643859
       4780.0182       1.4480069
       4780.7509       1.2554968
       4781.4836       1.3964338
       4782.2163       1.0782787
       4782.9490       1.2335382
       4783.6817       1.2209535
       4784.4144       1.1257318
       4785.1471      0.51837371
       4785.8798      0.83952398
       4786.6125      0.84646834
       4787.3451      0.46786642
       4788.0778      0.15968275
       4788.8105      0.70110956
       4789.5432      0.90268311
       4790.2759      0.93606736
       4791.0086      0.71327084
       4791.7413      0.91236853
       4792.4740      0.76722258
       4793.2067      0.60030538
       4793.9394      0.96195232
       4794.6721       1.0326244
       4795.4047      0.93877075
       4796.1374       1.0126523
       4796.8701       1.0271945
       4797.6028      0.97695442
       4798.3355      0.92681259
       4799.0682      0.97444807
       4799.8009      0.96427540
       4800.5336      0.95730293
       4801.2663      0.96455130
       4801.9990      0.92199138
       4802.7317      0.62012080
       4803.4643      0.56374827
       4804.1970      0.83138979
       4804.9297       1.1922010
       4805.6624      0.73120116
       4806.3951      0.82679500
       4807.1278       1.0666232
       4807.8605      0.88368768
       4808.5932     -0.13938935
       4809.3259      0.23695584
       4810.0586      0.71558360
       4810.7913      0.68492968
       4811.5239      0.62913600
       4812.2566       1.1691235
       4812.9893      0.90646683
       4813.7220      0.84241404
       4814.4547       1.0865426
       4815.1874       1.0312338
       4815.9201      0.78144260
       4816.6528      0.98378916
       4817.3855      0.97140909
       4818.1182      0.98707211
       4818.8509      0.98266835
       4819.5835      0.98937700
       4820.3162       1.0409032
       4821.0489      0.97454664
       4821.7816      0.81465876
       4822.5143       1.0140298
       4823.2470      0.86335886
       4823.9797      0.92626145
       4824.7124      0.82014902
       4825.4451      0.58964428
       4826.1778       1.0992650
       4826.9105      0.87148519
       4827.6431       1.1548854
       4828.3758      0.71910857
       4829.1085       1.0222408
       4829.8412       1.1420389
       4830.5739       1.1171232
       4831.3066      0.99623784
       4832.0393      0.77180248
       4832.7720      0.97896160
       4833.5047      0.43166009
       4834.2374      0.95589032
       4834.9701       1.0963789
       4835.7027      0.84513265
       4836.4354       1.0195933
       4837.1681      0.78139761
       4837.9008       1.0139923
       4838.6335       1.0495319
       4839.3662       1.0221567
       4840.0989      0.98267647
       4840.8316       1.0747610
       4841.5643       1.0307959
       4842.2970       1.0886677
       4843.0297      0.56485924
       4843.7623      0.23114598
       4844.4950    -0.051524224
       4845.2277      0.11799881
       4845.9604      0.57974025
       4846.6931       1.1025992
       4847.4258       1.0620164
       4848.1585      0.91362901
       4848.8912      0.81139243
       4849.6239      0.86671703
       4850.3566      0.60610677
       4851.0893      0.60389323
       4851.8219      0.70698311
       4852.5546      0.82209019
       4853.2873      0.75762145
       4854.0200      0.54767875
       4854.7527      0.87227047
       4855.4854      0.90613836
       4856.2181      0.80003664
       4856.9508      0.91050393
       4857.6835       1.0888685
       4858.4162       1.2556213
       4859.1489       1.3307204
       4859.8815       1.5404344
       4860.6142       1.7706397
       4861.3469       1.8001782
       4862.0796       1.7537357
       4862.8123       1.7620724
       4863.5450       1.9718354
       4864.2777       1.7218876
       4865.0104       1.4241361
       4865.7431       1.3892215
       4866.4758       1.6571551
       4867.2085       1.1975072
       4867.9411       1.1318325
       4868.6738       1.0213295
       4869.4065       1.1138143
       4870.1392      0.78181441
       4870.8719      0.70208554
       4871.6046      0.82535884
       4872.3373      0.72803492
       4873.0700      0.30349260
       4873.8027      0.57456076
       4874.5354      0.80218322
       4875.2681      0.75039724
       4876.0007      0.47092462
       4876.7334      0.71214462
       4877.4661       1.0750692
       4878.1988      0.95126455
       4878.9315      0.94952295
       4879.6642      0.73108732
       4880.3969      0.61746305
       4881.1296      0.91960024
       4881.8623      0.90496815
       4882.5950       1.1045241
       4883.3277       1.1379139
       4884.0603       1.1924191
       4884.7930       1.0348362
       4885.5257      0.79009510
       4886.2584       1.1047920
       4886.9911      0.85192235
       4887.7238      0.73285690
       4888.4565       1.0364596
       4889.1892       1.1807078
       4889.9219      0.82050608
       4890.6546       1.0090756
       4891.3873      0.76908855
       4892.1199      0.83252236
       4892.8526      0.78755216
       4893.5853      0.67804377
       4894.3180      0.95119066
       4895.0507      0.72434954
       4895.7834      0.96127002
       4896.5161       1.0214698
       4897.2488       1.1061369
       4897.9815       1.0976768
       4898.7142       1.0425845
       4899.4469      0.95700990
       4900.1795      0.95082947
       4900.9122      0.87233551
       4901.6449      0.93070025
       4902.3776      0.99518028
       4903.1103       1.0907774
       4903.8430       1.3763963
       4904.5757       1.0487105
       4905.3084       1.0218812
       4906.0411       1.1885173
       4906.7738      0.86818394
       4907.5065      0.84446784
       4908.2391      0.44583548
       4908.9718       1.1454714
       4909.7045      0.83272728
       4910.4372       1.0995729
       4911.1699       1.1754682
       4911.9026       1.0205633
       4912.6353      0.99154834
       4913.3680      0.95597854
       4914.1007      0.73531158
       4914.8334      0.96250816
       4915.5661       1.0145713
       4916.2987      0.93807199
       4917.0314      0.78354513
       4917.7641       1.0633256
       4918.4968      0.72098772
       4919.2295      0.68940575
       4919.9622      0.86452372
       4920.6949       1.0128779
       4921.4276       1.0034632
       4922.1603       1.0179392
       4922.8930      0.94736587
       4923.6257       1.0231862
       4924.3583       1.0090616
       4925.0910       1.1225087
       4925.8237       1.0482089
       4926.5564       1.0762105
       4927.2891       1.0326042
       4928.0218      0.85107621
       4928.7545       1.0224651
       4929.4872      0.74141813
       4930.2199       1.1937291
       4930.9526       1.0145198
       4931.6853      0.98169064
       4932.4179       1.0213461
       4933.1506       1.0573918
       4933.8833      0.91627443
       4934.6160       1.0451238
       4935.3487       1.1549406
       4936.0814      0.92920602
       4936.8141       1.1695320
       4937.5468      0.99527308
       4938.2795      0.83969721
       4939.0122      0.82900805
       4939.7449       1.0260438
       4940.4775       1.0986324
       4941.2102       1.0933149
       4941.9429       1.5212136
       4942.6756       1.3549525
       4943.4083       1.2783576
       4944.1410       1.0842748
       4944.8737       1.1155777
       4945.6064       1.1097920
       4946.3391       1.1377502
       4947.0718      0.98718518
       4947.8045       1.1507479
       4948.5371       1.2297870
       4949.2698       1.3967730
       4950.0025       1.5131387
       4950.7352       1.6074976
       4951.4679       1.4887818
       4952.2006       1.1369366
       4952.9333       1.1276745
       4953.6660       1.2228373
       4954.3987       1.0889028
       4955.1314       1.6388817
       4955.8641       1.9176721
       4956.5968       1.7932325
       4957.3294       1.9913132
       4958.0621       1.8848045
       4958.7948       1.8092355
       4959.5275       1.8870554
       4960.2602       2.0362512
       4960.9929       1.9312169
       4961.7256       1.4428808
       4962.4583       1.1769037
       4963.1910       1.1574222
       4963.9237       1.2018956
       4964.6564       1.0906109
       4965.3890       1.1236923
       4966.1217       1.1360231
       4966.8544      0.98959704
       4967.5871       1.0752212
       4968.3198      0.91437811
       4969.0525       1.0106169
       4969.7852       1.1377308
       4970.5179       1.1883963
       4971.2506       1.1507972
       4971.9833       1.0730172
       4972.7160      0.96891339
       4973.4486      0.94118424
       4974.1813      0.89301313
       4974.9140       1.2092820
       4975.6467      0.86498696
       4976.3794      0.94749967
       4977.1121      0.91046289
       4977.8448      0.84213408
       4978.5775       1.4368298
       4979.3102       1.2722702
       4980.0429      0.89480430
       4980.7756       1.0321640
       4981.5082       1.0349872
       4982.2409       1.1386400
       4982.9736      0.92635383
       4983.7063      0.95869336
       4984.4390      0.97118509
       4985.1717      0.99409854
       4985.9044      0.94194096
       4986.6371      0.90247700
       4987.3698      0.90848317
       4988.1025       1.0471068
       4988.8352      0.82816355
       4989.5678      0.98675665
       4990.3005      0.81954106
       4991.0332       1.0124865
       4991.7659       1.0468687
       4992.4986      0.93469681
       4993.2313      0.98806122
       4993.9640       1.0059530
       4994.6967      0.92565837
       4995.4294      0.96665701
       4996.1621      0.99312048
       4996.8948       1.0664679
       4997.6274      0.87466583
       4998.3601       1.0176557
       4999.0928       1.0313343
       4999.8255       1.0083128
       5000.5582      0.97574444
       5001.2909      0.88619091
       5002.0236      0.99728224
       5002.7563       1.3182876
       5003.4890       1.3714822
       5004.2217       1.4364623
       5004.9544       1.4918440
       5005.6870       1.6364969
       5006.4197       1.6972535
       5007.1524       1.7115834
       5007.8851       1.6178394
       5008.6178       1.6561950
       5009.3505       1.4682198
       5010.0832       1.5698740
       5010.8159       1.2623038
       5011.5486       1.1405617
       5012.2813      0.89195114
       5013.0140      0.89184539
       5013.7466       1.0242972
       5014.4793       1.0356915
       5015.2120       1.0383204
       5015.9447       1.0213721
       5016.6774       1.0695908
       5017.4101      0.80377990
       5018.1428      0.99851755
       5018.8755      0.98933517
       5019.6082      0.97939584
       5020.3409      0.98895635
       5021.0736      0.90288598
       5021.8062      0.90754358
       5022.5389       1.1018266
       5023.2716       1.0968681
       5024.0043      0.91481087
       5024.7370       1.0514922
       5025.4697       1.1281084
       5026.2024       1.0765243
       5026.9351      0.90878433
       5027.6678       1.0256983
       5028.4005       1.0154448
       5029.1332      0.99845495
       5029.8658       1.0000563
       5030.5985      0.79309888
       5031.3312      0.89554659
       5032.0639      0.75860999
       5032.7966      0.85020895
       5033.5293      0.90611502
       5034.2620      0.96896176
       5034.9947      0.91196285
       5035.7274       1.0041023
       5036.4601      0.85068131
       5037.1928      0.84643377
       5037.9254      0.98867932
       5038.6581      0.93242453
       5039.3908      0.93796557
       5040.1235      0.88022979
       5040.8562      0.93592937
       5041.5889      0.94222807
       5042.3216       1.0108482
       5043.0543       1.0211309
       5043.7870      0.93942113
       5044.5197      0.95308432
       5045.2524       1.0153270
       5045.9850      0.98358206
       5046.7177       1.0613354
       5047.4504      0.96778091
       5048.1831      0.80110617
       5048.9158      0.93143521
       5049.6485      0.79400924
       5050.3812      0.95513570
       5051.1139      0.97257718
       5051.8466      0.91963964
       5052.5793       1.0006022
       5053.3120      0.99717332
       5054.0446       1.0932981
       5054.7773      0.85911412
       5055.5100      0.99275381
       5056.2427       1.0373351
       5056.9754      0.99041203
       5057.7081      0.99843372
       5058.4408      0.94544151
       5059.1735      0.89121779
       5059.9062      0.89161071
       5060.6389      0.90410880
       5061.3716      0.83965514
       5062.1042      0.91723518
       5062.8369      0.96558832
       5063.5696      0.95477680
       5064.3023       1.0340618
       5065.0350      0.98060626
       5065.7677      0.89088185
       5066.5004       1.0025267
       5067.2331      0.84918783
       5067.9658      0.87475998
       5068.6985      0.65110550
       5069.4312      0.83808568
       5070.1638      0.82755453
       5070.8965      0.89198033
       5071.6292      0.90804082
       5072.3619      0.96750451
       5073.0946      0.85860500
       5073.8273      0.87651308
       5074.5600      0.80640812
       5075.2927      0.87086389
       5076.0254      0.85275312
       5076.7581      0.94251408
       5077.4908      0.93387122
       5078.2234      0.87500930
       5078.9561      0.99398523
       5079.6888      0.87985303
       5080.4215      0.86091347
       5081.1542      0.74038732
       5081.8869      0.89219677
       5082.6196      0.89910395
       5083.3523      0.96103700
       5084.0850       1.0259842
       5084.8177       1.0042415
       5085.5504      0.92602285
       5086.2830       1.0479814
       5087.0157      0.93179303
       5087.7484      0.96635376
       5088.4811       1.0458448
       5089.2138       1.0781344
       5089.9465      0.99967838
       5090.6792      0.95804173
       5091.4119      0.99406152
       5092.1446      0.88163320
       5092.8773      0.88471802
       5093.6100      0.88468599
       5094.3426      0.82525413
       5095.0753      0.92027457
       5095.8080      0.99889963
       5096.5407      0.96807473
       5097.2734      0.83404188
       5098.0061      0.89670128
       5098.7388      0.99463010
       5099.4715      0.86931537
       5100.2042      0.97724107
       5100.9369      0.88966851
       5101.6696      0.83637226
       5102.4022      0.82572395
       5103.1349      0.73714881
       5103.8676      0.75278029
       5104.6003      0.92556318
       5105.3330      0.83283438
       5106.0657      0.96963844
       5106.7984      0.88899706
       5107.5311       1.0007766
       5108.2638      0.92929487
       5108.9965      0.96745430
       5109.7292      0.98925242
       5110.4618      0.92011754
       5111.1945       1.0762525
       5111.9272      0.99170073
       5112.6599      0.94371666
       5113.3926      0.98515005
       5114.1253      0.94932023
       5114.8580       1.1009770
       5115.5907      0.88961889
       5116.3234      0.90994241
       5117.0561      0.93175755
       5117.7888      0.81482462
       5118.5214      0.91030764
       5119.2541      0.93165572
       5119.9868      0.98870828
       5120.7195      0.87736438
       5121.4522      0.94209733
       5122.1849       1.0668414
       5122.9176      0.98538400
       5123.6503      0.87859786
       5124.3830      0.93147152
       5125.1157      0.97691159
       5125.8484      0.90354513
       5126.5810      0.98208828
       5127.3137      0.89485720
       5128.0464      0.87353884
       5128.7791      0.99583321
       5129.5118       1.0702464
       5130.2445       1.0423782
       5130.9772       1.2063068
       5131.7099       1.1712638
       5132.4426      0.96854155
       5133.1753      0.71457101
       5133.9080       1.0063081
       5134.6406      0.49046717
       5135.3733      0.79814247
       5136.1060       1.0019347
       5136.8387       1.0348743
       5137.5714      0.64708963
       5138.3041      0.53081986
       5139.0368      0.85644000
       5139.7695      0.74921456
       5140.5022      0.54222750
       5141.2349      0.83427954
       5141.9676      0.95560929
       5142.7002      0.81640146
       5143.4329      0.51633090
       5144.1656      0.50917921
       5144.8983       1.0863489
       5145.6310      0.60274516
       5146.3637      0.75817845
       5147.0964      0.95058110
       5147.8291       1.0539157
       5148.5618      0.92335647
       5149.2945      0.79850917
       5150.0272      0.74212292
       5150.7598      0.83224998
       5151.4925       1.0621900
       5152.2252       1.1047443
       5152.9579      0.93825073
       5153.6906       1.0653939
       5154.4233      0.83246999
       5155.1560      0.99430056
       5155.8887      0.94570142
       5156.6214      0.79193579
       5157.3541      0.88413930
       5158.0868      0.92725234
       5158.8194      0.99712670
       5159.5521       1.0423927
       5160.2848      0.85535895
       5161.0175      0.79407423
       5161.7502      0.92344375
       5162.4829      0.90610238
       5163.2156      0.86327574
       5163.9483      0.85714314
       5164.6810      0.97210359
       5165.4137      0.91536960
       5166.1464      0.87629339
       5166.8790      0.92233118
       5167.6117       1.0381121
       5168.3444      0.90504217
       5169.0771      0.78541410
       5169.8098      0.55633547
       5170.5425      0.53855958
       5171.2752      0.17603184
       5172.0079     0.085097754
       5172.7406      0.65669767
       5173.4733      0.48778189
       5174.2060      0.96774598
       5174.9386       1.0444787
       5175.6713       1.2207790
       5176.4040       1.0151828
       5177.1367      0.97835457
       5177.8694      0.71931325
       5178.6021      0.84213378
       5179.3348      0.92461353
       5180.0675      0.79384873
       5180.8002      0.87572352
       5181.5329      0.94492863
       5182.2656      0.88957738
       5182.9982      0.94457003
       5183.7309      0.93224270
       5184.4636      0.68107144
       5185.1963      0.97269460
       5185.9290      0.98757285
       5186.6617      0.75286338
       5187.3944      0.81903810
       5188.1271      0.80949537
       5188.8598      0.85030132
       5189.5925      0.97449144
       5190.3252       1.1251691
       5191.0578      0.91296753
       5191.7905       1.0958102
       5192.5232       1.1189603
       5193.2559       1.0213150
       5193.9886       1.0362966
       5194.7213      0.98535404
       5195.4540       1.0353577
       5196.1867      0.97369193
       5196.9194       1.1227964
       5197.6521      0.90525392
       5198.3848      0.89141930
       5199.1174      0.96435732
       5199.8501       1.0744116
       5200.5828       1.1608404
       5201.3155       1.0842929
       5202.0482       1.1364961
       5202.7809       1.5316998
       5203.5136      0.97670277
       5204.2463       1.0535288
       5204.9790      0.45815474
       5205.7117      0.16459868
       5206.4444      0.37027553
       5207.1770      0.86058894
       5207.9097      0.97882418
       5208.6424       1.3021276
       5209.3751       1.2046359
       5210.1078       1.0144880
       5210.8405       1.1651414
       5211.5732       1.0090051
       5212.3059       1.1497180
       5213.0386       1.1583342
       5213.7713      0.97551664
       5214.5040      0.66430366
       5215.2366      0.77718911
       5215.9693      0.82132286
       5216.7020      0.97238406
       5217.4347       1.0675429
       5218.1674      0.96963869
       5218.9001       1.1223288
       5219.6328       1.1359205
       5220.3655       1.2033409
       5221.0982       1.0309452
       5221.8309       1.1291207
       5222.5636       1.1977636
       5223.2962      0.77077701
       5224.0289      0.84026243
       5224.7616      0.30596024
       5225.4943      0.33211939
       5226.2270      0.81445932
       5226.9597      0.90206227
       5227.6924      0.98464327
       5228.4251      0.94282483
       5229.1578      0.96129051
       5229.8905       1.0226610
       5230.6232       1.0074975
       5231.3558      0.90525843
       5232.0885      0.85469946
       5232.8212      0.97704046
       5233.5539       1.0063032
       5234.2866       1.0213057
       5235.0193       1.0940740
       5235.7520       1.0886499
       5236.4847      0.85207270
       5237.2174       1.0629720
       5237.9501      0.81334854
       5238.6828       1.0540672
       5239.4154       1.0652114
       5240.1481       1.2730604
       5240.8808       1.0625341
       5241.6135      0.91136677
       5242.3462      0.92892683
       5243.0789      0.98731601
       5243.8116       1.3111077
       5244.5443      0.79435876
       5245.2770      0.70348246
       5246.0097      0.80000378
       5246.7424      0.73415362
       5247.4750      0.88311746
       5248.2077      0.70306139
       5248.9404       1.1946605
       5249.6731       1.1034149
       5250.4058      0.83714607
       5251.1385      0.93950234
       5251.8712       1.0786128
       5252.6039      0.92695290
       5253.3366      0.80021464
       5254.0693      0.81371796
       5254.8020      0.92068030
       5255.5346       1.1321324
       5256.2673      0.95866540
       5257.0000       1.0235882
       5257.7327       1.0087841
       5258.4654      0.77673616
       5259.1981      0.86898698
       5259.9308      0.89867552
       5260.6635      0.78972985
       5261.3962      0.86633509
       5262.1289       1.0357398
       5262.8616      0.89379680
       5263.5942      0.73416910
       5264.3269      0.96338567
       5265.0596      0.90843198
       5265.7923      0.80859030
       5266.5250       1.1648567
       5267.2577      0.85325436
       5267.9904      0.82567181
       5268.7231      0.71979542
       5269.4558      0.89417107
       5270.1885      0.83218165
       5270.9212      0.76219235
       5271.6539      0.99452297
       5272.3865       1.0549556
       5273.1192      0.89561348
       5273.8519      0.99733898
       5274.5846      0.97709178
       5275.3173       1.0518601
       5276.0500       1.0389549
       5276.7827       1.0979060
       5277.5154       1.0120968
       5278.2481      0.96080539
       5278.9808      0.90068332
       5279.7135       1.0344184
       5280.4461       1.0858095
       5281.1788       1.0877766
       5281.9115      0.90074510
       5282.6442      0.90900220
       5283.3769       1.0664499
       5284.1096      0.98778046
       5284.8423       1.0265749
       5285.5750       1.0252278
       5286.3077       1.1052016
       5287.0404       1.0768635
       5287.7731       1.1449741
       5288.5057       1.1338114
       5289.2384       1.1312147
       5289.9711       1.0431954
       5290.7038      0.99511249
       5291.4365       1.0564609
       5292.1692       1.0537635
       5292.9019       1.0679624
       5293.6346       1.0429851
       5294.3673       1.0166718
       5295.1000       1.0415006
       5295.8327      0.91320945
       5296.5653       1.0397761
       5297.2980      0.93184320
       5298.0307      0.97505251
       5298.7634      0.98202748
       5299.4961       1.0694919
       5300.2288       1.0903401
       5300.9615      0.99727601
       5301.6942       1.0679321
       5302.4269       1.0330088
       5303.1596       1.0684312
       5303.8923      0.95604774
       5304.6249       1.0425291
       5305.3576       1.0849920
       5306.0903       1.0481663
       5306.8230       1.1366261
       5307.5557       1.0507819
       5308.2884      0.97591816
       5309.0211       1.0534203
       5309.7538      0.94428808
       5310.4865      0.95763819
       5311.2192      0.91616451
       5311.9519       1.0130282
       5312.6845      0.95695596
       5313.4172      0.92432131
       5314.1499      0.94491708
       5314.8826       1.0200102
       5315.6153       1.0113010
       5316.3480      0.87214447
       5317.0807      0.91323076
       5317.8134      0.93745463
       5318.5461       1.0010939
       5319.2788      0.93025681
       5320.0115       1.2010021
       5320.7441      0.99063914
       5321.4768      0.94284693
       5322.2095       1.1075307
       5322.9422       1.0655718
       5323.6749       1.0137871
       5324.4076       1.0805138
       5325.1403      0.97835040
       5325.8730      0.94005867
       5326.6057      0.85330656
       5327.3384      0.84406124
       5328.0711       1.0550101
       5328.8037       1.0260038
       5329.5364      0.90980501
       5330.2691      0.88369622
       5331.0018       1.0082450
       5331.7345       1.0171880
       5332.4672       1.0346111
       5333.1999       1.0184882
       5333.9326       1.0619450
       5334.6653      0.94492189
       5335.3980       1.0563137
       5336.1307      0.90980928
       5336.8633       1.0954871
       5337.5960      0.96799319
       5338.3287      0.88353703
       5339.0614       1.1091239
       5339.7941       1.0119089
       5340.5268       1.1088246
       5341.2595      0.98598598
       5341.9922       1.0494726
       5342.7249       1.2218537
       5343.4576       1.1069921
       5344.1903      0.99707022
       5344.9229      0.99433283
       5345.6556      0.92980072
       5346.3883       1.0642037
       5347.1210       1.1926124
       5347.8537      0.86284881
       5348.5864       1.0763237
       5349.3191       1.1407788
       5350.0518       1.1040394
       5350.7845       1.0374424
       5351.5172       1.0320107
       5352.2499       1.0275792
       5352.9825       1.1448450
       5353.7152       1.0122861
       5354.4479       1.0650183
       5355.1806       1.1323858
       5355.9133       1.0649697
       5356.6460      0.94832637
       5357.3787       1.0586478
       5358.1114       1.0872600
       5358.8441       1.2679014
       5359.5768       1.2652914
       5360.3095       1.0440288
       5361.0421       1.0039176
       5361.7748      0.98339016
       5362.5075       1.0873324
       5363.2402      0.85932437
       5363.9729      0.79303270
       5364.7056       1.0911471
       5365.4383       1.1663081
       5366.1710       1.0774821
       5366.9037       1.1304462
       5367.6364      0.79746653
       5368.3691      0.81532834
       5369.1017       1.0011852
       5369.8344       1.1376421
       5370.5671       1.0450357
       5371.2998      0.99636056
       5372.0325       1.0554896
       5372.7652       1.1214598
       5373.4979       1.1184786
       5374.2306       1.2274376
       5374.9633       1.1416838
       5375.6960      0.93778041
       5376.4287      0.84439914
       5377.1613      0.92333051
       5377.8940       1.1493869
       5378.6267       1.1074130
       5379.3594       1.0394898
       5380.0921      0.99779296
       5380.8248       1.0555924
       5381.5575       1.1404946
       5382.2902       1.0736718
       5383.0229       1.0963045
       5383.7556       1.0340358
       5384.4883       1.0508524
       5385.2209       1.0261378
       5385.9536       1.0580136
       5386.6863       1.0373397
       5387.4190       1.1117430
       5388.1517      0.98530320
       5388.8844       1.0303313
       5389.6171       1.0585381
       5390.3498      0.92370864
       5391.0825      0.96414527
       5391.8152      0.99900275
       5392.5479       1.0004104
       5393.2805       1.0008842
       5394.0132      0.87471044
       5394.7459      0.87917140
       5395.4786      0.98320056
       5396.2113       1.0413692
       5396.9440       1.0000097
       5397.6767      0.97565701
       5398.4094       1.0018983
       5399.1421       1.0417504
       5399.8748      0.99108871
       5400.6075      0.91395800
       5401.3401      0.96474350
       5402.0728      0.94275582
       5402.8055       1.0260945
       5403.5382      0.99967711
       5404.2709      0.99305437
       5405.0036       1.0112295
       5405.7363      0.93455923
       5406.4690      0.95776294
       5407.2017       1.1259582
       5407.9344       1.0556672
       5408.6671       1.0187187
       5409.3997       1.0646386
       5410.1324       1.0832403
       5410.8651       1.0603982
       5411.5978       1.1469864
       5412.3305       1.1150181
       5413.0632       1.0114955
       5413.7959       1.0188139
       5414.5286       1.1538148
       5415.2613       1.0719057
       5415.9940      0.94333209
       5416.7267      0.84765824
       5417.4593      0.89875189
       5418.1920      0.98373068
       5418.9247       1.0282313
       5419.6574       1.0730323
       5420.3901      0.97864073
       5421.1228      0.92297971
       5421.8555       1.0144256
       5422.5882       1.0011485
       5423.3209       1.0245296
       5424.0536      0.90228553
       5424.7863      0.79919957
       5425.5189      0.76437765
       5426.2516      0.99625137
       5426.9843      0.92996102
       5427.7170      0.91898111
       5428.4497      0.82663235
       5429.1824       1.2132151
       5429.9151       1.4149183
       5430.6478      0.71981610
       5431.3805      0.56917216
       5432.1132      0.73296645
       5432.8459       1.1376589
       5433.5785       1.4358356
       5434.3112       1.2816024
       5435.0439      0.46649860
       5435.7766       1.0456514
       5436.5093       1.0118688
       5437.2420      0.79367400
       5437.9747       1.1007395
       5438.7074      0.78993762
       5439.4401       1.0679794
       5440.1728       1.1103156
       5440.9055       1.3816973
       5441.6381       1.1440841
       5442.3708       1.0899836
       5443.1035       1.4281674
       5443.8362       1.1634013
       5444.5689      0.88692560
       5445.3016      0.97389176
       5446.0343       1.1116864
       5446.7670       1.3676277
       5447.4997       1.8259442
       5448.2324       2.0790534
       5448.9651       1.9477991
       5449.6977       1.5591740
       5450.4304       1.1641533
       5451.1631       1.0050217
       5451.8958      0.99511952
       5452.6285      0.96914435
       5453.3612       1.0940711
       5454.0939       1.0510130
       5454.8266       1.0259984
       5455.5593       1.1439372
       5456.2920       1.0183362
       5457.0247       1.0130776
       5457.7573       1.0242776
       5458.4900       1.1514657
       5459.2227       1.0380512
       5459.9554      0.98126973
       5460.6881      0.88625255
       5461.4208       1.0398501
       5462.1535       1.0158708
       5462.8862      0.94180765
       5463.6189      0.91478748
       5464.3516       1.3995107
       5465.0843       1.4746525
       5465.8169      0.78963171
       5466.5496      0.75549760
       5467.2823       1.2885806
       5468.0150      0.56553553
       5468.7477    -0.075291048
       5469.4804      0.55038197
       5470.2131       1.2866665
       5470.9458       1.3077111
       5471.6785       1.1511560
       5472.4112       1.0863399
       5473.1439       1.0372383
       5473.8765      0.90133652
       5474.6092      0.85208600
       5475.3419      0.63617126
       5476.0746       1.0435012
       5476.8073       1.1363338
       5477.5400       1.1237761
       5478.2727       1.1420831
       5479.0054       1.2038834
       5479.7381       1.1953585
       5480.4708       1.0098323
       5481.2035      0.98291846
       5481.9361       1.0404893
       5482.6688      0.99246658
       5483.4015       1.1222178
       5484.1342       1.1475939
       5484.8669       1.0947354
       5485.5996       1.2759048
       5486.3323       1.0896415
       5487.0650       1.0393391
       5487.7977      0.99104275
       5488.5304      0.98142887
       5489.2631      0.98664673
       5489.9957       1.0045865
       5490.7284      0.80678343
       5491.4611      0.56467370
       5492.1938      0.68461854
       5492.9265       1.0860129
       5493.6592       1.1303448
       5494.3919       1.0266121
       5495.1246       1.4015382
       5495.8573       1.3560145
       5496.5900       1.0318127
       5497.3227      0.99063295
       5498.0553      0.95665492
       5498.7880      0.93385314
       5499.5207       1.1033804
       5500.2534       1.3329530
       5500.9861       1.3365980
       5501.7188      0.96198455
       5502.4515      0.85772363
       5503.1842       1.1829503
       5503.9169      0.99859409
       5504.6496      0.13186799
       5505.3823      0.97095325
       5506.1149       1.5488140
       5506.8476       1.4927242
       5507.5803       1.2107973
       5508.3130       1.1959864
       5509.0457       1.1941352
       5509.7784       1.1877979
       5510.5111       1.1864589
       5511.2438       1.2664138
       5511.9765       1.3579740
       5512.7092      0.81649910
       5513.4419      0.94057127
       5514.1745       1.8684099
       5514.9072       2.3706700
       5515.6399       2.7257985
       5516.3726       2.1450701
       5517.1053       1.9214249
       5517.8380       1.2967008
       5518.5707       1.0072666
       5519.3034      0.97923057
       5520.0361       1.0994370
       5520.7688       1.2414614
       5521.5015       1.4494129
       5522.2341       1.0141581
       5522.9668      0.14294396
       5523.6995      0.97043476
       5524.4322      0.41871765
       5525.1649       1.0132665
       5525.8976      0.76215009
       5526.6303       1.1608601
       5527.3630       1.7028246
       5528.0957       1.5215080
       5528.8284       1.1581579
       5529.5611      0.99984976
       5530.2937       1.1348687
       5531.0264       1.1825705
       5531.7591       1.0771332
       5532.4918      0.95483421
       5533.2245       1.0335014
       5533.9572       1.0942930
       5534.6899       1.1615883
       5535.4226       1.2513275
       5536.1553       1.2784750
       5536.8880       1.1383125
       5537.6207       1.1121467
       5538.3533       1.0612894
       5539.0860      0.94600195
       5539.8187      0.76250614
       5540.5514      0.82649813
       5541.2841       1.0673561
       5542.0168       1.1616953
       5542.7495       1.2618144
       5543.4822       1.3028165
       5544.2149       1.3588535
       5544.9476       1.5433375
       5545.6803       1.5508666
       5546.4129      0.20676455
       5547.1456      0.49816632
       5547.8783      0.55472449
       5548.6110       1.0431222
       5549.3437       1.0714686
       5550.0764       1.3081199
       5550.8091       1.2857434
       5551.5418       1.0871084
       5552.2745      0.97382011
       5553.0072       1.0406989
       5553.7399       1.0906796
       5554.4725       1.2510430
       5555.2052       1.1585531
       5555.9379      0.95266901
       5556.6706       1.0430897
       5557.4033       1.0279166
       5558.1360      0.99798889
       5558.8687       1.0456690
       5559.6014       1.0692669
       5560.3341       1.1343077
       5561.0668       1.0525087
       5561.7995       1.0452498
       5562.5321       1.0615854
       5563.2648       1.1758523
       5563.9975       1.2347023
       5564.7302      0.98167290
       5565.4629      0.95964896
       5566.1956       1.0690872
       5566.9283      0.97311083
       5567.6610      0.90437062
       5568.3937      0.98907925
       5569.1264       1.0565168
       5569.8591       1.0914413
       5570.5917       1.1321352
       5571.3244       1.3285121
       5572.0571       1.2217103
       5572.7898      0.99279616
       5573.5225      0.80139564
       5574.2552      0.75529438
       5574.9879      0.80742761
       5575.7206       1.1082776
       5576.4533       1.3687939
       5577.1860       1.2528418
       5577.9187       1.0784745
       5578.6513       1.0259038
       5579.3840       1.0535172
       5580.1167       1.0364944
       5580.8494       1.0767517
       5581.5821      0.98125157
       5582.3148      0.96188368
       5583.0475      0.98205845
       5583.7802      0.98380039
       5584.5129       1.0502786
       5585.2456       1.0356648
       5585.9783      0.97573113
       5586.7110      0.93925997
       5587.4436      0.92396966
       5588.1763       1.0000900
       5588.9090       1.0707111
       5589.6417       1.0143845
       5590.3744       1.1258022
       5591.1071      0.96485282
       5591.8398      0.97244994
       5592.5725       1.1284380
       5593.3052       1.0479820
       5594.0379       1.1370280
       5594.7706       1.0068481
       5595.5032       1.0565192
       5596.2359       1.0073394
       5596.9686       1.2503027
       5597.7013       1.2081129
       5598.4340       1.1584857
       5599.1667       1.2337628
       5599.8994       1.3299928
       5600.6321       1.1626761
       5601.3648       1.1603693
       5602.0975       1.2526082
       5602.8302       1.1772643
       5603.5628      0.83164094
       5604.2955       1.1090002
       5605.0282       1.2746845
       5605.7609       1.3104329
       5606.4936       1.3520285
       5607.2263       1.2092763
       5607.9590       1.1002923
       5608.6917       1.1153823
       5609.4244       1.1549188
       5610.1571       1.1644437
       5610.8898       1.0387162
       5611.6224       1.0554556
       5612.3551       1.1043153
       5613.0878       1.0833027
       5613.8205       1.0624671
       5614.5532       1.0803674
       5615.2859      0.99113596
       5616.0186       1.0702176
       5616.7513      0.98342495
       5617.4840       1.0218459
       5618.2167       1.0491707
       5618.9494       1.0793669
       5619.6820       1.0460244
       5620.4147       1.0206155
       5621.1474       1.0674282
       5621.8801      0.98246596
       5622.6128       1.0576689
       5623.3455       1.0718397
       5624.0782       1.0337597
       5624.8109       1.0452302
       5625.5436       1.0057142
       5626.2763       1.0455220
       5627.0090       1.1845185
       5627.7416       1.0466304
       5628.4743      0.98022038
       5629.2070       1.1981442
       5629.9397       1.1489374
       5630.6724       1.2081708
       5631.4051       1.1024302
       5632.1378       1.2086882
       5632.8705       1.3026890
       5633.6032       1.2515089
       5634.3359       1.1922385
       5635.0686       1.0436885
       5635.8012       1.1484899
       5636.5339       1.1570470
       5637.2666       1.2503201
       5637.9993       1.3781014
       5638.7320       1.4399145
       5639.4647       1.3017772
       5640.1974       1.1763176
       5640.9301       1.1750516
       5641.6628       1.1713664
       5642.3955       1.2738845
       5643.1282       1.2384829
       5643.8608       1.2062537
       5644.5935       1.2014910
       5645.3262       1.1426809
       5646.0589       1.0897874
       5646.7916       1.1780408
       5647.5243       1.0850227
       5648.2570       1.0968248
       5648.9897       1.1390800
       5649.7224       1.1375742
       5650.4551       1.1029892
       5651.1878       1.0895647
       5651.9204       1.1019843
       5652.6531       1.0324359
       5653.3858       1.0383158
       5654.1185       1.0724605
       5654.8512       1.1542976
       5655.5839       1.0860686
       5656.3166      0.98967821
       5657.0493       1.0447385
       5657.7820      0.97103399
       5658.5147      0.92318232
       5659.2474       1.1543718
       5659.9800       1.1020993
       5660.7127       1.0900808
       5661.4454       1.1438555
       5662.1781       1.0784916
       5662.9108       1.1549293
       5663.6435       1.1001983
       5664.3762       1.0744122
       5665.1089       1.1935880
       5665.8416       1.2190148
       5666.5743       1.1469365
       5667.3070       1.1096091
       5668.0396       1.0070339
       5668.7723       1.1433017
       5669.5050       1.0973415
       5670.2377       1.1347059
       5670.9704       1.1360849
       5671.7031       1.0714634
       5672.4358       1.2471492
       5673.1685       1.1752640
       5673.9012       1.0814730
       5674.6339      0.99059289
       5675.3666       1.1467273
       5676.0992       1.2600436
       5676.8319       1.2324956
       5677.5646       1.1600926
       5678.2973       1.0580593
       5679.0300       1.0513044
       5679.7627       1.0608676
       5680.4954       1.1410083
       5681.2281       1.2068434
       5681.9608       1.0586946
       5682.6935       1.0923531
       5683.4262       1.1638927
       5684.1588       1.2413861
       5684.8915       1.1874978
       5685.6242       1.1249661
       5686.3569       1.1634401
       5687.0896       1.2130839
       5687.8223       1.2588981
       5688.5550       1.2147726
       5689.2877       1.1974889
       5690.0204       1.2161245
       5690.7531       1.1540303
       5691.4858       1.1160270
       5692.2184       1.1894083
       5692.9511       1.2141723
       5693.6838       1.1861765
       5694.4165       1.1392586
       5695.1492       1.1608170
       5695.8819       1.2852546
       5696.6146       1.2606830
       5697.3473       1.2202387
       5698.0800       1.1048348
       5698.8127       1.0679221
       5699.5454       1.1951171
       5700.2780       1.1488347
       5701.0107       1.1347512
       5701.7434       1.2128837
       5702.4761       1.2164081
       5703.2088       1.1324467
       5703.9415       1.1993014
       5704.6742       1.1903167
       5705.4069       1.0626339
       5706.1396      0.96805202
       5706.8723       1.0454481
       5707.6050       1.2124916
       5708.3376       1.3221119
       5709.0703       1.2028281
       5709.8030       1.1725949
       5710.5357       1.0440946
       5711.2684       1.1732032
       5712.0011       1.2158389
       5712.7338       1.2400152
       5713.4665       1.1709362
       5714.1992       1.1716765
       5714.9319       1.2628602
       5715.6646       1.3146795
       5716.3972       1.1616772
       5717.1299       1.2422678
       5717.8626       1.1410775
       5718.5953       1.2036641
       5719.3280       1.2274868
       5720.0607       1.1551542
       5720.7934       1.0837958
       5721.5261       1.0941689
       5722.2588       1.1326235
       5722.9915       1.2538931
       5723.7242       1.3096647
       5724.4568       1.2135363
       5725.1895       1.1866788
       5725.9222       1.1831449
       5726.6549       1.1071289
       5727.3876       1.1494802
       5728.1203       1.2651025
       5728.8530       1.2573713
       5729.5857       1.2874917
       5730.3184       1.3313677
       5731.0511       1.2533814
       5731.7838       1.2567019
       5732.5164       1.3640014
       5733.2491       1.2425406
       5733.9818       1.2369453
       5734.7145       1.2894688
       5735.4472       1.2860393
       5736.1799       1.3299866
       5736.9126       1.3238702
       5737.6453       1.2569318
       5738.3780       1.2564986
       5739.1107       1.2917444
       5739.8434       1.2013368
       5740.5760       1.2380862
       5741.3087       1.2694268
       5742.0414       1.3031951
       5742.7741       1.2299776
       5743.5068       1.3042579
       5744.2395       1.2793392
       5744.9722       1.3079347
       5745.7049       1.3249698
       5746.4376       1.1733869
       5747.1703       1.2157645
       5747.9030       1.3157284
       5748.6356       1.4178987
       5749.3683       1.1650798
       5750.1010       1.2014238
       5750.8337       1.2195061
       5751.5664       1.2373436
       5752.2991       1.1814708
       5753.0318       1.1561726
       5753.7645       1.2069273
       5754.4972       1.1225076
       5755.2299       1.0605675
       5755.9626       1.0793376
       5756.6952       1.1469988
       5757.4279       1.3118346
       5758.1606       1.1825135
       5758.8933      0.75811033
       5759.6260      0.53003914
       5760.3587      0.54130426
       5761.0914      0.87021927
       5761.8241      0.52415449
       5762.5568      0.84091808
       5763.2895      0.68031681
       5764.0222      0.58498614
       5764.7548     0.031544772
       5765.4875      0.14196417
       5766.2202      0.66770705
       5766.9529       2.2283186
       5767.6856       3.0011087
       5768.4183      0.26294467
       5769.1510      0.11923230
       5769.8837      0.34785649
       5770.6164      0.27281740
       5771.3491      0.55407662
       5772.0818      0.48255643
       5772.8144      0.72172208
       5773.5471       1.2513420
       5774.2798       1.2842533
       5775.0125       1.2625941
       5775.7452       1.1255177
       5776.4779      0.98590642
       5777.2106       1.2158125
       5777.9433      0.70336824
       5778.6760      0.86561704
       5779.4087      0.61194098
       5780.1414      0.78139903
       5780.8740      0.74406303
       5781.6067       1.0260757
       5782.3394      0.98271907
       5783.0721      0.85136964
       5783.8048      0.68383922
       5784.5375      0.73115003
       5785.2702      0.67079996
       5786.0029      0.84635777
       5786.7356      0.86480556
       5787.4683      0.95499608
       5788.2010       1.1413957
       5788.9336       1.0800747
       5789.6663      0.91788448
       5790.3990      0.80508237
       5791.1317      0.75237722
       5791.8644      0.85428468
       5792.5971      0.91820966
       5793.3298       1.0078046
       5794.0625      0.93629472
       5794.7952      0.98988423
       5795.5279       1.0683928
       5796.2606       1.0639825
       5796.9932       1.0478141
       5797.7259       1.0054235
       5798.4586      0.92454080
       5799.1913       1.1523655
       5799.9240       1.4346869
       5800.6567       1.7657655
       5801.3894      -1.9255793
       5802.1221       1.1060946
       5802.8548     -0.35580815
       5803.5875      -1.5852941
       5804.3202     -0.90900421
       5805.0528       1.9268543
       5805.7855       3.1729345
       5806.5182       1.6130480
       5807.2509       1.0887849
       5807.9836       1.0610934
       5808.7163      0.88840577
       5809.4490       1.2438582
       5810.1817       1.1217446
       5810.9144       1.0178183
       5811.6471       1.1379832
       5812.3798       1.2614253
       5813.1124       1.2992507
       5813.8451       1.2939178
       5814.5778       1.3335134
       5815.3105       1.2969577
       5816.0432       1.3647959
       5816.7759       1.1745643
       5817.5086       1.0447317
       5818.2413       1.1855338
       5818.9740       1.1218669
       5819.7067      0.74130767
       5820.4394      0.80925064
       5821.1720       1.2963675
       5821.9047       1.5016145
       5822.6374       1.2171654
       5823.3701       1.1393962
       5824.1028      0.92687560
       5824.8355      0.96166981
       5825.5682       1.0842582
       5826.3009       1.1393757
       5827.0336       1.5679957
       5827.7663       1.1552604
       5828.4990       1.1451601
       5829.2316      0.92067271
       5829.9643       1.0446733
       5830.6970       1.0260813
       5831.4297       1.0348872
       5832.1624       1.5825706
       5832.8951       1.2656190
       5833.6278      0.87028440
       5834.3605      0.91880108
       5835.0932      0.82567614
       5835.8259      0.88306246
       5836.5586      0.88673667
       5837.2912       1.0448405
       5838.0239       1.0090280
       5838.7566       1.4658795
       5839.4893       1.6939130
       5840.2220     -0.61750491
       5840.9547     -0.90403873
       5841.6874      -1.3548634
       5842.4201     -0.10746075
       5843.1528     -0.17364960
       5843.8855       1.4207162
       5844.6182       2.8548506
       5845.3508       2.1814823
       5846.0835       1.8328316
       5846.8162       1.2545840
       5847.5489       1.1829154
       5848.2816       1.1759044
       5849.0143       1.1102255
       5849.7470       1.2084917
       5850.4797       1.4424306
       5851.2124       1.0714197
       5851.9451     -0.16171902
       5852.6778      0.73402276
       5853.4104      0.69553095
       5854.1431      0.71657732
       5854.8758      0.69040360
       5855.6085       1.4041258
       5856.3412       1.8113009
       5857.0739       1.3145572
       5857.8066       1.1719548
       5858.5393       1.1012505
       5859.2720       1.1034972
       5860.0047       1.0679476
       5860.7374       1.1553578
       5861.4700       1.3473593
       5862.2027       2.0097050
       5862.9354     -0.40036089
       5863.6681     -0.83050893
       5864.4008      -1.2242328
       5865.1335      0.55087656
       5865.8662     0.078102880
       5866.5989       1.1358455
       5867.3316       3.1297252
       5868.0643       1.6102133
       5868.7970       1.0325009
       5869.5296       1.1959279
       5870.2623       1.2175725
       5870.9950       1.1475198
       5871.7277       1.0853802
       5872.4604       1.1700917
       5873.1931       1.2230634
       5873.9258       1.2106541
       5874.6585       1.0278191
       5875.3912      0.84591046
       5876.1239      0.79642935
       5876.8566      0.68031866
       5877.5892       1.0285417
       5878.3219      0.70191650
       5879.0546      0.32440855
       5879.7873      0.71558728
       5880.5200      0.54104253
       5881.2527      0.46187228
       5881.9854      0.66095962
       5882.7181       1.3800882
       5883.4508       1.7225308
       5884.1835       1.2158856
       5884.9162       1.0545747
       5885.6488       1.0581811
       5886.3815       1.1526710
       5887.1142       1.1092187
       5887.8469       1.5356735
       5888.5796      0.95572571
       5889.3123      0.80701705
       5890.0450      0.87367861
       5890.7777      0.69761848
       5891.5104      0.16777523
       5892.2431      0.52411063
       5892.9758       2.2646385
       5893.7084       1.7365507
       5894.4411       1.1049058
       5895.1738      0.88742554
       5895.9065       1.0655120
       5896.6392       1.2345801
       5897.3719       1.0743631
       5898.1046       1.0526841
       5898.8373       1.0482338
       5899.5700       1.1184031
       5900.3027       1.1433213
       5901.0354       1.1456481
       5901.7681      0.98764347
       5902.5007       1.0422960
       5903.2334       1.2275503
       5903.9661       1.2558472
       5904.6988      0.97872880
       5905.4315       1.1068614
       5906.1642       1.0769549
       5906.8969       1.1266057
       5907.6296       1.3902175
       5908.3623       1.4887927
       5909.0950      0.52764142
       5909.8277      0.55288237
       5910.5603      0.50054174
       5911.2930      0.87510528
       5912.0257      0.78739610
       5912.7584      0.95968766
       5913.4911       1.4032401
       5914.2238       1.1123678
       5914.9565      0.99864250
       5915.6892       1.1230284
       5916.4219       1.2614928
       5917.1546       1.5797320
       5917.8873      0.71059564
       5918.6199       1.0188065
       5919.3526      0.96545290
       5920.0853      0.49049256
       5920.8180      0.55512992
       5921.5507      0.87190356
       5922.2834       1.7202555
       5923.0161       1.6836102
       5923.7488       1.5214540
       5924.4815       1.2109116
       5925.2142       1.1534767
       5925.9469       1.0882043
       5926.6795       1.1137127
       5927.4122       1.0806101
       5928.1449      0.98394738
       5928.8776       1.0299346
       5929.6103       1.1048345
       5930.3430       1.1297980
       5931.0757       1.0463530
       5931.8084      0.98573379
       5932.5411      0.98354418
       5933.2738       1.0094839
       5934.0065      0.96954189
       5934.7391      0.93961869
       5935.4718      0.98611160
       5936.2045      0.97949534
       5936.9372      0.93930655
       5937.6699       1.0718728
       5938.4026       1.2450394
       5939.1353       1.1695953
       5939.8680       1.2076523
       5940.6007       1.2721273
       5941.3334       1.1026764
       5942.0661       1.2434570
       5942.7987       1.0069206
       5943.5314      0.91143209
       5944.2641      0.88359565
       5944.9968       1.0772251
       5945.7295       1.0177349
       5946.4622      0.91791908
       5947.1949       1.2229375
       5947.9276       1.2410008
       5948.6603       1.3458081
       5949.3930       1.3707757
       5950.1257       1.4656031
       5950.8583      0.74312799
       5951.5910       1.0016163
       5952.3237      0.81845238
       5953.0564      0.72679041
       5953.7891       1.1448952
       5954.5218       1.3007701
       5955.2545       1.4242717
       5955.9872       1.3168971
       5956.7199       1.3036319
       5957.4526       1.3087165
       5958.1853       1.2091256
       5958.9179       1.2720736
       5959.6506       1.3011825
       5960.3833       1.1327914
       5961.1160       1.1586015
       5961.8487       1.3522066
       5962.5814       1.2847345
       5963.3141       1.2659372
       5964.0468       1.2466492
       5964.7795       1.2488232
       5965.5122       1.3593801
       5966.2449       1.4549028
       5966.9775       1.3478078
       5967.7102       1.4830638
       5968.4429       1.4225632
       5969.1756       1.2327515
       5969.9083       1.1458009
       5970.6410       1.2479582
       5971.3737       1.1853855
       5972.1064       1.0844584
       5972.8391       1.0856511
       5973.5718       1.2233885
       5974.3045       1.0203087
       5975.0371      0.97747054
       5975.7698       1.1674266
       5976.5025       1.3211069
       5977.2352       1.1615473
       5977.9679       1.1377492
       5978.7006       1.1240820
       5979.4333       1.5481789
       5980.1660      0.76293041
       5980.8987      0.87006093
       5981.6314      0.72401210
       5982.3641      0.75541188
       5983.0967      0.77559016
       5983.8294       1.0302853
       5984.5621       1.6547481
       5985.2948       1.6562031
       5986.0275       1.0797519
       5986.7602       1.1832137
       5987.4929      0.86105678
       5988.2256      0.92532649
       5988.9583       1.3498046
       5989.6910       1.5048204
       5990.4237       1.5195815
       5991.1563       1.6666364
       5991.8890       1.4503490
       5992.6217       2.0184568
       5993.3544       1.3178585
       5994.0871       1.3519668
       5994.8198       1.2944237
       5995.5525       1.3945142
       5996.2852       1.3859456
       5997.0179       1.5867167
       5997.7506       1.4451145
       5998.4833       1.2362925
       5999.2159      0.91600352
       5999.9486      0.45083050
       6000.6813      0.88400316
       6001.4140      0.78088735
       6002.1467       1.2871787
       6002.8794       1.8719373
       6003.6121       1.8647847
       6004.3448       1.5791680
       6005.0775       1.3967175
       6005.8102       1.5796221
       6006.5429       1.4814991
       6007.2755       1.3183013
       6008.0082       1.2264219
       6008.7409      0.85438468
       6009.4736       1.2549286
       6010.2063      0.16632988
       6010.9390       1.7741157
       6011.6717       1.5430340
       6012.4044       1.6287019
       6013.1371      0.65156526
       6013.8698       1.3103959
       6014.6025       1.5493715
       6015.3351       2.3409932
       6016.0678       1.9874129
       6016.8005      0.25558870
       6017.5332      0.52907240
       6018.2659       1.1158704
       6018.9986       1.4059169
       6019.7313       1.1740492
       6020.4640       1.3330150
       6021.1967       1.6455246
       6021.9294       1.4320292
       6022.6621       1.1352528
       6023.3947      0.69998792
       6024.1274      0.77370037
       6024.8601       1.1639683
       6025.5928      0.87487201
       6026.3255       1.3402410
       6027.0582       1.7196619
       6027.7909       1.3492962
       6028.5236       1.1039268
