# wavelength flux
       1028.2433   -0.0095983151
       1028.5870     0.014719919
       1028.9308     0.036415195
       1029.2745     0.019200868
       1029.6182    -0.023009344
       1029.9619     0.013755954
       1030.3056     0.061268078
       1030.6493     0.035578095
       1030.9931     0.015806184
       1031.3368     0.035372414
       1031.6805     0.036760668
       1032.0242     0.033372969
       1032.3679    0.0037733689
       1032.7116     0.063500140
       1033.0553     0.035692497
       1033.3991     0.090681304
       1033.7428      0.10864116
       1034.0865     0.053200867
       1034.4302      0.11391339
       1034.7739     0.052055032
       1035.1176     0.046489662
       1035.4614     0.094163429
       1035.8051     0.040749101
       1036.1488     0.025316995
       1036.4925     0.091103582
       1036.8362    0.0034756033
       1037.1799     0.042647081
       1037.5236     0.031867757
       1037.8674     0.013349835
       1038.2111    -0.013523148
       1038.5548   -0.0038483156
       1038.8985      0.10563887
       1039.2422     0.078510470
       1039.5859     0.039597900
       1039.9297    0.0082590362
       1040.2734    0.0065303503
       1040.6171     0.038850995
       1040.9608     0.098854301
       1041.3045     0.056907657
       1041.6482     0.071209192
       1041.9919     0.028972568
       1042.3357     0.037628773
       1042.6794     0.075448290
       1043.0231     0.073190592
       1043.3668     0.072622956
       1043.7105      0.11821546
       1044.0542     0.013624885
       1044.3980     0.047251210
       1044.7417     0.066852881
       1045.0854     0.055960317
       1045.4291     0.081610226
       1045.7728     0.069623330
       1046.1165     0.020286652
       1046.4603     0.091193278
       1046.8040     0.068545941
       1047.1477     0.036237038
       1047.4914     0.048851137
       1047.8351     0.020151042
       1048.1788     0.099809069
       1048.5225      0.11040551
       1048.8663     0.080640360
       1049.2100     0.082579177
       1049.5537     0.054638049
       1049.8974   -0.0054807431
       1050.2411     0.093576163
       1050.5848     0.076359906
       1050.9286     0.027090669
       1051.2723     0.081774709
       1051.6160     0.054100192
       1051.9597     0.014869874
       1052.3034      0.13950843
       1052.6471     0.039574712
       1052.9908     0.080221842
       1053.3346     0.054493976
       1053.6783     0.057273056
       1054.0220     0.092559914
       1054.3657     0.030169763
       1054.7094   -0.0044810358
       1055.0531    0.0071032789
       1055.3969     0.097623781
       1055.7406     0.061641846
       1056.0843    0.0039805980
       1056.4280     0.017092610
       1056.7717   -0.0013872201
       1057.1154     0.032946935
       1057.4591     0.020704792
       1057.8029    0.0076726316
       1058.1466     0.072319926
       1058.4903     0.072463464
       1058.8340     0.055277558
       1059.1777    -0.010759296
       1059.5214     0.090009029
       1059.8652     0.092471166
       1060.2089     0.074082701
       1060.5526      0.16785627
       1060.8963     0.077837897
       1061.2400    0.0098422674
       1061.5837     0.029355948
       1061.9274    -0.012251369
       1062.2712     0.017291510
       1062.6149      0.10605616
       1062.9586      0.12067270
       1063.3023      0.13716220
       1063.6460     0.031450348
       1063.9897    -0.025797091
       1064.3335      0.14920718
       1064.6772   -0.0083971278
       1065.0209     0.040856287
       1065.3646     0.031281586
       1065.7083     0.095516394
       1066.0520    -0.012860746
       1066.3957     0.045000985
       1066.7395     0.066411819
       1067.0832     0.097336451
       1067.4269     0.014017241
       1067.7706     0.095672636
       1068.1143     0.052069807
       1068.4580     0.034065099
       1068.8018     0.033866508
       1069.1455     0.059997719
       1069.4892     0.018653631
       1069.8329     0.074296236
       1070.1766     0.079235406
       1070.5203     0.022241954
       1070.8640     0.025120555
       1071.2078     0.071238607
       1071.5515   -0.0044473100
       1071.8952    0.0060408413
       1072.2389    -0.026514109
       1072.5826     0.045773585
       1072.9263     0.076116478
       1073.2701     0.073513090
       1073.6138     0.055427552
       1073.9575     0.086445876
       1074.3012     0.045075457
       1074.6449     0.048014662
       1074.9886     0.062502958
       1075.3323     0.035548230
       1075.6761     0.092887777
       1076.0198     0.052974287
       1076.3635     0.065934685
       1076.7072     0.057835252
       1077.0509     0.091021484
       1077.3946     0.031857591
       1077.7384     0.030838443
       1078.0821     0.031248949
       1078.4258     0.058479250
       1078.7695     0.034003030
       1079.1132    0.0041355258
       1079.4569     0.047370652
       1079.8006   -0.0022060910
       1080.1444     0.024140163
       1080.4881     0.017329609
       1080.8318     0.029355472
       1081.1755    0.0046488323
       1081.5192     0.087834565
       1081.8629      0.11485088
       1082.2067     0.042579256
       1082.5504     0.034680366
       1082.8941     0.053758626
       1083.2378     0.050465264
       1083.5815     0.071395776
       1083.9252     0.010115923
       1084.2689     0.042878461
       1084.6127     0.024478583
       1084.9564     0.025187889
       1085.3001     0.090029697
       1085.6438     0.090543983
       1085.9875     0.087148965
       1086.3312     0.014481334
       1086.6750     0.070776154
       1087.0187     0.036733624
       1087.3624     0.066258005
       1087.7061     0.034696331
       1088.0498     0.061634430
       1088.3935     0.018710118
       1088.7372     0.033662985
       1089.0810     0.075284807
       1089.4247     0.063835067
       1089.7684     0.014230630
       1090.1121     0.052348310
       1090.4558     0.048416522
       1090.7995     0.060612971
       1091.1433     0.086356843
       1091.4870     0.040668679
       1091.8307   0.00048157399
       1092.1744     0.013023907
       1092.5181     0.029198558
       1092.8618     0.024816490
       1093.2055     0.070653418
       1093.5493     0.023059928
       1093.8930     0.026661870
       1094.2367    0.0097012963
       1094.5804     0.014373288
       1094.9241     0.066863458
       1095.2678     0.084067828
       1095.6116     0.052095666
       1095.9553     0.062990561
       1096.2990     0.052599399
       1096.6427     0.075277042
       1096.9864     0.040989147
       1097.3301     0.081380743
       1097.6738     0.077995204
       1098.0176     0.022367108
       1098.3613     0.036352776
       1098.7050     0.072909493
       1099.0487     0.045594646
       1099.3924     0.066246893
       1099.7361     0.060986193
       1100.0799     0.031242810
       1100.4236     0.039695791
       1100.7673     0.053807721
       1101.1110     0.066406908
       1101.4547     0.051439736
       1101.7984     0.035223614
       1102.1421     0.023183669
       1102.4859     0.067201224
       1102.8296     0.061496380
       1103.1733     0.014020028
       1103.5170     0.058433897
       1103.8607     0.039222494
       1104.2044     0.063821922
       1104.5482     0.032888841
       1104.8919  -0.00074904608
       1105.2356     0.014475783
       1105.5793     0.048765104
       1105.9230     0.047052683
       1106.2667     0.052156582
       1106.6105   -0.0051420036
       1106.9542     0.061415552
       1107.2979    0.0025294545
       1107.6416     0.028578864
       1107.9853     0.078636802
       1108.3290     0.089374010
       1108.6727     0.072657696
       1109.0165     0.072230946
       1109.3602     0.027747667
       1109.7039     0.024709684
       1110.0476     0.048394802
       1110.3913     0.051254098
       1110.7350     0.038040488
       1111.0788     0.048547499
       1111.4225     0.059445581
       1111.7662     0.028694655
       1112.1099     0.031396871
       1112.4536     0.058826030
       1112.7973     0.027269222
       1113.1410     0.013616616
       1113.4848     0.059937086
       1113.8285     0.024616635
       1114.1722     0.033302765
       1114.5159     0.013018041
       1114.8596     0.037686231
       1115.2033     0.079241330
       1115.5471     0.043442597
       1115.8908     0.043373657
       1116.2345     0.070763178
       1116.5782     0.080753897
       1116.9219     0.039169710
       1117.2656     0.051438770
       1117.6093     0.037742918
       1117.9531     0.023878360
       1118.2968     0.047819261
       1118.6405     0.046045915
       1118.9842    0.0091749551
       1119.3279     0.032206474
       1119.6716     0.029663883
       1120.0154     0.039930148
       1120.3591     0.025054169
       1120.7028     0.028303539
       1121.0465     0.048971101
       1121.3902     0.051130975
       1121.7339    -0.011386441
       1122.0776     0.048915337
       1122.4214     0.037573166
       1122.7651     0.033700564
       1123.1088    0.0094512250
       1123.4525   -0.0042207500
       1123.7962     0.027383636
       1124.1399     0.071482044
       1124.4837     0.040004523
       1124.8274     0.031041977
       1125.1711     0.010340029
       1125.5148     0.019349980
       1125.8585     0.039797432
       1126.2022     0.034995024
       1126.5459     0.034596772
       1126.8897     0.092072706
       1127.2334     0.057156582
       1127.5771     0.039959107
       1127.9208     0.090853207
       1128.2645      0.10452251
       1128.6082     0.046850432
       1128.9520     0.074348290
       1129.2957     0.076746165
       1129.6394     0.038008108
       1129.9831     0.065915208
       1130.3268     0.036260793
       1130.6705     0.045522943
       1131.0142     0.050195422
       1131.3580     0.092152762
       1131.7017     0.077134812
       1132.0454     0.082583378
       1132.3891     0.069041825
       1132.7328     0.076793819
       1133.0765     0.076833041
       1133.4203     0.071336735
       1133.7640      0.10390222
       1134.1077     0.076664680
       1134.4514      0.10388675
       1134.7951     0.076944437
       1135.1388     0.012319630
       1135.4825     0.052722437
       1135.8263     0.076116819
       1136.1700     0.081893733
       1136.5137     0.071290888
       1136.8574     0.066663969
       1137.2011      0.10252466
       1137.5448     0.086443050
       1137.8886     0.045901784
       1138.2323     0.071619626
       1138.5760     0.032692798
       1138.9197     0.041448350
       1139.2634     0.044906927
       1139.6071     0.053393324
       1139.9508     0.037010699
       1140.2946     0.027127227
       1140.6383     0.038887446
       1140.9820     0.060725941
       1141.3257     0.028372649
       1141.6694     0.055991595
       1142.0131     0.025424640
       1142.3569     0.056903422
       1142.7006     0.057316171
       1143.0443     0.060983606
       1143.3880     0.034901234
       1143.7317     0.039245208
       1144.0754     0.083095526
       1144.4191     0.053023282
       1144.7629     0.060770053
       1145.1066     0.091562482
       1145.4503     0.086781751
       1145.7940     0.086513505
       1146.1377     0.035308836
       1146.4814     0.086547026
       1146.8252     0.076031177
       1147.1689     0.060790876
       1147.5126     0.078173861
       1147.8563     0.081187272
       1148.2000     0.062540755
       1148.5437     0.078041488
       1148.8874     0.056360932
       1149.2312     0.057145753
       1149.5749     0.053414525
       1149.9186     0.038282087
       1150.2623     0.070377086
       1150.6060     0.051647829
       1150.9497     0.044327179
       1151.2935     0.096003550
       1151.6372     0.025099511
       1151.9809     0.084817273
       1152.3246     0.082439259
       1152.6683     0.054195163
       1153.0120     0.046233165
       1153.3557     0.038216910
       1153.6995     0.057250837
       1154.0432     0.048920628
       1154.3869     0.059754867
       1154.7306     0.081903056
       1155.0743     0.069987389
       1155.4180     0.065962509
       1155.7618     0.047747333
       1156.1055     0.064783298
       1156.4492     0.099718744
       1156.7929     0.057752990
       1157.1366     0.026773933
       1157.4803     0.097073984
       1157.8240     0.058617792
       1158.1678     0.039580790
       1158.5115     0.074715372
       1158.8552     0.075835581
       1159.1989     0.091311288
       1159.5426     0.079002551
       1159.8863     0.053827988
       1160.2301     0.035813823
       1160.5738     0.086291125
       1160.9175     0.076755597
       1161.2612     0.057019874
       1161.6049     0.066650034
       1161.9486     0.061793746
       1162.2923     0.069184226
       1162.6361     0.085094152
       1162.9798     0.038942615
       1163.3235     0.086910803
       1163.6672     0.045891278
       1164.0109     0.074580041
       1164.3546     0.057797189
       1164.6984     0.057724096
       1165.0421     0.086658967
       1165.3858     0.058067760
       1165.7295     0.088263245
       1166.0732     0.080417708
       1166.4169      0.10082129
       1166.7607     0.063841262
       1167.1044     0.037576398
       1167.4481     0.059586630
       1167.7918     0.086952016
       1168.1355     0.053846046
       1168.4792     0.087767526
       1168.8229     0.081936284
       1169.1667     0.074224964
       1169.5104     0.089161594
       1169.8541     0.032226127
       1170.1978     0.026161862
       1170.5415     0.078597137
       1170.8852     0.069088237
       1171.2290     0.038671900
       1171.5727     0.067527090
       1171.9164     0.090196184
       1172.2601     0.052861032
       1172.6038     0.039772704
       1172.9475     0.012643608
       1173.2912     0.010428332
       1173.6350     0.011032604
       1173.9787     0.022479685
       1174.3224     0.014749546
       1174.6661     0.086972280
       1175.0098      0.10069851
       1175.3535     0.062881910
       1175.6973     0.069930528
       1176.0410      0.10226697
       1176.3847     0.077422341
       1176.7284     0.046998588
       1177.0721     0.085450893
       1177.4158     0.044729040
       1177.7595     0.070746661
       1178.1033     0.066437526
       1178.4470     0.035774902
       1178.7907     0.010860580
       1179.1344     0.057238057
       1179.4781     0.056717038
       1179.8218     0.035221218
       1180.1656     0.080425282
       1180.5093     0.032252764
       1180.8530     0.053488216
       1181.1967     0.053949193
       1181.5404     0.048566779
       1181.8841     0.075287718
       1182.2278     0.075854258
       1182.5716     0.030375533
       1182.9153     0.076473414
       1183.2590     0.060346378
       1183.6027      0.10723178
       1183.9464     0.065326428
       1184.2901     0.053068595
       1184.6339     0.072063170
       1184.9776     0.050427052
       1185.3213     0.043048720
       1185.6650     0.076978922
       1186.0087     0.053478688
       1186.3524     0.056416554
       1186.6961     0.034669400
       1187.0399     0.054408443
       1187.3836     0.032235997
       1187.7273     0.032208064
       1188.0710   -0.0036584065
       1188.4147     0.012718168
       1188.7584     0.027282433
       1189.1022     0.021452048
       1189.4459     0.046908476
       1189.7896     0.012321746
       1190.1333     0.023696148
       1190.4770     0.039466455
       1190.8207   0.00096881005
       1191.1644     0.022846943
       1191.5082     0.019641116
       1191.8519     0.043481863
       1192.1956     0.060798095
       1192.5393     0.059502732
       1192.8830     0.029890351
       1193.2267     0.050890016
       1193.5705     0.031614854
       1193.9142     0.068701279
       1194.2579     0.062532276
       1194.6016     0.097426822
       1194.9453     0.076339192
       1195.2890     0.070671449
       1195.6327     0.077291978
       1195.9765     0.084479254
       1196.3202      0.11023782
       1196.6639     0.054738446
       1197.0076     0.065769657
       1197.3513     0.083670675
       1197.6950     0.080678981
       1198.0388     0.062819644
       1198.3825     0.065921782
       1198.7262     0.037866200
       1199.0699     0.017858166
       1199.4136     0.053871824
       1199.7573     0.029338394
       1200.1010     0.094038763
       1200.4448     0.029116884
       1200.7885     0.076361125
       1201.1322     0.062271805
       1201.4759     0.056776761
       1201.8196     0.082583123
       1202.1633     0.084551890
       1202.5071     0.044655585
       1202.8508     0.013290347
       1203.1945     0.033351767
       1203.5382      0.10112436
       1203.8819     0.027264470
       1204.2256    0.0061139935
       1204.5693     0.026870732
       1204.9131    -0.025803212
       1205.2568    -0.027213308
       1205.6005     0.019394663
       1205.9442     0.075538914
       1206.2879     0.020199783
       1206.6316     0.050712802
       1206.9754     0.024551619
       1207.3191     0.078381526
       1207.6628    0.0018847866
       1208.0065     0.041724018
       1208.3502     0.068570009
       1208.6939      0.11455384
       1209.0376     0.050798240
       1209.3814     0.065614252
       1209.7251     0.015349352
       1210.0688     0.073299194
       1210.4125     0.030496543
       1210.7562     0.020713023
       1211.0999     0.084245837
       1211.4437     0.018559774
       1211.7874     0.044725733
       1212.1311     0.047603203
       1212.4748     0.060691220
       1212.8185     0.044708335
       1213.1622     0.021142871
       1213.5059     0.066134449
       1213.8497     0.099745996
       1214.1934     0.070987131
       1214.5371     0.091477278
       1214.8808      0.11141999
       1215.2245      0.12686884
       1215.5682      0.10895839
       1215.9120      0.14016099
       1216.2557      0.15505973
       1216.5994      0.14537179
       1216.9431      0.15907678
       1217.2868      0.13490834
       1217.6305      0.10884964
       1217.9742     0.076965843
       1218.3180     0.080518495
       1218.6617     0.099486055
       1219.0054     0.067097959
       1219.3491     0.092822272
       1219.6928     0.078672891
       1220.0365     0.067556321
       1220.3803     0.099031389
       1220.7240     0.096175615
       1221.0677     0.051747950
       1221.4114     0.070287525
       1221.7551     0.054849287
       1222.0988     0.045791664
       1222.4426     0.084189855
       1222.7863     0.069631244
       1223.1300     0.051217046
       1223.4737     0.088524363
       1223.8174     0.069983980
       1224.1611     0.085717343
       1224.5048     0.060269213
       1224.8486     0.068311266
       1225.1923     0.064961400
       1225.5360     0.066287517
       1225.8797     0.074076178
       1226.2234     0.043323565
       1226.5671     0.075888211
       1226.9109     0.076341578
       1227.2546     0.066548137
       1227.5983     0.062136046
       1227.9420     0.079473905
       1228.2857     0.066585517
       1228.6294     0.073530061
       1228.9731     0.072766772
       1229.3169     0.062019056
       1229.6606     0.093341505
       1230.0043     0.071678723
       1230.3480     0.057400984
       1230.6917     0.074491809
       1231.0354     0.025170592
       1231.3792     0.071183918
       1231.7229     0.090109060
       1232.0666     0.055833198
       1232.4103     0.055189040
       1232.7540     0.062073659
       1233.0977     0.051749797
       1233.4414     0.078136906
       1233.7852     0.066130462
       1234.1289     0.076595790
       1234.4726     0.092182781
       1234.8163     0.054098786
       1235.1600     0.067660050
       1235.5037     0.043204355
       1235.8475     0.056329288
       1236.1912     0.063196496
       1236.5349     0.031346412
       1236.8786     0.062117645
       1237.2223     0.040640610
       1237.5660     0.057552501
       1237.9097     0.066681206
       1238.2535     0.060892117
       1238.5972     0.058140508
       1238.9409     0.059553359
       1239.2846     0.029688959
       1239.6283     0.052178249
       1239.9720     0.041041835
       1240.3158     0.090912783
       1240.6595     0.050849352
       1241.0032     0.063054097
       1241.3469     0.075876880
       1241.6906     0.057958489
       1242.0343     0.052031219
       1242.3780     0.085839010
       1242.7218     0.066179714
       1243.0655     0.041252941
       1243.4092     0.061497913
       1243.7529     0.087535259
       1244.0966     0.097729610
       1244.4403      0.10868848
       1244.7841      0.10090387
       1245.1278     0.081014213
       1245.4715     0.081948548
       1245.8152     0.062450885
       1246.1589     0.074227304
       1246.5026     0.066272300
       1246.8463     0.069064209
       1247.1901     0.083778316
       1247.5338     0.095699192
       1247.8775     0.070965128
       1248.2212     0.071659518
       1248.5649     0.096987797
       1248.9086     0.088283661
       1249.2524     0.071876016
       1249.5961     0.070259363
       1249.9398     0.078871063
       1250.2835      0.10077910
       1250.6272     0.064156103
       1250.9709     0.066514404
       1251.3146      0.10692086
       1251.6584     0.092938143
       1252.0021     0.099892880
       1252.3458     0.070686457
       1252.6895     0.091335932
       1253.0332     0.070892412
       1253.3769      0.10591489
       1253.7207     0.084017548
       1254.0644     0.083995630
       1254.4081     0.093843701
       1254.7518     0.075381339
       1255.0955     0.090339222
       1255.4392     0.088902176
       1255.7829     0.089964497
       1256.1267     0.091925255
       1256.4704     0.079767698
       1256.8141     0.083560886
       1257.1578     0.069871773
       1257.5015     0.062341279
       1257.8452     0.038551519
       1258.1890     0.025518641
       1258.5327     0.033259432
       1258.8764     0.037199214
       1259.2201     0.030303075
       1259.5638     0.028907567
       1259.9075     0.016323790
       1260.2512     0.059149717
       1260.5950     0.056924419
       1260.9387     0.070026206
       1261.2824     0.070109634
       1261.6261     0.077740906
       1261.9698     0.075837308
       1262.3135     0.085401023
       1262.6573      0.10189869
       1263.0010     0.097781000
       1263.3447     0.072666468
       1263.6884     0.079217354
       1264.0321     0.076221410
       1264.3758      0.11741939
       1264.7195     0.087513362
       1265.0633     0.099788708
       1265.4070     0.071772304
       1265.7507     0.089149672
       1266.0944     0.062059959
       1266.4381     0.089472500
       1266.7818     0.071593417
       1267.1256      0.11019018
       1267.4693     0.079069325
       1267.8130     0.071679281
       1268.1567     0.071604740
       1268.5004     0.096571170
       1268.8441     0.086412376
       1269.1878     0.091622172
       1269.5316     0.078891526
       1269.8753     0.074015048
       1270.2190     0.078299944
       1270.5627     0.076939828
       1270.9064     0.094026750
       1271.2501     0.088472031
       1271.5939      0.11911139
       1271.9376     0.088440017
       1272.2813     0.095530555
       1272.6250     0.086350425
       1272.9687     0.080930845
       1273.3124     0.060821169
       1273.6561     0.099717115
       1273.9999      0.11199064
       1274.3436     0.084893834
       1274.6873     0.092478057
       1275.0310     0.093737061
       1275.3747     0.092620153
       1275.7184     0.070494939
       1276.0622     0.076606061
       1276.4059     0.058828933
       1276.7496     0.047569065
       1277.0933     0.075859408
       1277.4370     0.094223991
       1277.7807     0.092201813
       1278.1244     0.054175455
       1278.4682     0.086575932
       1278.8119     0.091888386
       1279.1556     0.084771582
       1279.4993     0.091305310
       1279.8430     0.082572095
       1280.1867     0.070113427
       1280.5305     0.089906498
       1280.8742     0.047789957
       1281.2179     0.075594785
       1281.5616     0.089857825
       1281.9053     0.095613470
       1282.2490      0.11619561
       1282.5928     0.097435234
       1282.9365      0.10029842
       1283.2802     0.092489955
       1283.6239      0.10990037
       1283.9676     0.080342204
       1284.3113     0.073149553
       1284.6550     0.079987921
       1284.9988     0.072010227
       1285.3425     0.075071691
       1285.6862     0.075124582
       1286.0299     0.076543290
       1286.3736     0.088464839
       1286.7173     0.059028914
       1287.0611      0.10233854
       1287.4048      0.11056765
       1287.7485     0.070643806
       1288.0922     0.082516051
       1288.4359      0.10638350
       1288.7796     0.088036013
       1289.1233      0.10250128
       1289.4671     0.084689547
       1289.8108      0.10379688
       1290.1545      0.10690390
       1290.4982     0.091131793
       1290.8419     0.089941138
       1291.1856     0.073241134
       1291.5294      0.10444750
       1291.8731     0.073540511
       1292.2168     0.070758426
       1292.5605     0.058406842
       1292.9042     0.054355128
       1293.2479     0.073830068
       1293.5916     0.098819326
       1293.9354     0.086851170
       1294.2791     0.091769134
       1294.6228     0.059251689
       1294.9665     0.073681953
       1295.3102      0.10295133
       1295.6539     0.080414284
       1295.9977     0.073438453
       1296.3414     0.085897786
       1296.6851     0.089125228
       1297.0288     0.086509094
       1297.3725     0.064895758
       1297.7162     0.088725261
       1298.0599     0.071173124
       1298.4037     0.080740337
       1298.7474      0.10714948
       1299.0911      0.11238101
       1299.4348     0.055290471
       1299.7785     0.074473288
       1300.1222     0.068920168
       1300.4660     0.044132340
       1300.8097     0.037726073
       1301.1534     0.052463733
       1301.4971     0.028055838
       1301.8408     0.067656356
       1302.1845     0.073010787
       1302.5282     0.083940682
       1302.8720     0.047578732
       1303.2157     0.074011867
       1303.5594     0.041204696
       1303.9031     0.070957181
       1304.2468     0.073873630
       1304.5905     0.091065583
       1304.9343      0.10082782
       1305.2780      0.11937008
       1305.6217      0.10528290
       1305.9654      0.10129998
       1306.3091     0.092033130
       1306.6528      0.10584141
       1306.9965      0.10594859
       1307.3403      0.10716126
       1307.6840      0.11311081
       1308.0277      0.11217628
       1308.3714      0.13245756
       1308.7151      0.11623837
       1309.0588      0.12124108
       1309.4026      0.10231642
       1309.7463     0.089751680
       1310.0900      0.11064597
       1310.4337      0.11477431
       1310.7774     0.060355490
       1311.1211     0.082820211
       1311.4648     0.092285103
       1311.8086      0.10125389
       1312.1523      0.10302724
       1312.4960     0.091298957
       1312.8397      0.12947319
       1313.1834      0.11331116
       1313.5271      0.10855623
       1313.8709      0.12108953
       1314.2146      0.10129803
       1314.5583     0.090811374
       1314.9020     0.089503274
       1315.2457     0.095285572
       1315.5894     0.094612872
       1315.9331     0.081790106
       1316.2769     0.096772141
       1316.6206      0.13431558
       1316.9643      0.12287167
       1317.3080     0.095425012
       1317.6517      0.12074055
       1317.9954      0.10577846
       1318.3392      0.10672868
       1318.6829     0.085170726
       1319.0266     0.090734645
       1319.3703      0.12114813
       1319.7140     0.096555796
       1320.0577     0.099376017
       1320.4014      0.11611766
       1320.7452     0.080622502
       1321.0889      0.10878259
       1321.4326      0.10565436
       1321.7763     0.099254838
       1322.1200     0.089316631
       1322.4637     0.078694350
       1322.8075     0.098350970
       1323.1512      0.12384907
       1323.4949      0.11652785
       1323.8386      0.13855429
       1324.1823     0.088413307
       1324.5260     0.097070946
       1324.8697      0.10945560
       1325.2135      0.14204099
       1325.5572      0.11345289
       1325.9009     0.081518687
       1326.2446     0.079915333
       1326.5883     0.059516876
       1326.9320     0.095326142
       1327.2758     0.088798760
       1327.6195     0.095983730
       1327.9632      0.11776503
       1328.3069     0.082734407
       1328.6506      0.11473815
       1328.9943     0.084241365
       1329.3380     0.097661151
       1329.6818      0.10648724
       1330.0255     0.077934143
       1330.3692     0.060469448
       1330.7129     0.071184443
       1331.0566     0.057382790
       1331.4003     0.045723028
       1331.7441     0.034219193
       1332.0878     0.038183672
       1332.4315     0.074494827
       1332.7752     0.056630957
       1333.1189     0.036048182
       1333.4626     0.057713954
       1333.8063     0.045757157
       1334.1501     0.073556665
       1334.4938     0.091747592
       1334.8375     0.071119901
       1335.1812     0.094623817
       1335.5249     0.096730078
       1335.8686      0.11362691
       1336.2124      0.13026025
       1336.5561      0.10348936
       1336.8998      0.12760909
       1337.2435      0.12566466
       1337.5872      0.11091699
       1337.9309     0.093145884
       1338.2746      0.12455597
       1338.6184      0.13661426
       1338.9621      0.11650975
       1339.3058      0.11037208
       1339.6495     0.088197412
       1339.9932      0.10201250
       1340.3369      0.10104662
       1340.6807      0.11935435
       1341.0244     0.088189491
       1341.3681     0.073876062
       1341.7118     0.082363836
       1342.0555     0.065874237
       1342.3992     0.094563696
       1342.7430     0.090669235
       1343.0867     0.090057546
       1343.4304      0.11544032
       1343.7741      0.10314595
       1344.1178      0.10178455
       1344.4615      0.12678660
       1344.8052      0.13216456
       1345.1490     0.095937537
       1345.4927      0.10416981
       1345.8364      0.12601614
       1346.1801      0.10984055
       1346.5238      0.10338503
       1346.8675      0.10634068
       1347.2113     0.085737265
       1347.5550      0.10812915
       1347.8987     0.080019401
       1348.2424      0.11686962
       1348.5861      0.11793159
       1348.9298      0.11063524
       1349.2735     0.096616236
       1349.6173      0.10215759
       1349.9610     0.093933094
       1350.3047      0.11038381
       1350.6484      0.11232391
       1350.9921     0.077937961
       1351.3358     0.094931472
       1351.6796      0.10585999
       1352.0233      0.11716352
       1352.3670      0.11466752
       1352.7107      0.11569049
       1353.0544      0.11191924
       1353.3981      0.10577722
       1353.7418      0.10859869
       1354.0856     0.074147994
       1354.4293     0.095677068
       1354.7730      0.13698115
       1355.1167     0.091470813
       1355.4604      0.11279798
       1355.8041      0.15122528
       1356.1479      0.15496003
       1356.4916      0.11616785
       1356.8353      0.11316776
       1357.1790      0.10722367
       1357.5227      0.10340052
       1357.8664     0.095995572
       1358.2101      0.11931932
       1358.5539     0.091107709
       1358.8976      0.10379910
       1359.2413      0.10735745
       1359.5850      0.11784933
       1359.9287     0.082547717
       1360.2724     0.097720634
       1360.6162     0.092806540
       1360.9599      0.11942824
       1361.3036      0.11979371
       1361.6473     0.086017553
       1361.9910     0.097197894
       1362.3347      0.13472978
       1362.6784      0.13030085
       1363.0222     0.092773375
       1363.3659      0.14496142
       1363.7096      0.12508537
       1364.0533      0.10106866
       1364.3970     0.084300632
       1364.7407      0.12458381
       1365.0845     0.078597917
       1365.4282     0.073877486
       1365.7719      0.11352256
       1366.1156     0.071746085
       1366.4593     0.091798020
       1366.8030      0.13765502
       1367.1467      0.10134213
       1367.4905      0.11457610
       1367.8342     0.094947518
       1368.1779     0.086184193
       1368.5216     0.094219749
       1368.8653     0.090187599
       1369.2090      0.10629144
       1369.5528     0.077211999
       1369.8965      0.12187287
       1370.2402     0.076925092
       1370.5839      0.10970432
       1370.9276      0.10839525
       1371.2713      0.12386738
       1371.6150      0.14128407
       1371.9588      0.10063073
       1372.3025      0.10591699
       1372.6462     0.096927064
       1372.9899     0.095696458
       1373.3336     0.095801211
       1373.6773      0.11641185
       1374.0211      0.13028513
       1374.3648     0.086774145
       1374.7085     0.087405884
       1375.0522      0.11116828
       1375.3959      0.11430342
       1375.7396      0.13411573
       1376.0833      0.12604286
       1376.4271      0.11060915
       1376.7708      0.11766151
       1377.1145      0.10053282
       1377.4582      0.10114072
       1377.8019      0.11449935
       1378.1456     0.091354318
       1378.4894      0.11248259
       1378.8331      0.12372462
       1379.1768      0.11563077
       1379.5205      0.13150720
       1379.8642     0.084253124
       1380.2079      0.11198629
       1380.5516      0.12146834
       1380.8954      0.10407169
       1381.2391     0.073670936
       1381.5828     0.090686028
       1381.9265      0.10704555
       1382.2702      0.11471729
       1382.6139      0.13099058
       1382.9577      0.12888084
       1383.3014      0.12257970
       1383.6451      0.11851555
       1383.9888     0.095287064
       1384.3325     0.093305278
       1384.6762      0.12078870
       1385.0199      0.10384036
       1385.3637     0.081185632
       1385.7074      0.12351158
       1386.0511      0.10822403
       1386.3948     0.088573641
       1386.7385      0.10492888
       1387.0822     0.082075441
       1387.4260      0.10318548
       1387.7697      0.10211992
       1388.1134     0.082712925
       1388.4571     0.062644391
       1388.8008     0.052332483
       1389.1445     0.034350956
       1389.4882     0.023659868
       1389.8320     0.042072294
       1390.1757     0.018794411
       1390.5194     0.039402504
       1390.8631     0.035893668
       1391.2068     0.032886095
       1391.5505     0.034903141
       1391.8943     0.050505545
       1392.2380     0.036612279
       1392.5817     0.032364463
       1392.9254      0.10742228
       1393.2691     0.057356130
       1393.6128     0.049171140
       1393.9565      0.10725223
       1394.3003      0.11844609
       1394.6440      0.11034122
       1394.9877     0.068722978
       1395.3314      0.10712276
       1395.6751     0.097532724
       1396.0188      0.11074933
       1396.3626     0.077771328
       1396.7063     0.098491938
       1397.0500     0.075949736
       1397.3937     0.075703579
       1397.7374     0.055995669
       1398.0811     0.043962633
       1398.4248     0.053243329
       1398.7686     0.020347309
       1399.1123     0.020174358
       1399.4560     0.073210335
       1399.7997     0.052825438
       1400.1434     0.067374782
       1400.4871     0.060970801
       1400.8309     0.061001293
       1401.1746     0.083597392
       1401.5183     0.081238380
       1401.8620     0.098075766
       1402.2057      0.12256729
       1402.5494      0.11225815
       1402.8932      0.11827649
       1403.2369      0.11471821
       1403.5806      0.13662359
       1403.9243      0.12536640
       1404.2680      0.15284692
       1404.6117      0.12887375
       1404.9554      0.13200139
       1405.2992      0.10321595
       1405.6429     0.094268046
       1405.9866      0.10218104
       1406.3303      0.11437956
       1406.6740      0.15005590
       1407.0177     0.077399363
       1407.3615     0.097476666
       1407.7052     0.080895680
       1408.0489     0.095336082
       1408.3926      0.14484637
       1408.7363      0.13463576
       1409.0800      0.10493382
       1409.4237      0.13873053
       1409.7675      0.12290284
       1410.1112      0.10834022
       1410.4549      0.10986678
       1410.7986      0.15916094
       1411.1423      0.13306028
       1411.4860      0.10553098
       1411.8298      0.11195066
       1412.1735      0.11297097
       1412.5172      0.11337765
       1412.8609      0.10990994
       1413.2046      0.13449278
       1413.5483      0.11405247
       1413.8920      0.12321054
       1414.2358     0.077006503
       1414.5795      0.13237895
       1414.9232      0.14298644
       1415.2669      0.11971956
       1415.6106     0.085217757
       1415.9543      0.11013782
       1416.2981      0.12618182
       1416.6418     0.095424709
       1416.9855     0.095215757
       1417.3292     0.098953284
       1417.6729     0.092311886
       1418.0166     0.080919795
       1418.3603      0.12111933
       1418.7041      0.10002929
       1419.0478     0.097059776
       1419.3915      0.10839622
       1419.7352     0.086634545
       1420.0789      0.10334212
       1420.4226      0.13368388
       1420.7664      0.12063373
       1421.1101      0.10749819
       1421.4538      0.10243184
       1421.7975      0.11734575
       1422.1412      0.10721913
       1422.4849      0.10109408
       1422.8286     0.055126354
       1423.1724     0.084869600
       1423.5161      0.10101150
       1423.8598      0.11670651
       1424.2035     0.096518252
       1424.5472     0.078947513
       1424.8909     0.087565760
       1425.2347     0.093323257
       1425.5784     0.098193793
       1425.9221     0.093441731
       1426.2658      0.11960630
       1426.6095      0.10629648
       1426.9532      0.15022293
       1427.2969      0.11357322
       1427.6407     0.095526439
       1427.9844      0.11534338
       1428.3281      0.10755836
       1428.6718      0.11728789
       1429.0155      0.12092904
       1429.3592      0.10535788
       1429.7030      0.10006489
       1430.0467      0.10391007
       1430.3904     0.070796915
       1430.7341     0.098292574
       1431.0778     0.080946413
       1431.4215     0.073102496
       1431.7652     0.086904904
       1432.1090      0.10718581
       1432.4527      0.11550682
       1432.7964      0.11179124
       1433.1401      0.10190586
       1433.4838      0.14160982
       1433.8275     0.092394900
       1434.1713      0.12217635
       1434.5150     0.096270428
       1434.8587     0.081975461
       1435.2024      0.10519062
       1435.5461      0.10951536
       1435.8898      0.15038796
       1436.2335      0.10789154
       1436.5773      0.12368616
       1436.9210      0.11435159
       1437.2647      0.12869634
       1437.6084      0.11429698
       1437.9521      0.10129356
       1438.2958      0.12174084
       1438.6396      0.11118328
       1438.9833      0.11594364
       1439.3270     0.085977090
       1439.6707      0.10806763
       1440.0144      0.13358374
       1440.3581      0.13478360
       1440.7018      0.15604671
       1441.0456      0.11185634
       1441.3893      0.10426766
       1441.7330     0.095351112
       1442.0767      0.11966929
       1442.4204      0.14394220
       1442.7641      0.13601374
       1443.1079     0.081355199
       1443.4516     0.099043650
       1443.7953      0.11960225
       1444.1390      0.10849432
       1444.4827      0.13008341
       1444.8264      0.12102998
       1445.1701      0.15312697
       1445.5139      0.11611634
       1445.8576      0.11735106
       1446.2013      0.11680497
       1446.5450      0.15249757
       1446.8887      0.11208948
       1447.2324     0.088733402
       1447.5762      0.11165310
       1447.9199      0.12182342
       1448.2636     0.094537698
       1448.6073      0.10120578
       1448.9510      0.11869875
       1449.2947      0.12561963
       1449.6384      0.10941535
       1449.9822      0.11051741
       1450.3259      0.11138249
       1450.6696      0.10929094
       1451.0133      0.10625466
       1451.3570      0.11591375
       1451.7007      0.14293206
       1452.0445      0.12820070
       1452.3882      0.10967893
       1452.7319      0.16500333
       1453.0756      0.14941054
       1453.4193     0.089918354
       1453.7630     0.096275790
       1454.1067     0.099561492
       1454.4505      0.14107616
       1454.7942      0.11769838
       1455.1379      0.13619666
       1455.4816      0.10562382
       1455.8253      0.10696135
       1456.1690      0.14396424
       1456.5128      0.15301942
       1456.8565      0.14321814
       1457.2002      0.13170303
       1457.5439      0.11519486
       1457.8876      0.14794174
       1458.2313      0.13315784
       1458.5751     0.084866293
       1458.9188     0.080149134
       1459.2625      0.11729212
       1459.6062      0.15392489
       1459.9499      0.15092309
       1460.2936      0.15416139
       1460.6373      0.13566026
       1460.9811      0.12192257
       1461.3248      0.12401505
       1461.6685      0.12341669
       1462.0122     0.099428454
       1462.3559      0.14288554
       1462.6996      0.16915546
       1463.0434     0.092505476
       1463.3871     0.086484319
       1463.7308      0.11721131
       1464.0745      0.12470285
       1464.4182      0.13676218
       1464.7619      0.13354976
       1465.1056      0.15114018
       1465.4494      0.13341077
       1465.7931      0.11280892
       1466.1368     0.099254991
       1466.4805      0.14770241
       1466.8242      0.10594728
       1467.1679     0.089783399
       1467.5117     0.096789579
       1467.8554      0.11043482
       1468.1991     0.097752834
       1468.5428      0.11487320
       1468.8865     0.094417081
       1469.2302      0.10937607
       1469.5739      0.12575834
       1469.9177     0.097429168
       1470.2614      0.11818133
       1470.6051      0.15337173
       1470.9488      0.10602915
       1471.2925      0.11379062
       1471.6362      0.12454809
       1471.9800      0.14503061
       1472.3237      0.13275195
       1472.6674      0.15842699
       1473.0111      0.14239579
       1473.3548      0.11587186
       1473.6985      0.15363225
       1474.0422      0.14033788
       1474.3860      0.12346431
       1474.7297      0.13142690
       1475.0734      0.13437692
       1475.4171      0.10599267
       1475.7608      0.12009100
       1476.1045      0.11060912
       1476.4483      0.10236077
       1476.7920      0.11639514
       1477.1357      0.11906276
       1477.4794      0.11410363
       1477.8231      0.11869963
       1478.1668      0.16506177
       1478.5105      0.14310117
       1478.8543      0.14262162
       1479.1980      0.14739594
       1479.5417      0.10987288
       1479.8854      0.11243551
       1480.2291      0.16257478
       1480.5728      0.17392424
       1480.9166      0.13883714
       1481.2603      0.15967594
       1481.6040      0.10345820
       1481.9477      0.11706207
       1482.2914      0.11276909
       1482.6351      0.10608792
       1482.9788      0.10292829
       1483.3226      0.11423485
       1483.6663      0.14175731
       1484.0100      0.13169770
       1484.3537      0.14958894
       1484.6974      0.15761008
       1485.0411      0.12567506
       1485.3849     0.094247345
       1485.7286     0.093742691
       1486.0723      0.11275200
       1486.4160      0.12580631
       1486.7597     0.094008312
       1487.1034     0.084402655
       1487.4471     0.087891707
       1487.7909     0.091239128
       1488.1346     0.078924649
       1488.4783      0.10556763
       1488.8220      0.10761540
       1489.1657      0.13449852
       1489.5094     0.083715021
       1489.8532     0.097234245
       1490.1969      0.10796071
       1490.5406      0.13115935
       1490.8843      0.12363623
       1491.2280      0.11197589
       1491.5717      0.10790120
       1491.9154      0.10826610
       1492.2592     0.079556431
       1492.6029     0.092606147
       1492.9466      0.11724808
       1493.2903      0.10268051
       1493.6340     0.076683301
       1493.9777     0.096603124
       1494.3215      0.12076218
       1494.6652     0.077434552
       1495.0089      0.10805994
       1495.3526      0.11571848
       1495.6963      0.12766737
       1496.0400     0.080531721
       1496.3837     0.091774908
       1496.7275     0.094027858
       1497.0712      0.11594259
       1497.4149      0.13148716
       1497.7586     0.085194335
       1498.1023     0.099942111
       1498.4460      0.11896621
       1498.7898     0.094609698
       1499.1335     0.088688242
       1499.4772      0.12870855
       1499.8209      0.14460912
       1500.1646     0.098933374
       1500.5083      0.11467638
       1500.8520      0.11404588
       1501.1958      0.11792256
       1501.5395      0.13096624
       1501.8832      0.11314025
       1502.2269      0.14748406
       1502.5706     0.080037879
       1502.9143     0.082983926
       1503.2581      0.10413828
       1503.6018      0.12840028
       1503.9455     0.096921660
       1504.2892      0.11041509
       1504.6329      0.11892750
       1504.9766      0.11410924
       1505.3203      0.10809952
       1505.6641      0.11779868
       1506.0078      0.12795571
       1506.3515      0.13347145
       1506.6952      0.13149387
       1507.0389      0.12438829
       1507.3826      0.11076368
       1507.7264      0.12961697
       1508.0701      0.11418305
       1508.4138      0.11262652
       1508.7575      0.11397199
       1509.1012      0.10338410
       1509.4449      0.10502809
       1509.7886      0.11647084
       1510.1324     0.085337276
       1510.4761      0.11336835
       1510.8198      0.12241742
       1511.1635     0.089691775
       1511.5072      0.10827633
       1511.8509     0.090093758
       1512.1947      0.10615486
       1512.5384      0.12280263
       1512.8821      0.10624658
       1513.2258     0.099373900
       1513.5695      0.11553522
       1513.9132      0.12696315
       1514.2569      0.14559392
       1514.6007      0.10920739
       1514.9444      0.12808764
       1515.2881      0.10210242
       1515.6318      0.12882151
       1515.9755      0.10641399
       1516.3192      0.11058532
       1516.6630      0.10576340
       1517.0067     0.077176919
       1517.3504     0.067926131
       1517.6941     0.068905538
       1518.0378     0.070150796
       1518.3815     0.031522415
       1518.7253     0.069121383
       1519.0690     0.076832275
       1519.4127     0.073696058
       1519.7564     0.080752894
       1520.1001     0.089949836
       1520.4438      0.10056608
       1520.7875     0.077853968
       1521.1313     0.093824568
       1521.4750     0.096763511
       1521.8187     0.096636686
       1522.1624      0.12859249
       1522.5061      0.12600871
       1522.8498      0.11889471
       1523.1936      0.13078712
       1523.5373     0.080817585
       1523.8810     0.095101509
       1524.2247     0.079017707
       1524.5684      0.14269613
       1524.9121      0.13552872
       1525.2558      0.12016848
       1525.5996      0.12344013
       1525.9433      0.12666085
       1526.2870      0.14201713
       1526.6307      0.13184433
       1526.9744      0.10534840
       1527.3181      0.11556284
       1527.6619     0.091317757
       1528.0056     0.088981159
       1528.3493     0.076249065
       1528.6930     0.082394360
       1529.0367      0.10524723
       1529.3804     0.099341870
       1529.7241     0.084685715
       1530.0679      0.12392143
       1530.4116      0.11955773
       1530.7553     0.069785855
       1531.0990     0.063630962
       1531.4427     0.098777381
       1531.7864     0.094367639
       1532.1302      0.10048016
       1532.4739      0.10788435
       1532.8176      0.10584997
       1533.1613      0.10935008
       1533.5050     0.088833458
       1533.8487     0.099442828
       1534.1924     0.094798085
       1534.5362     0.060054575
       1534.8799     0.094632011
       1535.2236      0.10583814
       1535.5673     0.091549379
       1535.9110     0.088638132
       1536.2547     0.062798950
       1536.5985     0.039270388
       1536.9422     0.051099183
       1537.2859     0.033205183
       1537.6296     0.047802009
       1537.9733     0.060926428
       1538.3170    0.0025996884
       1538.6607   -0.0050480931
       1539.0045    -0.027728956
       1539.3482    0.0031481955
       1539.6919  -0.00073798357
       1540.0356    0.0048046418
       1540.3793     0.025662696
       1540.7230   -0.0076511808
       1541.0668    0.0023308009
       1541.4105     0.020995725
       1541.7542     0.019098636
       1542.0979     0.027618821
       1542.4416     0.015744662
       1542.7853   -0.0034113173
       1543.1290     0.017396615
       1543.4728     0.064927321
       1543.8165     0.080149950
       1544.1602     0.054951809
       1544.5039     0.092645696
       1544.8476      0.12846392
       1545.1913     0.098678866
       1545.5351      0.14943567
       1545.8788      0.15189109
       1546.2225      0.10035994
       1546.5662      0.12842952
       1546.9099      0.11890183
       1547.2536      0.12378237
       1547.5973      0.13569912
       1547.9411      0.12919924
       1548.2848      0.10199152
       1548.6285      0.13278642
       1548.9722      0.13837187
       1549.3159      0.12492412
       1549.6596      0.11151139
       1550.0034     0.085966650
       1550.3471     0.083757728
       1550.6908      0.11447862
       1551.0345     0.084190705
       1551.3782     0.068312367
       1551.7219      0.10505532
       1552.0656      0.14000864
       1552.4094      0.12422495
       1552.7531      0.10757821
       1553.0968      0.12496780
       1553.4405      0.12554952
       1553.7842      0.13262128
       1554.1279      0.13182850
       1554.4717      0.12102828
       1554.8154     0.097645857
       1555.1591     0.080367555
       1555.5028     0.099210971
       1555.8465      0.10777435
       1556.1902      0.10892691
       1556.5339     0.078720096
       1556.8777     0.080717763
       1557.2214     0.079941776
       1557.5651     0.087680621
       1557.9088     0.078595198
       1558.2525      0.10634513
       1558.5962      0.13591142
       1558.9400      0.15338463
       1559.2837      0.12963069
       1559.6274      0.13853368
       1559.9711      0.12363883
       1560.3148      0.11268579
       1560.6585      0.11480230
       1561.0022      0.11404023
       1561.3460      0.16112037
       1561.6897      0.12913088
       1562.0334      0.12051534
       1562.3771      0.14221646
       1562.7208     0.061704476
       1563.0645     0.080873451
       1563.4083      0.13252754
       1563.7520      0.12006783
       1564.0957      0.10683007
       1564.4394      0.13245243
       1564.7831      0.10550312
       1565.1268     0.089214174
       1565.4705      0.11928402
       1565.8143      0.11987995
       1566.1580      0.10248547
       1566.5017     0.090998971
       1566.8454      0.15688825
       1567.1891      0.13171153
       1567.5328     0.094235036
       1567.8766      0.12254588
       1568.2203      0.14182576
       1568.5640      0.13784208
       1568.9077      0.10127331
       1569.2514      0.13356497
       1569.5951      0.12487746
       1569.9388     0.099237830
       1570.2826      0.10000068
       1570.6263     0.089151350
       1570.9700     0.085330568
       1571.3137     0.092827512
       1571.6574      0.10663814
       1572.0011      0.11099618
       1572.3449      0.11971660
       1572.6886      0.12675549
       1573.0323      0.15099188
       1573.3760      0.12685793
       1573.7197      0.10907437
       1574.0634      0.13345728
       1574.4071      0.12011448
       1574.7509      0.13840763
       1575.0946      0.10414618
       1575.4383      0.13700599
       1575.7820      0.12859162
       1576.1257      0.11185210
       1576.4694     0.094864947
       1576.8132      0.12750562
       1577.1569      0.10392841
       1577.5006      0.11575857
       1577.8443      0.11089626
       1578.1880      0.14157692
       1578.5317      0.13343178
       1578.8755      0.15922184
       1579.2192      0.15028834
       1579.5629     0.095143715
       1579.9066      0.11133292
       1580.2503      0.11068260
       1580.5940     0.077542952
       1580.9377     0.092088048
       1581.2815     0.099094648
       1581.6252      0.10887081
       1581.9689      0.11424960
       1582.3126     0.096825386
       1582.6563     0.085899481
       1583.0000     0.090441527
       1583.3438     0.075667704
       1583.6875     0.045048657
       1584.0312      0.13568469
       1584.3749      0.11968370
       1584.7186      0.10197660
       1585.0623      0.12197964
       1585.4060      0.10714816
       1585.7498      0.10826712
       1586.0935      0.11910715
       1586.4372      0.13016334
       1586.7809      0.11547224
       1587.1246      0.10948030
       1587.4683     0.095119848
       1587.8121     0.092328806
       1588.1558      0.11293661
       1588.4995      0.11363173
       1588.8432      0.11142064
       1589.1869      0.11098901
       1589.5306      0.13033310
       1589.8743      0.13400082
       1590.2181     0.086203293
       1590.5618     0.069348741
       1590.9055     0.072524319
       1591.2492     0.089631937
       1591.5929      0.13885144
       1591.9366      0.13522079
       1592.2804      0.14430931
       1592.6241      0.14212533
       1592.9678      0.12038924
       1593.3115      0.10749279
       1593.6552      0.11292297
       1593.9989      0.12203058
       1594.3426      0.12329402
       1594.6864     0.082010843
       1595.0301      0.11787564
       1595.3738      0.11436239
       1595.7175      0.11791606
       1596.0612     0.097351123
       1596.4049     0.062721022
       1596.7487     0.078432495
       1597.0924      0.10534698
       1597.4361      0.10705264
       1597.7798      0.12273695
       1598.1235      0.11106637
       1598.4672      0.11908395
       1598.8109      0.11160523
       1599.1547      0.12465330
       1599.4984     0.098104875
       1599.8421     0.095482289
       1600.1858     0.086559886
       1600.5295     0.062601432
       1600.8732      0.13485908
       1601.2170      0.12111264
       1601.5607      0.13352189
       1601.9044      0.13476568
       1602.2481      0.12613056
       1602.5918      0.10784885
       1602.9355     0.075913878
       1603.2792      0.11111523
       1603.6230      0.10976898
       1603.9667      0.11175163
       1604.3104      0.11038318
       1604.6541      0.10522712
       1604.9978      0.11392815
       1605.3415      0.11843088
       1605.6853      0.12390493
       1606.0290      0.11996733
       1606.3727      0.11478074
       1606.7164     0.094902247
       1607.0601     0.087469282
       1607.4038      0.11422441
       1607.7475      0.12148781
       1608.0913      0.12340733
       1608.4350      0.10987673
       1608.7787     0.093338394
       1609.1224      0.10887539
       1609.4661      0.10076319
       1609.8098     0.098358839
       1610.1536      0.12391885
       1610.4973      0.10983504
       1610.8410      0.10401050
       1611.1847      0.13644679
       1611.5284      0.11016031
       1611.8721      0.10477209
       1612.2158      0.13308188
       1612.5596      0.11895302
       1612.9033     0.095499008
       1613.2470      0.10359574
       1613.5907      0.11622535
       1613.9344      0.10250198
       1614.2781      0.10535469
       1614.6219      0.11584001
       1614.9656     0.086360011
       1615.3093      0.11637565
       1615.6530     0.085782246
       1615.9967      0.10438079
       1616.3404      0.11098885
       1616.6841      0.14624611
       1617.0279      0.14552131
       1617.3716      0.13475363
       1617.7153      0.13819760
       1618.0590      0.11938818
       1618.4027      0.12693809
       1618.7464      0.10411259
       1619.0902     0.093397225
       1619.4339     0.099471030
       1619.7776      0.11779764
       1620.1213      0.12876138
       1620.4650      0.14422991
       1620.8087      0.12895045
       1621.1524      0.13137614
       1621.4962      0.12860456
       1621.8399      0.11101412
       1622.1836      0.11807365
       1622.5273      0.11720625
       1622.8710      0.11121078
       1623.2147      0.10194233
       1623.5585      0.10321384
       1623.9022      0.13007364
       1624.2459      0.15199669
       1624.5896      0.12970460
       1624.9333      0.11508306
       1625.2770      0.11239378
       1625.6207      0.11421567
       1625.9645      0.12810008
       1626.3082      0.12026622
       1626.6519      0.12008095
       1626.9956      0.11513167
       1627.3393      0.13690135
       1627.6830      0.12929692
       1628.0268      0.12280286
       1628.3705      0.12816262
       1628.7142      0.11586584
       1629.0579      0.12970473
       1629.4016      0.14702207
       1629.7453      0.11061116
       1630.0890      0.12033203
       1630.4328      0.11151591
       1630.7765      0.11610281
       1631.1202      0.13472914
       1631.4639      0.11418098
       1631.8076      0.14974218
       1632.1513      0.15335638
       1632.4951      0.12635729
       1632.8388      0.12034687
       1633.1825      0.13331998
       1633.5262      0.13582239
       1633.8699     0.099534866
       1634.2136      0.12696684
       1634.5573      0.11186775
       1634.9011      0.11110335
       1635.2448      0.12506482
       1635.5885      0.15087381
       1635.9322      0.13808256
       1636.2759      0.13797676
       1636.6196      0.14752243
       1636.9634      0.11244890
       1637.3071      0.14522567
       1637.6508      0.14117986
       1637.9945      0.14959637
       1638.3382     0.098653428
       1638.6819      0.11919689
       1639.0257     0.083358517
       1639.3694     0.085660032
       1639.7131     0.092570358
       1640.0568      0.11373785
       1640.4005      0.11752160
       1640.7442      0.10897133
       1641.0879      0.12205243
       1641.4317      0.10518633
       1641.7754      0.11055253
       1642.1191      0.10830686
       1642.4628      0.12604599
       1642.8065      0.13583920
       1643.1502      0.13654805
       1643.4940      0.14185335
       1643.8377      0.10651597
       1644.1814      0.11435630
       1644.5251     0.096752458
       1644.8688      0.13517386
       1645.2125      0.11024506
       1645.5562      0.10598797
       1645.9000      0.10544267
       1646.2437     0.086957440
       1646.5874      0.11699331
       1646.9311      0.12015904
       1647.2748      0.10167109
       1647.6185      0.12151179
       1647.9623      0.13014533
       1648.3060      0.14651470
       1648.6497      0.10818433
       1648.9934     0.077596969
       1649.3371      0.11641610
       1649.6808      0.11294581
       1650.0245      0.11705896
       1650.3683      0.14444311
       1650.7120      0.15213046
       1651.0557      0.12738616
       1651.3994      0.11211697
       1651.7431      0.13819914
       1652.0868      0.12175139
       1652.4306      0.12032763
       1652.7743      0.10540186
       1653.1180      0.14905086
       1653.4617      0.14352035
       1653.8054      0.12653921
       1654.1491     0.097687296
       1654.4928     0.098828762
       1654.8366      0.10110477
       1655.1803      0.11963095
       1655.5240      0.13276106
       1655.8677     0.091548930
       1656.2114     0.065677077
       1656.5551     0.046978974
       1656.8989     0.089323452
       1657.2426      0.10629835
       1657.5863      0.11003862
       1657.9300     0.082688389
       1658.2737     0.068564788
       1658.6174     0.082152815
       1658.9611     0.068230529
       1659.3049     0.093309010
       1659.6486      0.11955957
       1659.9923      0.15539402
       1660.3360      0.14453628
       1660.6797     0.089846772
       1661.0234     0.093775809
       1661.3672      0.13065973
       1661.7109      0.15368548
       1662.0546      0.15574825
       1662.3983      0.14649400
       1662.7420      0.14960526
       1663.0857      0.11986487
       1663.4294      0.14098010
       1663.7732      0.13663210
       1664.1169      0.14314715
       1664.4606      0.12013652
       1664.8043      0.10527831
       1665.1480      0.11113751
       1665.4917      0.13728584
       1665.8355      0.14503387
       1666.1792      0.13945369
       1666.5229      0.13122052
       1666.8666      0.12980715
       1667.2103      0.11453879
       1667.5540      0.12770197
       1667.8977      0.13230773
       1668.2415      0.14254094
       1668.5852      0.14520649
       1668.9289      0.10956598
       1669.2726      0.14858126
       1669.6163      0.15823837
       1669.9600      0.11577148
       1670.3038      0.11607340
       1670.6475      0.14215777
       1670.9912     0.085269077
       1671.3349      0.10408552
       1671.6786      0.15133174
       1672.0223      0.16122683
       1672.3660      0.11709123
       1672.7098      0.12181139
       1673.0535      0.12187901
       1673.3972      0.11952607
       1673.7409      0.11864398
       1674.0846      0.11348891
       1674.4283     0.085184834
       1674.7721      0.12702894
       1675.1158     0.095245113
       1675.4595      0.10158193
       1675.8032      0.11909021
       1676.1469      0.10397404
       1676.4906      0.14014626
       1676.8343      0.12697764
       1677.1781     0.099627225
       1677.5218      0.12345250
       1677.8655      0.13075031
       1678.2092      0.11446628
       1678.5529     0.093917203
       1678.8966      0.11741793
       1679.2404      0.11821316
       1679.5841      0.14510812
       1679.9278      0.11431470
       1680.2715      0.10952456
       1680.6152      0.12672005
       1680.9589      0.13625593
       1681.3026      0.14555733
       1681.6464      0.12922151
       1681.9901      0.12004003
       1682.3338      0.11672048
       1682.6775      0.10059002
       1683.0212      0.11577025
       1683.3649      0.11728985
       1683.7087      0.11357358
       1684.0524      0.11481615
       1684.3961      0.11534254
       1684.7398      0.14403566
       1685.0835      0.13166349
       1685.4272      0.12698898
       1685.7709      0.11664040
       1686.1147     0.098107361
       1686.4584      0.10857986
       1686.8021      0.13003752
       1687.1458     0.092009107
       1687.4895      0.10645360
       1687.8332      0.13580223
       1688.1770      0.14999053
       1688.5207      0.14100211
       1688.8644      0.13399602
       1689.2081      0.12250949
       1689.5518     0.087755226
       1689.8955      0.10985311
       1690.2392     0.086804819
       1690.5830     0.094819627
       1690.9267      0.12816546
       1691.2704      0.11420706
       1691.6141      0.11400213
       1691.9578      0.10366968
       1692.3015      0.11898331
       1692.6453      0.12847393
       1692.9890      0.10985479
       1693.3327     0.071819557
       1693.6764      0.10228519
       1694.0201      0.11607879
       1694.3638      0.11718983
       1694.7076      0.11894140
       1695.0513     0.099702435
       1695.3950     0.098484832
       1695.7387      0.15759995
       1696.0824      0.11201775
       1696.4261      0.10537650
       1696.7698      0.11471772
       1697.1136      0.10371230
       1697.4573      0.10278186
       1697.8010     0.088634584
       1698.1447     0.067208446
       1698.4884      0.10771453
       1698.8321      0.10307353
       1699.1759     0.075596714
       1699.5196     0.084832230
       1699.8633      0.11469273
       1700.2070     0.091777560
       1700.5507     0.055560229
       1700.8944     0.077361739
       1701.2381     0.082551370
       1701.5819     0.093726726
       1701.9256     0.081333483
       1702.2693      0.11008053
       1702.6130      0.13139334
       1702.9567      0.10491996
       1703.3004      0.10801032
       1703.6442      0.11814607
       1703.9879      0.12885047
       1704.3316      0.13973985
       1704.6753     0.090192275
       1705.0190      0.11883565
       1705.3627      0.11329749
       1705.7064      0.10732424
       1706.0502     0.090673482
       1706.3939     0.078614098
       1706.7376     0.086359794
       1707.0813     0.089462448
       1707.4250      0.10164221
       1707.7687     0.094887133
       1708.1125      0.11520784
       1708.4562      0.13482067
       1708.7999      0.10460569
       1709.1436     0.095958852
       1709.4873      0.10939873
       1709.8310      0.14081551
       1710.1747      0.13658246
       1710.5185     0.086581973
       1710.8622      0.10792473
       1711.2059     0.098539229
       1711.5496      0.11831740
       1711.8933      0.13111740
       1712.2370      0.13318315
       1712.5808      0.11879509
       1712.9245     0.089803577
       1713.2682     0.094417882
       1713.6119     0.069903907
       1713.9556      0.10922876
       1714.2993      0.12522805
       1714.6430      0.12922577
       1714.9868      0.11165777
       1715.3305      0.12523153
       1715.6742      0.14682185
       1716.0179      0.12945880
       1716.3616      0.10829212
       1716.7053     0.085003403
       1717.0491     0.087697401
       1717.3928      0.10529885
       1717.7365      0.11104627
       1718.0802      0.10842825
       1718.4239      0.10415711
       1718.7676      0.13462473
       1719.1113      0.12526119
       1719.4551     0.090529385
       1719.7988      0.10398704
       1720.1425      0.10937508
       1720.4862     0.078123395
       1720.8299      0.10448907
       1721.1736      0.11985047
       1721.5174      0.12810535
       1721.8611      0.11488391
       1722.2048      0.12135974
       1722.5485     0.084279062
       1722.8922     0.083460755
       1723.2359     0.076477514
       1723.5796      0.11385848
       1723.9234      0.13342876
       1724.2671      0.11451733
       1724.6108      0.15023870
       1724.9545      0.15151236
       1725.2982      0.14438315
       1725.6419      0.15125939
       1725.9857      0.15281991
       1726.3294      0.11089847
       1726.6731     0.098512442
       1727.0168      0.12531704
       1727.3605      0.13522500
       1727.7042      0.10539467
       1728.0479     0.091027779
       1728.3917     0.075211448
       1728.7354     0.099974735
       1729.0791      0.13384909
       1729.4228      0.15852491
       1729.7665      0.11707086
       1730.1102     0.095904839
       1730.4540     0.080838266
       1730.7977     0.070887649
       1731.1414      0.10030874
       1731.4851      0.13740033
       1731.8288      0.13870740
       1732.1725      0.15596556
       1732.5162      0.11459542
       1732.8600      0.10116779
       1733.2037      0.10062954
       1733.5474      0.12826690
       1733.8911      0.15032095
       1734.2348      0.11226425
       1734.5785     0.066814331
       1734.9223     0.079167323
       1735.2660      0.11901711
       1735.6097      0.11457434
       1735.9534      0.10522524
       1736.2971      0.12035641
       1736.6408      0.11426776
       1736.9845     0.095836912
       1737.3283      0.12563353
       1737.6720      0.12536449
       1738.0157     0.099994206
       1738.3594      0.12527563
       1738.7031      0.10812096
       1739.0468      0.11455336
       1739.3906     0.099234777
       1739.7343     0.074733963
       1740.0780     0.094866075
       1740.4217      0.12474047
       1740.7654      0.12060973
       1741.1091     0.087311085
       1741.4528     0.098162665
       1741.7966      0.11135004
       1742.1403      0.10382837
       1742.4840      0.11927920
       1742.8277      0.13043239
       1743.1714      0.15215154
       1743.5151      0.10242285
       1743.8589     0.093800330
       1744.2026      0.13261695
       1744.5463      0.11159605
       1744.8900      0.10574295
       1745.2337      0.15341049
       1745.5774      0.17667784
       1745.9211     0.096431846
       1746.2649      0.10767149
       1746.6086      0.13840183
       1746.9523     0.090668285
       1747.2960      0.12892136
       1747.6397      0.11613758
       1747.9834     0.088240431
       1748.3272     0.099144266
       1748.6709      0.10048053
       1749.0146      0.10095712
       1749.3583     0.083517929
       1749.7020      0.12399116
       1750.0457      0.16392128
       1750.3894      0.12510692
       1750.7332     0.090167623
       1751.0769      0.11775994
       1751.4206      0.11337407
       1751.7643      0.11679313
       1752.1080      0.12532250
       1752.4517      0.10281335
       1752.7955      0.11134752
       1753.1392      0.12347732
       1753.4829      0.12299370
       1753.8266     0.097721308
       1754.1703      0.10958777
       1754.5140      0.11658414
       1754.8578      0.11701017
       1755.2015      0.14370392
       1755.5452      0.11699245
       1755.8889     0.095766861
       1756.2326     0.077406235
       1756.5763      0.11516904
       1756.9200      0.12413137
       1757.2638      0.11656063
       1757.6075      0.11859428
       1757.9512     0.093716799
       1758.2949      0.13372758
       1758.6386      0.13583098
       1758.9823      0.15921942
       1759.3261      0.13755626
       1759.6698     0.088601677
       1760.0135     0.057970723
       1760.3572      0.10222323
       1760.7009      0.12376473
       1761.0446     0.082472898
       1761.3883     0.089081237
       1761.7321      0.11149963
       1762.0758      0.12653584
       1762.4195      0.11935605
       1762.7632      0.12974221
       1763.1069      0.11838138
       1763.4506     0.082214681
       1763.7944      0.10757692
       1764.1381      0.13032270
       1764.4818      0.10288713
       1764.8255      0.11096385
       1765.1692      0.15163288
       1765.5129      0.14905168
       1765.8566      0.14308821
       1766.2004     0.079063287
       1766.5441      0.10086260
       1766.8878      0.11504224
       1767.2315      0.11236692
       1767.5752      0.11007006
       1767.9189      0.15426825
       1768.2627      0.11603228
       1768.6064     0.047521449
       1768.9501     0.067430425
       1769.2938     0.092201530
       1769.6375     0.075927292
       1769.9812     0.073548407
       1770.3249     0.091243499
       1770.6687     0.080715247
       1771.0124     0.087399170
       1771.3561     0.081681018
       1771.6998      0.12952933
       1772.0435      0.10402519
       1772.3872     0.080307052
       1772.7310     0.094426960
       1773.0747      0.10552024
       1773.4184      0.12722093
       1773.7621     0.090837525
       1774.1058     0.070913375
       1774.4495     0.089044414
       1774.7932      0.11107789
       1775.1370     0.088111248
       1775.4807      0.11211732
       1775.8244      0.10889263
       1776.1681      0.10407626
       1776.5118      0.15434778
       1776.8555     0.094967231
       1777.1993     0.084180278
       1777.5430     0.099245657
       1777.8867      0.11585030
       1778.2304     0.091379191
       1778.5741     0.082495501
       1778.9178      0.10370727
       1779.2615      0.14392653
       1779.6053      0.15407577
       1779.9490      0.13888105
       1780.2927     0.075740859
       1780.6364     0.046812465
       1780.9801      0.13699739
       1781.3238      0.13351454
       1781.6676     0.067697354
       1782.0113     0.097270352
       1782.3550      0.13244991
       1782.6987     0.099954499
       1783.0424     0.062271017
       1783.3861     0.069550577
       1783.7298     0.085259428
       1784.0736     0.055485791
       1784.4173     0.080108969
       1784.7610      0.11966872
       1785.1047     0.080316395
       1785.4484     0.053311973
       1785.7921      0.13842169
       1786.1359      0.16094349
       1786.4796      0.10859901
       1786.8233     0.058224709
       1787.1670      0.12406894
       1787.5107      0.11898475
       1787.8544      0.15699662
       1788.1981      0.15185469
       1788.5419    -0.028910958
       1788.8856     0.031744373
       1789.2293     0.040932307
       1968.5247      0.25518478
       1968.9073      0.17851552
       1969.2900      0.30165337
       1969.6726      0.27455381
       1970.0552      0.21273756
       1970.4378      0.23252809
       1970.8204      0.21223087
       1971.2030      0.23559818
       1971.5856      0.13320414
       1971.9682      0.14501566
       1972.3508      0.16441315
       1972.7334      0.18764937
       1973.1160      0.24126263
       1973.4986      0.13077493
       1973.8812      0.16716390
       1974.2638      0.18338523
       1974.6464      0.18320934
       1975.0290      0.13836442
       1975.4116      0.14643327
       1975.7942      0.18575839
       1976.1768      0.19099866
       1976.5594      0.22005240
       1976.9420      0.18629192
       1977.3246      0.22496506
       1977.7072      0.17640258
       1978.0898      0.13719243
       1978.4724      0.16918189
       1978.8550      0.15680040
       1979.2377      0.13802791
       1979.6203      0.17248755
       1980.0029      0.17890966
       1980.3855      0.21021461
       1980.7681      0.12975196
       1981.1507      0.19167266
       1981.5333      0.18181497
       1981.9159      0.20221366
       1982.2985      0.19310302
       1982.6811      0.22151604
       1983.0637      0.23075396
       1983.4463      0.18499970
       1983.8289      0.23615591
       1984.2115      0.19625943
       1984.5941      0.18557141
       1984.9767      0.19796173
       1985.3593      0.18012737
       1985.7419      0.14072752
       1986.1245      0.15594253
       1986.5071      0.19630470
       1986.8897      0.19244012
       1987.2723      0.11966039
       1987.6549      0.12043000
       1988.0375      0.18086469
       1988.4201      0.15936038
       1988.8028      0.16420016
       1989.1854      0.15710993
       1989.5680      0.11436312
       1989.9506      0.17023057
       1990.3332      0.13189228
       1990.7158      0.11434174
       1991.0984      0.17119136
       1991.4810      0.15994898
       1991.8636      0.19064045
       1992.2462      0.15919551
       1992.6288      0.17437992
       1993.0114      0.13428507
       1993.3940      0.21293188
       1993.7766      0.25519235
       1994.1592      0.22674658
       1994.5418      0.23185252
       1994.9244      0.19776040
       1995.3070      0.15035852
       1995.6896      0.23063517
       1996.0722      0.25996429
       1996.4548      0.20761612
       1996.8374      0.19501946
       1997.2200      0.18578623
       1997.6026      0.18008391
       1997.9852      0.18764479
       1998.3679      0.21967164
       1998.7505      0.27882925
       1999.1331      0.23433588
       1999.5157      0.14551809
       1999.8983      0.20572267
       2000.2809      0.21955276
       2000.6635      0.18871651
       2001.0461      0.26079553
       2001.4287      0.16640650
       2001.8113      0.16753486
       2002.1939      0.21455030
       2002.5765      0.25172489
       2002.9591      0.21848414
       2003.3417      0.19861683
       2003.7243      0.20965074
       2004.1069      0.24224574
       2004.4895      0.21090154
       2004.8721      0.21941817
       2005.2547      0.21942109
       2005.6373      0.26557836
       2006.0199      0.27232009
       2006.4025      0.26848526
       2006.7851      0.17864714
       2007.1677      0.23366198
       2007.5503      0.25188739
       2007.9330      0.20509844
       2008.3156      0.16404781
       2008.6982      0.18248500
       2009.0808      0.21183892
       2009.4634      0.18452601
       2009.8460      0.19455830
       2010.2286      0.20711893
       2010.6112      0.18031277
       2010.9938      0.20999502
       2011.3764      0.15126485
       2011.7590      0.16310991
       2012.1416      0.20835229
       2012.5242      0.17673538
       2012.9068      0.17575741
       2013.2894      0.11579279
       2013.6720      0.12151977
       2014.0546      0.15573357
       2014.4372      0.17027619
       2014.8198      0.16793970
       2015.2024      0.12851143
       2015.5850      0.10366965
       2015.9676      0.19473221
       2016.3502      0.19575399
       2016.7328      0.16019199
       2017.1154      0.19444267
       2017.4981      0.11164873
       2017.8807     0.018810144
       2018.2633     0.038073848
       2018.6459      0.20937749
       2019.0285      0.23334276
       2019.4111     0.033899618
       2019.7937      0.29283866
       2020.1763      0.35340602
       2020.5589      0.35216274
       2020.9415      0.32394166
       2021.3241      0.23608465
       2021.7067      0.27910659
       2022.0893      0.25168655
       2022.4719      0.24158200
       2022.8545      0.25983484
       2023.2371      0.25882151
       2023.6197      0.22807019
       2024.0023      0.20031484
       2024.3849      0.22606147
       2024.7675      0.19430787
       2025.1501      0.16438132
       2025.5327      0.20775798
       2025.9153      0.21346136
       2026.2979      0.23114685
       2026.6805      0.24454828
       2027.0632      0.24719878
       2027.4458      0.20219374
       2027.8284      0.19518311
       2028.2110      0.15338720
       2028.5936      0.18538459
       2028.9762      0.25421786
       2029.3588      0.20157606
       2029.7414      0.19902904
       2030.1240      0.19845836
       2030.5066      0.16120138
       2030.8892      0.14717560
       2031.2718      0.20795890
       2031.6544      0.21165732
       2032.0370      0.24476704
       2032.4196      0.27779366
       2032.8022      0.23591290
       2033.1848      0.24048005
       2033.5674      0.31443520
       2033.9500      0.33457833
       2034.3326      0.23342054
       2034.7152      0.16821848
       2035.0978      0.16737073
       2035.4804      0.19044382
       2035.8630      0.23033132
       2036.2456      0.23032813
       2036.6283      0.15656378
       2037.0109      0.11809395
       2037.3935      0.17711323
       2037.7761      0.22733810
       2038.1587      0.20185814
       2038.5413      0.20236016
       2038.9239      0.25785312
       2039.3065      0.19553424
       2039.6891      0.15796806
       2040.0717      0.16510367
       2040.4543      0.12650208
       2040.8369      0.10029227
       2041.2195     0.084261399
       2041.6021     0.045255469
       2041.9847      0.23857871
       2042.3673      0.26670897
       2042.7499      0.28974247
       2043.1325      0.26664985
       2043.5151      0.21560398
       2043.8977      0.26450266
       2044.2803      0.22582327
       2044.6629      0.19576736
       2045.0455      0.22730512
       2045.4281      0.22025603
       2045.8107      0.22725073
       2046.1933      0.17893642
       2046.5760      0.20609625
       2046.9586      0.15259181
       2047.3412      0.13386949
       2047.7238      0.19167177
       2048.1064      0.17471363
       2048.4890      0.16653274
       2048.8716      0.15405485
       2049.2542      0.21096392
       2049.6368      0.21251734
       2050.0194      0.21393654
       2050.4020      0.22621930
       2050.7846      0.17296394
       2051.1672      0.18572443
       2051.5498      0.22908686
       2051.9324      0.23582715
       2052.3150      0.18514189
       2052.6976      0.24027871
       2053.0802      0.26617169
       2053.4628      0.23043044
       2053.8454      0.17785373
       2054.2280      0.23020514
       2054.6106      0.18375953
       2054.9932      0.21639718
       2055.3758      0.24047344
       2055.7584      0.18988083
       2056.1411      0.26845146
       2056.5237      0.28100782
       2056.9063      0.20273440
       2057.2889      0.21413337
       2057.6715      0.24110953
       2058.0541      0.23651317
       2058.4367      0.21988157
       2058.8193      0.18332716
       2059.2019      0.19809884
       2059.5845      0.19761819
       2059.9671      0.21318114
       2060.3497      0.20977794
       2060.7323      0.20431354
       2061.1149      0.20591654
       2061.4975      0.20320375
       2061.8801      0.21766277
       2062.2627      0.22786145
       2062.6453      0.21155014
       2063.0279      0.21562396
       2063.4105      0.18592468
       2063.7931      0.25708402
       2064.1757      0.23833663
       2064.5583      0.25398748
       2064.9409      0.21735412
       2065.3235      0.24101999
       2065.7062      0.20382992
       2066.0888      0.21152443
       2066.4714      0.19880239
       2066.8540      0.22479773
       2067.2366      0.18244690
       2067.6192      0.11577283
       2068.0018      0.16645060
       2068.3844      0.19972522
       2068.7670      0.19870324
       2069.1496      0.23466233
       2069.5322      0.23967371
       2069.9148      0.26010301
       2070.2974      0.27349797
       2070.6800      0.19967808
       2071.0626      0.17293818
       2071.4452      0.16419776
       2071.8278      0.20018167
       2072.2104      0.21164326
       2072.5930      0.19260726
       2072.9756      0.18816668
       2073.3582      0.25705200
       2073.7408      0.21872657
       2074.1234      0.18044992
       2074.5060      0.17995022
       2074.8886      0.29349283
       2075.2713      0.25917038
       2075.6539      0.19082505
       2076.0365      0.20418964
       2076.4191      0.12755683
       2076.8017      0.14037391
       2077.1843      0.15561869
       2077.5669      0.18768157
       2077.9495      0.18776998
       2078.3321      0.21126397
       2078.7147      0.24564721
       2079.0973      0.28478753
       2079.4799      0.26291247
       2079.8625      0.24756097
       2080.2451      0.23276861
       2080.6277      0.25476632
       2081.0103      0.20013589
       2081.3929      0.20490368
       2081.7755      0.20313638
       2082.1581      0.18323510
       2082.5407      0.16804445
       2082.9233      0.23052223
       2083.3059      0.29091010
       2083.6885      0.29331499
       2084.0711      0.21051283
       2084.4537      0.10569460
       2084.8364      0.11306563
       2085.2190     0.051173702
       2085.6016     0.087744226
       2085.9842      0.12826404
       2086.3668      0.17121005
       2086.7494      0.21894624
       2087.1320      0.16674136
       2087.5146      0.24562066
       2087.8972      0.26604533
       2088.2798      0.15823852
       2088.6624      0.18570665
       2089.0450      0.21281472
       2089.4276      0.18064977
       2089.8102      0.19985786
       2090.1928      0.21075241
       2090.5754      0.26741093
       2090.9580      0.24828313
       2091.3406      0.21951432
       2091.7232      0.24484284
       2092.1058      0.31627066
       2092.4884      0.27040454
       2092.8710      0.19717077
       2093.2536      0.24369775
       2093.6362      0.21296566
       2094.0188      0.22682435
       2094.4015      0.18095355
       2094.7841      0.22644235
       2095.1667      0.23779637
       2095.5493      0.21622271
       2095.9319      0.25925556
       2096.3145      0.17663985
       2096.6971     0.098283151
       2097.0797      0.13476108
       2097.4623      0.20724913
       2097.8449      0.20692039
       2098.2275      0.25493937
       2098.6101      0.28411214
       2098.9927      0.30918977
       2099.3753      0.31600301
       2099.7579      0.26949004
       2100.1405      0.26753297
       2100.5231      0.25795319
       2100.9057      0.23633324
       2101.2883      0.19321021
       2101.6709      0.24209682
       2102.0535      0.30042891
       2102.4361      0.24433241
       2102.8187      0.22446458
       2103.2013      0.26384010
       2103.5839      0.24826318
       2103.9666      0.25667653
       2104.3492      0.25273872
       2104.7318      0.23283026
       2105.1144      0.22248265
       2105.4970      0.18780917
       2105.8796      0.24520589
       2106.2622      0.24311068
       2106.6448      0.22127229
       2107.0274      0.23196213
       2107.4100      0.23021366
       2107.7926      0.22974877
       2108.1752      0.27153067
       2108.5578      0.23151093
       2108.9404      0.21644902
       2109.3230      0.25047466
       2109.7056      0.22539005
       2110.0882      0.27999781
       2110.4708      0.28649160
       2110.8534      0.26964715
       2111.2360      0.27702246
       2111.6186      0.22565583
       2112.0012      0.21136024
       2112.3838      0.27043583
       2112.7664      0.26044709
       2113.1490      0.23584825
       2113.5316      0.21771836
       2113.9143      0.21704136
       2114.2969      0.24289863
       2114.6795      0.23100567
       2115.0621      0.26796021
       2115.4447      0.26362057
       2115.8273      0.21053522
       2116.2099      0.24561650
       2116.5925      0.24631291
       2116.9751      0.22272855
       2117.3577      0.27291385
       2117.7403      0.24246528
       2118.1229      0.25931470
       2118.5055      0.24080441
       2118.8881      0.22498461
       2119.2707      0.24008958
       2119.6533      0.20367698
       2120.0359      0.25792284
       2120.4185      0.31749276
       2120.8011      0.27047673
       2121.1837      0.27082844
       2121.5663      0.24964906
       2121.9489      0.20084511
       2122.3315      0.24045073
       2122.7141      0.22329996
       2123.0967      0.24972995
       2123.4794      0.24330278
       2123.8620      0.24774617
       2124.2446      0.27585622
       2124.6272      0.20617606
       2125.0098      0.21432141
       2125.3924      0.18300251
       2125.7750      0.16638719
       2126.1576      0.23152887
       2126.5402      0.20457914
       2126.9228      0.23725767
       2127.3054      0.26922184
       2127.6880      0.22138198
       2128.0706      0.20081378
       2128.4532      0.21163079
       2128.8358      0.22891316
       2129.2184      0.20995120
       2129.6010      0.24415298
       2129.9836      0.19533889
       2130.3662      0.21815968
       2130.7488      0.25562393
       2131.1314      0.27211639
       2131.5140      0.25463906
       2131.8966      0.27324362
       2132.2792      0.23989639
       2132.6618      0.22354803
       2133.0445      0.16342863
       2133.4271      0.19441898
       2133.8097      0.19587445
       2134.1923      0.22312594
       2134.5749      0.21829628
       2134.9575      0.27236362
       2135.3401      0.31404240
       2135.7227      0.24183862
       2136.1053      0.16917299
       2136.4879      0.17799933
       2136.8705      0.22303165
       2137.2531      0.22721194
       2137.6357      0.23471030
       2138.0183      0.26043604
       2138.4009      0.22874299
       2138.7835      0.24470081
       2139.1661      0.13377408
       2139.5487      0.17238602
       2139.9313      0.24166931
       2140.3139      0.22398872
       2140.6965      0.22927680
       2141.0791      0.21445904
       2141.4617      0.20648294
       2141.8443      0.18315953
       2142.2269      0.17915710
       2142.6096      0.25187108
       2142.9922      0.27669695
       2143.3748      0.21278580
       2143.7574      0.22591970
       2144.1400      0.27613846
       2144.5226      0.24164675
       2144.9052      0.21076643
       2145.2878      0.18280743
       2145.6704      0.19867133
       2146.0530      0.26060984
       2146.4356      0.27519743
       2146.8182      0.26897869
       2147.2008      0.24233470
       2147.5834      0.24795239
       2147.9660      0.21499375
       2148.3486      0.22690027
       2148.7312      0.21933778
       2149.1138      0.22837748
       2149.4964      0.23840707
       2149.8790      0.26150333
       2150.2616      0.25127070
       2150.6442      0.26225265
       2151.0268      0.28566463
       2151.4094      0.20286364
       2151.7920      0.18673067
       2152.1747      0.22969279
       2152.5573      0.26396522
       2152.9399      0.32385439
       2153.3225      0.30521112
       2153.7051      0.22886668
       2154.0877      0.20843266
       2154.4703      0.28273355
       2154.8529      0.21233137
       2155.2355      0.17577387
       2155.6181      0.22351680
       2156.0007      0.20656732
       2156.3833      0.25626908
       2156.7659      0.25259916
       2157.1485      0.24105026
       2157.5311      0.26967025
       2157.9137      0.18505809
       2158.2963      0.22327158
       2158.6789      0.18652388
       2159.0615      0.20024751
       2159.4441      0.24963182
       2159.8267      0.25046305
       2160.2093      0.26835336
       2160.5919      0.23369419
       2160.9745      0.23280097
       2161.3571      0.23853877
       2161.7398      0.23007982
       2162.1224      0.21423779
       2162.5050      0.24653377
       2162.8876      0.22831922
       2163.2702      0.25004162
       2163.6528      0.24674726
       2164.0354      0.25040705
       2164.4180      0.26713157
       2164.8006      0.25657389
       2165.1832      0.22101065
       2165.5658      0.23041239
       2165.9484      0.20982202
       2166.3310      0.23167703
       2166.7136      0.23131432
       2167.0962      0.23280332
       2167.4788      0.21290685
       2167.8614      0.20804883
       2168.2440      0.20733895
       2168.6266      0.21438020
       2169.0092      0.20266847
       2169.3918      0.17347628
       2169.7744      0.18904085
       2170.1570      0.18942965
       2170.5396      0.17584694
       2170.9222      0.19484234
       2171.3049      0.18589903
       2171.6875      0.19302061
       2172.0701      0.19518060
       2172.4527      0.20807653
       2172.8353      0.21902074
       2173.2179      0.20661673
       2173.6005      0.17779329
       2173.9831      0.16583131
       2174.3657      0.18919164
       2174.7483      0.22120923
       2175.1309      0.25131182
       2175.5135      0.25761257
       2175.8961      0.28478246
       2176.2787      0.27771281
       2176.6613      0.22359316
       2177.0439      0.23219786
       2177.4265      0.24065722
       2177.8091      0.25813856
       2178.1917      0.22016002
       2178.5743      0.20156868
       2178.9569      0.22931902
       2179.3395      0.21017774
       2179.7221      0.25100091
       2180.1047      0.24141625
       2180.4873      0.23993973
       2180.8699      0.25545252
       2181.2526      0.24362370
       2181.6352      0.21980400
       2182.0178      0.25775189
       2182.4004      0.24755847
       2182.7830      0.20313251
       2183.1656      0.22761127
       2183.5482      0.24114541
       2183.9308      0.18081764
       2184.3134      0.20693962
       2184.6960      0.27845425
       2185.0786      0.30514167
       2185.4612      0.22879193
       2185.8438      0.24108277
       2186.2264      0.28188822
       2186.6090      0.30085303
       2186.9916      0.28838097
       2187.3742      0.26548730
       2187.7568      0.26982297
       2188.1394      0.26581730
       2188.5220      0.26151603
       2188.9046      0.23323307
       2189.2872      0.22992044
       2189.6698      0.26997119
       2190.0524      0.29604112
       2190.4350      0.24485646
       2190.8177      0.24245946
       2191.2003      0.24052145
       2191.5829      0.24395867
       2191.9655      0.20044043
       2192.3481      0.25553451
       2192.7307      0.27439203
       2193.1133      0.28674928
       2193.4959      0.23675867
       2193.8785      0.24418854
       2194.2611      0.25088882
       2194.6437      0.26131296
       2195.0263      0.24242304
       2195.4089      0.14072430
       2195.7915      0.17453012
       2196.1741      0.22771583
       2196.5567      0.31527784
       2196.9393      0.29650211
       2197.3219      0.28208420
       2197.7045      0.35011263
       2198.0871      0.33450693
       2198.4697      0.27714101
       2198.8523      0.28005431
       2199.2349      0.25202028
       2199.6175      0.22639403
       2200.0001      0.22514643
       2200.3828      0.22386933
       2200.7654      0.19643037
       2201.1480      0.24133839
       2201.5306      0.26550651
       2201.9132      0.25725340
       2202.2958      0.28764886
       2202.6784      0.22548373
       2203.0610      0.27999844
       2203.4436      0.26375425
       2203.8262      0.22239305
       2204.2088      0.23971902
       2204.5914      0.19791185
       2204.9740      0.18800948
       2205.3566      0.25629959
       2205.7392      0.28886377
       2206.1218      0.24340217
       2206.5044      0.25225389
       2206.8870      0.23277805
       2207.2696      0.25383369
       2207.6522      0.28046848
       2208.0348      0.24336265
       2208.4174      0.24369433
       2208.8000      0.21886729
       2209.1826      0.15777077
       2209.5652      0.20894162
       2209.9479      0.20701955
       2210.3305      0.17847472
       2210.7131      0.22769447
       2211.0957      0.18721380
       2211.4783      0.16810539
       2211.8609      0.18710864
       2212.2435      0.22678677
       2212.6261      0.19939693
       2213.0087      0.17795378
       2213.3913      0.21637883
       2213.7739      0.26483459
       2214.1565      0.26142932
       2214.5391      0.27838829
       2214.9217      0.26203361
       2215.3043      0.25594913
       2215.6869      0.22357043
       2216.0695      0.22795455
       2216.4521      0.25727490
       2216.8347      0.27098376
       2217.2173      0.21999605
       2217.5999      0.22880690
       2217.9825      0.19321651
       2218.3651      0.24883129
       2218.7477      0.19246246
       2219.1303      0.25926344
       2219.5130      0.24519460
       2219.8956      0.20890487
       2220.2782      0.26155681
       2220.6608      0.24764151
       2221.0434      0.24148846
       2221.4260      0.22863101
       2221.8086      0.24410920
       2222.1912      0.25002718
       2222.5738      0.27258771
       2222.9564      0.28326276
       2223.3390      0.28639403
       2223.7216      0.24440451
       2224.1042      0.22930839
       2224.4868      0.27535475
       2224.8694      0.27504594
       2225.2520      0.25276679
       2225.6346      0.21662574
       2226.0172      0.21721364
       2226.3998      0.29347883
       2226.7824      0.30886009
       2227.1650      0.35537299
       2227.5476      0.26304864
       2227.9302      0.27097008
       2228.3128      0.22661358
       2228.6954      0.20090798
       2229.0781      0.25790594
       2229.4607      0.24743263
       2229.8433      0.25470096
       2230.2259      0.27632014
       2230.6085      0.23159182
       2230.9911      0.24821718
       2231.3737      0.27149874
       2231.7563      0.21888727
       2232.1389      0.19376470
       2232.5215      0.26391936
       2232.9041      0.27812569
       2233.2867      0.26610550
       2233.6693      0.20353065
       2234.0519      0.15934333
       2234.4345      0.27372681
       2234.8171      0.28569035
       2235.1997      0.26259290
       2235.5823      0.24009049
       2235.9649      0.23833898
       2236.3475      0.29699363
       2236.7301      0.28050814
       2237.1127      0.27014372
       2237.4953      0.28777165
       2237.8779      0.29980678
       2238.2605      0.27846308
       2238.6432      0.28914909
       2239.0258      0.25430879
       2239.4084      0.25649327
       2239.7910      0.24135967
       2240.1736      0.26359963
       2240.5562      0.24991017
       2240.9388      0.22871232
       2241.3214      0.23231779
       2241.7040      0.26597799
       2242.0866      0.29682734
       2242.4692      0.29314176
       2242.8518      0.22697378
       2243.2344      0.21578994
       2243.6170      0.21078530
       2243.9996      0.22688839
       2244.3822      0.18820928
       2244.7648      0.15727683
       2245.1474      0.19374742
       2245.5300      0.23103608
       2245.9126      0.20751102
       2246.2952      0.23823071
       2246.6778      0.22440604
       2247.0604      0.24842415
       2247.4430      0.22095840
       2247.8256      0.26479942
       2248.2082      0.28036950
       2248.5909      0.27822021
       2248.9735      0.21243960
       2249.3561      0.26307865
       2249.7387      0.21727569
       2250.1213      0.24392648
       2250.5039      0.26390626
       2250.8865      0.26448485
       2251.2691      0.27366424
       2251.6517      0.23976369
       2252.0343      0.24866021
       2252.4169      0.23528393
       2252.7995      0.28560163
       2253.1821      0.28806693
       2253.5647      0.28317189
       2253.9473      0.26086991
       2254.3299      0.25618305
       2254.7125      0.28255806
       2255.0951      0.28376159
       2255.4777      0.29259867
       2255.8603      0.33291623
       2256.2429      0.29628170
       2256.6255      0.28086485
       2257.0081      0.27008162
       2257.3907      0.25097128
       2257.7733      0.25344323
       2258.1560      0.22782466
       2258.5386      0.30500239
       2258.9212      0.32297088
       2259.3038      0.29345530
       2259.6864      0.30393763
       2260.0690      0.27830153
       2260.4516      0.24756990
       2260.8342      0.24760739
       2261.2168      0.23665282
       2261.5994      0.25943007
       2261.9820      0.21017034
       2262.3646      0.19065077
       2262.7472      0.23234765
       2263.1298      0.26311943
       2263.5124      0.28934597
       2263.8950      0.33575901
       2264.2776      0.29567364
       2264.6602      0.23227667
       2265.0428      0.21330158
       2265.4254      0.24828601
       2265.8080      0.30895668
       2266.1906      0.24776806
       2266.5732      0.19931829
       2266.9558      0.18532692
       2267.3384      0.24276702
       2267.7211      0.27172409
       2268.1037      0.22092936
       2268.4863      0.22153460
       2268.8689      0.23522751
       2269.2515      0.24932016
       2269.6341      0.23141598
       2270.0167      0.30935927
       2270.3993      0.28846318
       2270.7819      0.20595050
       2271.1645      0.23863881
       2271.5471      0.25006546
       2271.9297      0.26363287
       2272.3123      0.26728451
       2272.6949      0.23741604
       2273.0775      0.26588716
       2273.4601      0.23948414
       2273.8427      0.24652519
       2274.2253      0.23400725
       2274.6079      0.24930087
       2274.9905      0.29092195
       2275.3731      0.21186179
       2275.7557      0.20485619
       2276.1383      0.21765651
       2276.5209      0.24663031
       2276.9035      0.19658304
       2277.2862      0.26896811
       2277.6688      0.28658025
       2278.0514      0.37288830
       2278.4340      0.36664662
       2278.8166      0.28659067
       2279.1992      0.24656764
       2279.5818      0.25496276
       2279.9644      0.21533123
       2280.3470      0.19424246
       2280.7296      0.26051140
       2281.1122      0.25353481
       2281.4948      0.27069179
       2281.8774      0.25050554
       2282.2600      0.26235046
       2282.6426      0.24066654
       2283.0252      0.25688943
       2283.4078      0.21538475
       2283.7904      0.19846514
       2284.1730      0.25823908
       2284.5556      0.26317847
       2284.9382      0.24315678
       2285.3208      0.27558772
       2285.7034      0.25235244
       2286.0860      0.26653766
       2286.4686      0.26360845
       2286.8513      0.26071097
       2287.2339      0.27046617
       2287.6165      0.20544525
       2287.9991      0.22494685
       2288.3817      0.25082299
       2288.7643      0.24803787
       2289.1469      0.23786469
       2289.5295      0.24242709
       2289.9121      0.24829636
       2290.2947      0.26280922
       2290.6773      0.28765825
       2291.0599      0.26182291
       2291.4425      0.24673649
       2291.8251      0.23562961
       2292.2077      0.25062181
       2292.5903      0.25702416
       2292.9729      0.19490180
       2293.3555      0.26619434
       2293.7381      0.29320983
       2294.1207      0.26646010
       2294.5033      0.23315932
       2294.8859      0.25408718
       2295.2685      0.23227495
       2295.6511      0.20562659
       2296.0337      0.27751171
       2296.4164      0.26272515
       2296.7990      0.26727746
       2297.1816      0.28399530
       2297.5642      0.24038640
       2297.9468      0.21640219
       2298.3294      0.25588596
       2298.7120      0.28250572
       2299.0946      0.27342063
       2299.4772      0.27738459
       2299.8598      0.31787297
       2300.2424      0.25716582
       2300.6250      0.18106382
       2301.0076      0.21111123
       2301.3902      0.26340326
       2301.7728      0.26983630
       2302.1554      0.24539296
       2302.5380      0.26146872
       2302.9206      0.25061166
       2303.3032      0.23222838
       2303.6858      0.18631843
       2304.0684      0.22829730
       2304.4510      0.26895796
       2304.8336      0.25990043
       2305.2162      0.27859741
       2305.5988      0.26022425
       2305.9815      0.29290475
       2306.3641      0.27337172
       2306.7467      0.31186138
       2307.1293      0.26799126
       2307.5119      0.22174127
       2307.8945      0.22008872
       2308.2771      0.24928990
       2308.6597      0.28559256
       2309.0423      0.28815441
       2309.4249      0.28957812
       2309.8075      0.24466126
       2310.1901      0.30066218
       2310.5727      0.30823433
       2310.9553      0.30698094
       2311.3379      0.30055751
       2311.7205      0.26517579
       2312.1031      0.25889363
       2312.4857      0.28302883
       2312.8683      0.30736890
       2313.2509      0.28785765
       2313.6335      0.27414778
       2314.0161      0.30199292
       2314.3987      0.28242371
       2314.7813      0.25426230
       2315.1639      0.17737408
       2315.5465      0.27475884
       2315.9292      0.28170492
       2316.3118      0.23240878
       2316.6944      0.22162152
       2317.0770      0.20704955
       2317.4596      0.21468798
       2317.8422      0.27513492
       2318.2248      0.26118401
       2318.6074      0.24209547
       2318.9900      0.23065594
       2319.3726      0.24373259
       2319.7552      0.24913460
       2320.1378      0.22890128
       2320.5204      0.28712989
       2320.9030      0.28010491
       2321.2856      0.29469300
       2321.6682      0.22587069
       2322.0508      0.28025341
       2322.4334      0.21762234
       2322.8160      0.24330183
       2323.1986      0.28720710
       2323.5812      0.21920239
       2323.9638      0.24317791
       2324.3464      0.24240368
       2324.7290      0.26838672
       2325.1116      0.24929899
       2325.4943      0.22465097
       2325.8769      0.27245770
       2326.2595      0.23902749
       2326.6421      0.27058105
       2327.0247      0.24592084
       2327.4073      0.17953062
       2327.7899      0.20698475
       2328.1725      0.22751732
       2328.5551      0.17425224
       2328.9377      0.21811053
       2329.3203      0.11850025
       2329.7029      0.10343218
       2330.0855      0.10861759
       2330.4681      0.12479095
       2330.8507      0.20111652
       2331.2333      0.13575464
       2331.6159      0.11739126
       2331.9985      0.23851331
       2332.3811      0.37424545
       2332.7637      0.21418017
       2333.1463      0.15264846
       2333.5289      0.20373228
       2333.9115      0.16205526
       2334.2941      0.26872050
       2334.6767      0.24440897
       2335.0594      0.32102486
       2335.4420      0.22160532
       2335.8246      0.22773214
       2336.2072      0.31049403
       2336.5898      0.31370407
       2336.9724      0.25633893
       2337.3550      0.28534002
       2337.7376      0.26790285
       2338.1202      0.27035105
       2338.5028      0.29358296
       2338.8854      0.25260882
       2339.2680      0.21605303
       2339.6506      0.20800681
       2340.0332      0.27365485
       2340.4158      0.24180348
       2340.7984      0.24311247
       2341.1810      0.23367354
       2341.5636      0.19197985
       2341.9462      0.18001402
       2342.3288      0.21805258
       2342.7114      0.22517077
       2343.0940      0.20447200
       2343.4766      0.24287379
       2343.8592      0.28036935
       2344.2418      0.41708461
       2344.6245      0.23336699
       2345.0071      0.25270780
       2345.3897      0.27166021
       2345.7723      0.18585914
       2346.1549      0.20721912
       2346.5375      0.23632679
       2346.9201      0.29173422
       2347.3027      0.27029053
       2347.6853      0.27784041
       2348.0679      0.26122003
       2348.4505      0.26162131
       2348.8331      0.30529262
       2349.2157      0.24412251
       2349.5983      0.26095828
       2349.9809      0.30054858
       2350.3635      0.23211396
       2350.7461      0.28677589
       2351.1287      0.25044114
       2351.5113      0.25999209
       2351.8939      0.25221286
       2352.2765      0.25405841
       2352.6591      0.25261575
       2353.0417      0.31505547
       2353.4243      0.26565328
       2353.8069      0.28401160
       2354.1896      0.33420097
       2354.5722      0.19178887
       2354.9548      0.17855776
       2355.3374      0.19627056
       2355.7200      0.25972052
       2356.1026      0.39280834
       2356.4852      0.30870624
       2356.8678      0.31056793
       2357.2504      0.34602812
       2357.6330      0.31039079
       2358.0156      0.20280585
       2358.3982      0.28461499
       2358.7808      0.24560539
       2359.1634      0.24705217
       2359.5460      0.26609339
       2359.9286      0.27960931
       2360.3112      0.27953175
       2360.6938      0.20446397
       2361.0764      0.22367687
       2361.4590      0.18664558
       2361.8416      0.21120018
       2362.2242      0.23302593
       2362.6068      0.17419015
       2362.9894      0.16198388
       2363.3720      0.19905474
       2363.7547      0.30933521
       2364.1373      0.22455825
       2364.5199      0.24872431
       2364.9025      0.33412893
       2365.2851      0.24538576
       2365.6677      0.14539287
       2366.0503      0.17862806
       2366.4329      0.21459252
       2366.8155      0.25082781
       2367.1981      0.23325429
       2367.5807      0.17203800
       2367.9633      0.28291463
       2368.3459      0.29554452
       2368.7285      0.22306460
       2369.1111      0.16617993
       2369.4937      0.22424364
       2369.8763      0.23470741
       2370.2589      0.23467645
       2370.6415      0.19506470
       2371.0241      0.19104332
       2371.4067      0.20466693
       2371.7893      0.21224440
       2372.1719      0.23499666
       2372.5545      0.21996662
       2372.9371      0.24136074
       2373.3198      0.34517293
       2373.7024      0.38977128
       2374.0850      0.36892389
       2374.4676      0.44547691
       2374.8502      0.48912145
       2375.2328      0.32440069
       2375.6154      0.39775428
       2375.9980      0.28944784
       2376.3806      0.26337997
       2376.7632      0.24775148
       2377.1458      0.26823119
       2377.5284      0.25418837
       2377.9110      0.20709787
       2378.2936      0.17235256
       2378.6762      0.18235190
       2379.0588      0.23643077
       2379.4414      0.28461735
       2379.8240      0.24654388
       2380.2066      0.26483688
       2380.5892      0.27704132
       2380.9718      0.21664092
       2381.3544      0.25529780
       2381.7370      0.30465836
       2382.1196      0.24237224
       2382.5022      0.31755454
       2382.8848      0.30074841
       2383.2675      0.24380046
       2383.6501      0.20329564
       2384.0327      0.19510376
       2384.4153      0.21229012
       2384.7979      0.12311855
       2385.1805      0.21915848
       2385.5631      0.28817222
       2385.9457      0.22821531
       2386.3283      0.28921456
       2386.7109      0.35064001
       2387.0935      0.30933694
       2387.4761      0.24511667
       2387.8587      0.28984854
       2388.2413      0.21685312
       2388.6239      0.28973711
       2389.0065      0.31475905
       2389.3891      0.29561885
       2389.7717      0.25986047
       2390.1543      0.22669205
       2390.5369      0.24776929
       2390.9195      0.23530923
       2391.3021      0.24022492
       2391.6847      0.25270411
       2392.0673      0.23514409
       2392.4499      0.20846494
       2392.8326      0.25428501
       2393.2152      0.17767978
       2393.5978      0.18317283
       2393.9804      0.24708035
       2394.3630      0.33560996
       2394.7456      0.27957288
       2395.1282      0.26656439
       2395.5108      0.24476335
       2395.8934      0.19813845
       2396.2760      0.34365999
       2396.6586      0.30278171
       2397.0412      0.34741290
       2397.4238      0.23940829
       2397.8064      0.22270452
       2398.1890      0.30021245
       2398.5716      0.23901131
       2398.9542      0.17887396
       2399.3368      0.22615890
       2399.7194      0.28973530
       2400.1020      0.25312506
       2400.4846      0.20837565
       2400.8672      0.22433122
       2401.2498      0.22208066
       2401.6324      0.16701694
       2402.0150      0.22896835
       2402.3977      0.25686931
       2402.7803      0.21157306
       2403.1629      0.27868860
       2403.5455      0.28262938
       2403.9281      0.23419277
       2404.3107      0.31092108
       2404.6933      0.28558571
       2405.0759      0.30125183
       2405.4585      0.23973963
       2405.8411      0.23081411
       2406.2237      0.24760241
       2406.6063      0.20276340
       2406.9889      0.34060800
       2407.3715      0.31516726
       2407.7541      0.26608875
       2408.1367      0.24622830
       2408.5193      0.27095816
       2408.9019      0.28898693
       2409.2845      0.23217882
       2409.6671      0.23155478
       2410.0497      0.32811086
       2410.4323      0.32127986
       2410.8149      0.27350489
       2411.1975      0.30503656
       2411.5801      0.26850959
       2411.9628      0.23755916
       2412.3454      0.28196578
       2412.7280      0.32484205
       2413.1106      0.23509250
       2413.4932      0.27093397
       2413.8758      0.28480369
       2414.2584      0.19486623
       2414.6410      0.27252124
       2415.0236      0.30947537
       2415.4062      0.27049979
       2415.7888      0.24553632
       2416.1714      0.26126709
       2416.5540      0.28085947
       2416.9366      0.24388575
       2417.3192      0.26063267
       2417.7018      0.26870290
       2418.0844      0.18985913
       2418.4670      0.25107719
       2418.8496      0.31043220
       2419.2322      0.36865697
       2419.6148      0.33208339
       2419.9974      0.22285521
       2420.3800      0.20690598
       2420.7626      0.26139588
       2421.1452      0.29684154
       2421.5279      0.29554829
       2421.9105      0.28841393
       2422.2931      0.22474581
       2422.6757      0.20356984
       2423.0583      0.25795412
       2423.4409      0.27743380
       2423.8235      0.34585120
       2424.2061      0.21467752
       2424.5887      0.33766338
       2424.9713      0.36526450
       2425.3539      0.39868399
       2425.7365      0.33128749
       2426.1191      0.28034387
       2426.5017      0.25574228
       2426.8843      0.29927497
       2427.2669      0.33796219
       2427.6495      0.25878411
       2428.0321      0.28996885
       2428.4147      0.29498295
       2428.7973      0.26634892
       2429.1799      0.29446062
       2429.5625      0.33088018
       2429.9451      0.28803771
       2430.3277      0.21417440
       2430.7103      0.25142862
       2431.0930      0.26848828
       2431.4756      0.26780733
       2431.8582      0.29642003
       2432.2408      0.18565976
       2432.6234      0.26979413
       2433.0060      0.29765454
       2433.3886      0.25158431
       2433.7712      0.23343831
       2434.1538      0.25695849
       2434.5364      0.28761767
       2434.9190      0.27458728
       2435.3016      0.33556227
       2435.6842      0.30838061
       2436.0668      0.33453621
       2436.4494      0.26243934
       2436.8320      0.28502625
       2437.2146      0.32741897
       2437.5972      0.28784217
       2437.9798      0.29020074
       2438.3624      0.26729145
       2438.7450      0.27982404
       2439.1276      0.37340640
       2439.5102      0.27167149
       2439.8928      0.26052652
       2440.2754      0.28836609
       2440.6581      0.36238232
       2441.0407      0.27019458
       2441.4233      0.22780268
       2441.8059      0.28094705
       2442.1885      0.28753168
       2442.5711      0.28223679
       2442.9537      0.23476182
       2443.3363      0.23898998
       2443.7189      0.30010007
       2444.1015      0.26697800
       2444.4841      0.20465749
       2444.8667      0.26613584
       2445.2493      0.33391226
       2445.6319      0.29648525
       2446.0145      0.29850679
       2446.3971      0.27707641
       2446.7797      0.19166376
       2447.1623      0.15822622
       2447.5449      0.22333910
       2447.9275      0.22210850
       2448.3101      0.18543457
       2448.6927     0.071839254
       2449.0753             NaN
       2449.4579             NaN
       2449.8405             NaN
       2450.2231             NaN
       2450.6058             NaN
       2450.9884             NaN
       2451.3710             NaN
       2451.7536             NaN
       2452.1362             NaN
       2452.5188             NaN
       2452.9014             NaN
       2453.2840             NaN
       2453.6666             NaN
       2454.0492             NaN
       2454.4318             NaN
       2454.8144             NaN
       2455.1970             NaN
       2455.5796             NaN
       2455.9622             NaN
       2456.3448             NaN
       2456.7274             NaN
       2457.1100             NaN
       2457.4926             NaN
       2457.8752             NaN
       2458.2578             NaN
       2458.6404             NaN
       2459.0230             NaN
       2459.4056             NaN
       2459.7882             NaN
       2460.1709             NaN
       2460.5535             NaN
       2460.9361             NaN
       2461.3187             NaN
       2461.7013             NaN
       2462.0839             NaN
       2462.4665             NaN
       2462.8491             NaN
       2463.2317             NaN
       2463.6143             NaN
       2463.9969             NaN
       2464.3795             NaN
       2464.7621             NaN
       2465.1447             NaN
       2465.5273             NaN
       2465.9099             NaN
       2466.2925             NaN
       2466.6751             NaN
       2467.0577             NaN
       2467.4403             NaN
       2467.8229             NaN
       2468.2055             NaN
       2468.5881             NaN
       2468.9707             NaN
       2469.3533             NaN
       2469.7360             NaN
       2470.1186             NaN
       2470.5012             NaN
       2470.8838             NaN
       2471.2664             NaN
       2471.6490             NaN
       2472.0316             NaN
       2472.4142             NaN
       2472.7968             NaN
       2473.1794             NaN
       2473.5620             NaN
       2473.9446             NaN
       2474.3272             NaN
       2474.7098             NaN
       2475.0924             NaN
       2475.4750             NaN
       2475.8576             NaN
       2476.2402             NaN
       2476.6228             NaN
       2477.0054             NaN
       2477.3880             NaN
       2477.7706             NaN
       2478.1532             NaN
       2478.5358             NaN
       2478.9184             NaN
       2479.3011             NaN
       2479.6837             NaN
       2480.0663             NaN
       2480.4489             NaN
       2480.8315             NaN
       2481.2141             NaN
       2481.5967             NaN
       2481.9793             NaN
       2482.3619             NaN
       2482.7445             NaN
       2483.1271      0.26280731
       2483.5097      0.22047488
       2483.8923      0.19711700
       2484.2749      0.16926526
       2484.6575      0.22742865
       2485.0401      0.21146590
       2485.4227      0.19547063
       2485.8053      0.17736139
       2486.1879      0.29551541
       2486.5705      0.46684189
       2486.9531      0.32208316
       2487.3357      0.38957522
       2487.7183      0.39858540
       2488.1009      0.26439324
       2488.4835      0.22106491
       2488.8662      0.23084252
       2489.2488      0.29654064
       2489.6314      0.28138045
       2490.0140      0.31563819
       2490.3966      0.26408259
       2490.7792      0.34656509
       2491.1618      0.34597586
       2491.5444      0.26471910
       2491.9270      0.18376486
       2492.3096      0.23257708
       2492.6922      0.28956630
       2493.0748      0.33160800
       2493.4574      0.32173617
       2493.8400      0.21225776
       2494.2226      0.22616053
       2494.6052      0.26565495
       2494.9878      0.27388839
       2495.3704      0.27033159
       2495.7530      0.21935100
       2496.1356      0.17178043
       2496.5182      0.29949811
       2496.9008      0.26591598
       2497.2834      0.25741065
       2497.6660      0.25199107
       2498.0486      0.26807295
       2498.4313      0.33869471
       2498.8139      0.49451475
       2499.1965      0.25875877
       2499.5791      0.19871466
       2499.9617      0.17953192
       2500.3443      0.21320994
       2500.7269      0.19532836
       2501.1095      0.33293138
       2501.4921      0.28705589
       2501.8747      0.25958395
       2502.2573      0.27428410
       2502.6399      0.25572568
       2503.0225      0.27016138
       2503.4051      0.25275113
       2503.7877      0.24728144
       2504.1703      0.26870747
       2504.5529      0.22208470
       2504.9355      0.21292832
       2505.3181      0.26797226
       2505.7007      0.28441231
       2506.0833      0.23075898
       2506.4659      0.19465451
       2506.8485      0.18470167
       2507.2311      0.20492251
       2507.6137      0.26431985
       2507.9964      0.32621280
       2508.3790      0.25374049
       2508.7616      0.28749746
       2509.1442      0.24327507
       2509.5268      0.27504287
       2509.9094      0.25639193
       2510.2920      0.22490691
       2510.6746      0.27063004
       2511.0572      0.33234972
       2511.4398      0.27596533
       2511.8224      0.29706651
       2512.2050      0.28337905
       2512.5876      0.31735650
       2512.9702      0.24768825
       2513.3528      0.24928251
       2513.7354      0.23592701
       2514.1180      0.24282472
       2514.5006      0.29991137
       2514.8832      0.18805350
       2515.2658      0.26427491
       2515.6484      0.18895788
       2516.0310      0.31470997
       2516.4136      0.25318288
       2516.7962      0.15108866
       2517.1788      0.27523925
       2517.5614      0.22561070
       2517.9441      0.26419949
       2518.3267      0.22604393
       2518.7093      0.25312387
       2519.0919      0.20362635
       2519.4745      0.18071648
       2519.8571      0.27986025
       2520.2397      0.23609428
       2520.6223     0.096513525
       2521.0049      0.33406903
       2521.3875      0.23656481
       2521.7701      0.46238541
       2522.1527      0.31287563
       2522.5353      0.27914658
       2522.9179      0.30435373
       2523.3005      0.23666444
       2523.6831      0.36701860
       2524.0657      0.29407369
       2524.4483      0.24068165
       2524.8309      0.23629470
       2525.2135      0.22749810
       2525.5961      0.21176776
       2525.9787      0.28431311
       2526.3613      0.22096926
       2526.7439      0.21281268
       2527.1265      0.16974994
       2527.5092      0.24451958
       2527.8918      0.40064312
       2528.2744      0.40832782
       2528.6570      0.31041771
       2529.0396      0.25878131
       2529.4222      0.19960261
       2529.8048      0.17662141
       2530.1874      0.13288624
       2530.5700      0.40256164
       2530.9526      0.21813318
       2531.3352      0.31193317
       2531.7178      0.40368874
       2532.1004      0.38820984
       2532.4830      0.25737570
       2532.8656      0.24271681
       2533.2482      0.27402974
       2533.6308      0.28261038
       2534.0134      0.23546372
       2534.3960      0.18584118
       2534.7786      0.25772175
       2535.1612      0.15802052
       2535.5438      0.29888422
       2535.9264      0.29018077
       2536.3090      0.37886126
       2536.6916      0.34879452
       2537.0743      0.33339943
       2537.4569      0.32506741
       2537.8395      0.27148918
       2538.2221      0.29168967
       2538.6047      0.32581858
       2538.9873      0.29546992
       2539.3699      0.28138688
       2539.7525      0.21857758
       2540.1351      0.14749674
       2540.5177      0.18225161
       2540.9003      0.26180478
       2541.2829      0.19980547
       2541.6655      0.20210204
       2542.0481      0.28483984
       2542.4307      0.25460271
       2542.8133      0.26496914
       2543.1959      0.18628425
       2543.5785      0.36120618
       2543.9611      0.37107487
       2544.3437      0.34751533
       2544.7263      0.25275540
       2545.1089      0.20406277
       2545.4915      0.21051856
       2545.8741      0.38517249
       2546.2567      0.31032106
       2546.6394      0.27575970
       2547.0220      0.31613434
       2547.4046      0.29870467
       2547.7872      0.24655825
       2548.1698      0.28012042
       2548.5524      0.22243240
       2548.9350      0.13612293
       2549.3176     0.089876723
       2549.7002      0.11856106
       2550.0828      0.34987769
       2550.4654      0.30999356
       2550.8480      0.15544825
       2551.2306      0.41275636
       2551.6132      0.39707636
       2551.9958      0.50976034
       2552.3784      0.32519218
       2552.7610      0.22671961
       2553.1436      0.34582627
       2553.5262      0.29677572
       2553.9088      0.23649540
       2554.2914      0.23620170
       2554.6740      0.36953874
       2555.0566      0.21581444
       2555.4392      0.29044791
       2555.8218      0.35998563
       2556.2045      0.30848139
       2556.5871      0.14438480
       2556.9697      0.15180962
       2557.3523      0.27028318
       2557.7349      0.28192443
       2558.1175      0.27150295
       2558.5001      0.17717776
       2558.8827      0.21650481
       2559.2653      0.29259874
       2559.6479      0.25797864
       2560.0305      0.19278232
       2560.4131      0.18487815
       2560.7957      0.20836677
       2561.1783      0.29431280
       2561.5609      0.21071609
       2561.9435      0.30549095
       2562.3261      0.31376903
       2562.7087      0.29427515
       2563.0913      0.33574013
       2563.4739      0.33826720
       2563.8565      0.24817912
       2564.2391      0.25495451
       2564.6217      0.22449616
       2565.0043      0.19286879
       2565.3869      0.30708138
       2565.7696      0.13191336
       2566.1522      0.24330232
       2566.5348      0.39813196
       2566.9174     0.093258147
       2567.3000      0.16094066
       2567.6826      0.36027086
       2568.0652      0.45401485
       2568.4478      0.33365300
       2568.8304      0.24114886
       2569.2130      0.36648190
       2569.5956      0.30622801
       2569.9782      0.25629973
       2570.3608      0.19690475
       2570.7434      0.14313107
       2571.1260      0.22164029
       2571.5086      0.13731850
       2571.8912      0.29952846
       2572.2738      0.20178257
       2572.6564      0.25559435
       2573.0390      0.16808081
       2573.4216      0.28759950
       2573.8042      0.29876924
       2574.1868      0.12069805
       2574.5694      0.12787714
       2574.9520     0.067003858
       2575.3347     0.066465239
       2575.7173      0.21296065
       2576.0999      0.12960494
       2576.4825      0.15513059
       2576.8651      0.17189627
       2577.2477      0.35687352
       2577.6303      0.35450276
       2578.0129      0.35023060
       2578.3955      0.28125811
       2578.7781      0.24283880
       2579.1607      0.22814795
       2579.5433      0.18019623
       2579.9259      0.26811664
       2580.3085      0.23474824
       2580.6911      0.18133446
       2581.0737      0.23690936
       2581.4563      0.17781417
       2581.8389      0.14601804
       2582.2215      0.28127417
       2582.6041      0.30707461
       2582.9867      0.32310980
       2583.3693      0.11045162
       2583.7519      0.30142949
       2584.1345      0.32825906
       2584.5171      0.21110624
       2584.8997      0.21557378
       2585.2824      0.12056640
       2585.6650      0.13090137
       2586.0476      0.14244674
       2586.4302      0.10237568
       2586.8128      0.19072940
       2587.1954      0.23045410
       2587.5780     0.080074563
       2587.9606      0.34905268
       2588.3432      0.34986175
       2588.7258      0.19749016
       2589.1084      0.31828757
       2589.4910      0.25761019
       2589.8736      0.24487069
       2590.2562      0.27928564
       2590.6388      0.22833635
       2591.0214      0.27048895
       2591.4040      0.29650354
       2591.7866      0.26139163
       2592.1692      0.22947608
       2592.5518      0.17688853
       2592.9344      0.27497118
       2593.3170      0.26792622
       2593.6996      0.27451369
       2594.0822      0.31306881
       2594.4648      0.30827160
       2594.8475      0.21081644
       2595.2301      0.33536108
       2595.6127      0.25988574
       2595.9953      0.31317763
       2596.3779      0.32466843
       2596.7605      0.27705734
       2597.1431      0.26113314
       2597.5257      0.26464852
       2597.9083      0.23344034
       2598.2909      0.34769172
       2598.6735      0.24409182
       2599.0561      0.24635516
       2599.4387      0.32282118
       2599.8213      0.37892918
       2600.2039      0.15138027
       2600.5865      0.28531423
       2600.9691      0.28348481
       2601.3517      0.22456682
       2601.7343      0.23262907
       2602.1169      0.22224209
       2602.4995      0.15552737
       2602.8821      0.27122513
       2603.2647      0.24093741
       2603.6473      0.35580114
       2604.0299      0.28007188
       2604.4126      0.29251826
       2604.7952      0.33388501
       2605.1778      0.19179819
       2605.5604      0.29880367
       2605.9430      0.29386292
       2606.3256      0.26087181
       2606.7082      0.33858131
       2607.0908      0.31520042
       2607.4734      0.26806098
       2607.8560      0.23921147
       2608.2386      0.24774856
       2608.6212      0.24737549
       2609.0038      0.21848718
       2609.3864      0.17956359
       2609.7690      0.27437835
       2610.1516      0.18008012
       2610.5342      0.32233828
       2610.9168      0.25049817
       2611.2994      0.33735251
       2611.6820      0.36278049
       2612.0646      0.18495949
       2612.4472      0.38343315
       2612.8298      0.34669392
       2613.2124      0.38664931
       2613.5950      0.29612819
       2613.9777      0.33687376
       2614.3603      0.29427554
       2614.7429      0.32714725
       2615.1255      0.28937310
       2615.5081      0.20044377
       2615.8907      0.24735826
       2616.2733      0.21394118
       2616.6559      0.22075364
       2617.0385      0.24662688
       2617.4211      0.14647218
       2617.8037      0.30331516
       2618.1863      0.18612314
       2618.5689      0.20741353
       2618.9515      0.25414093
       2619.3341      0.25127976
       2619.7167      0.19612937
       2620.0993      0.21252718
       2620.4819      0.23179154
       2620.8645      0.18499861
       2621.2471      0.23039480
       2621.6297      0.17039067
       2622.0123      0.23327154
       2622.3949      0.17193419
       2622.7775      0.22655454
       2623.1601      0.20498084
       2623.5428      0.21645414
       2623.9254      0.20110065
       2624.3080      0.16678369
       2624.6906      0.27365729
       2625.0732      0.19096399
       2625.4558      0.17688533
       2625.8384      0.16576662
       2626.2210      0.20304204
       2626.6036      0.21604693
       2626.9862      0.16108863
       2627.3688      0.16103340
       2627.7514      0.21939764
       2628.1340      0.19025560
       2628.5166      0.19871084
       2628.8992      0.28452834
       2629.2818      0.15244619
       2629.6644      0.28197872
       2630.0470      0.29403298
       2630.4296      0.20400284
       2630.8122      0.33390853
       2631.1948      0.25344330
       2631.5774      0.26391487
       2631.9600      0.29237972
       2632.3426      0.26561596
       2632.7252      0.19973125
       2633.1079      0.22191445
       2633.4905      0.26153418
       2633.8731      0.26155179
       2634.2557      0.20934888
       2634.6383      0.21895294
       2635.0209      0.21665145
       2635.4035      0.21882978
       2635.7861      0.28729349
       2636.1687      0.21260950
       2636.5513      0.19776394
       2636.9339      0.29877088
       2637.3165      0.17681020
       2637.6991      0.31303047
       2638.0817      0.26433464
       2638.4643      0.24560161
       2638.8469      0.22572793
       2639.2295      0.16078659
       2639.6121      0.19714318
       2639.9947      0.16832695
       2640.3773      0.22941537
       2640.7599      0.30334608
       2641.1425      0.24778326
       2641.5251      0.16568734
       2641.9077      0.20182756
       2642.2903      0.28392330
       2642.6730      0.12929655
       2643.0556      0.22994444
       2643.4382      0.26646705
       2643.8208      0.19509845
       2644.2034      0.16996506
       2644.5860      0.30242186
       2644.9686      0.26078557
       2645.3512      0.29313841
       2645.7338      0.22465360
       2646.1164      0.23794682
       2646.4990      0.17039229
       2646.8816      0.21405669
       2647.2642      0.23617665
       2647.6468      0.25847164
       2648.0294      0.18577667
       2648.4120      0.32592886
       2648.7946      0.20710099
       2649.1772      0.12243200
       2649.5598      0.16730998
       2649.9424      0.28614340
       2650.3250      0.25168480
       2650.7076      0.26953926
       2651.0902      0.16810688
       2651.4728      0.19035524
       2651.8554      0.25847263
       2652.2380      0.19496660
       2652.6207      0.19212979
       2653.0033      0.16271983
       2653.3859      0.26284175
       2653.7685      0.25989120
       2654.1511      0.16703997
       2654.5337      0.17843865
       2654.9163      0.18336098
       2655.2989      0.28696425
       2655.6815      0.13558880
       2656.0641      0.17674917
       2656.4467      0.27041329
       2656.8293      0.22652130
       2657.2119      0.23189149
       2657.5945      0.16044019
       2657.9771      0.16830739
       2658.3597      0.19250764
       2658.7423      0.20277777
       2659.1249      0.16987951
       2659.5075      0.16068185
       2659.8901      0.20624985
       2660.2727      0.28082221
       2660.6553      0.24046582
       2661.0379      0.25552657
       2661.4205      0.23111773
       2661.8031      0.27026533
       2662.1858      0.24009207
       2662.5684      0.16226033
       2662.9510      0.22668131
       2663.3336      0.27011723
       2663.7162      0.25785103
       2664.0988      0.28196132
       2664.4814      0.25148336
       2664.8640      0.22973153
       2665.2466      0.26815571
       2665.6292      0.19783719
       2666.0118      0.26476724
       2666.3944      0.16938222
       2666.7770      0.31528739
       2667.1596      0.28244525
       2667.5422      0.24347821
       2667.9248      0.28897600
       2668.3074     0.096159655
       2668.6900      0.14490904
       2669.0726      0.31345480
       2669.4552      0.11318144
       2669.8378     0.096779333
       2670.2204      0.10146546
       2670.6030      0.14441900
       2670.9856      0.21149867
       2671.3682      0.35725378
       2671.7509     0.071688237
       2672.1335      0.32473522
       2672.5161      0.31120817
       2672.8987      0.30558568
       2673.2813      0.14850340
       2673.6639     0.077992583
       2674.0465      0.17378829
       2674.4291      0.29409169
       2674.8117      0.45118856
       2675.1943      0.60186771
       2675.5769      0.39190131
       2675.9595      0.48199288
       2676.3421      0.36552578
       2676.7247      0.36523210
       2677.1073      0.27959290
       2677.4899      0.26216502
       2677.8725      0.34493611
       2678.2551      0.25554556
       2678.6377      0.28027234
       2679.0203      0.24153753
       2679.4029      0.39703232
       2679.7855      0.34722293
       2680.1681      0.30622903
       2680.5507      0.23091919
       2680.9333      0.20450739
       2681.3160      0.22506144
       2681.6986      0.21877841
       2682.0812      0.26572567
       2682.4638      0.19882684
       2682.8464      0.19566907
       2683.2290      0.29460847
       2683.6116      0.24941539
       2683.9942      0.21188471
       2684.3768      0.24274964
       2684.7594      0.24042369
       2685.1420      0.23318201
       2685.5246      0.21709384
       2685.9072      0.15511757
       2686.2898      0.26501391
       2686.6724      0.36387237
       2687.0550      0.25209960
       2687.4376      0.17018743
       2687.8202      0.21799034
       2688.2028     0.041401265
       2688.5854     0.099286229
       2688.9680      0.34978678
       2689.3506      0.12143141
       2689.7332      0.50542896
       2690.1158      0.54391263
       2690.4984      0.49538944
       2690.8811      0.31555630
       2691.2637      0.27131977
       2691.6463      0.32358086
       2692.0289      0.26249525
       2692.4115      0.30093606
       2692.7941     0.087253891
       2693.1767      0.20269782
       2693.5593      0.23706891
       2693.9419      0.21425767
       2694.3245      0.17235476
       2694.7071      0.17300339
       2695.0897      0.23544309
       2695.4723      0.27819769
       2695.8549      0.21396966
       2696.2375      0.11592191
       2696.6201      0.26484771
       2697.0027      0.22706696
       2697.3853      0.32586859
       2697.7679      0.21349217
       2698.1505      0.28494130
       2698.5331      0.24411579
       2698.9157      0.18418170
       2699.2983      0.29433680
       2699.6809      0.18262143
       2700.0635      0.26015871
       2700.4462      0.16803677
       2700.8288      0.22654877
       2701.2114      0.18841005
       2701.5940      0.21103016
       2701.9766      0.18229338
       2702.3592      0.29234859
       2702.7418      0.45265059
       2703.1244      0.28494551
       2703.5070      0.32898788
       2703.8896      0.13010401
       2704.2722      0.21247195
       2704.6548      0.22000164
       2705.0374      0.20130000
       2705.4200      0.22549181
       2705.8026      0.20380082
       2706.1852     0.024424147
       2706.5678      0.20072388
       2706.9504      0.12493329
       2707.3330      0.13157628
       2707.7156      0.41362013
       2708.0982      0.28643109
       2708.4808      0.37848542
       2708.8634      0.24558079
       2709.2460      0.19822484
       2709.6286      0.33898087
       2710.0113      0.24436655
       2710.3939      0.20418594
       2710.7765      0.29980548
       2711.1591      0.15219203
       2711.5417      0.22154352
       2711.9243      0.24096570
       2712.3069      0.18186145
       2712.6895      0.30006196
       2713.0721      0.13697442
       2713.4547      0.26502728
       2713.8373      0.33102684
       2714.2199      0.26611229
       2714.6025      0.16844079
       2714.9851      0.18328154
       2715.3677      0.24169659
       2715.7503      0.13741672
       2716.1329      0.29959190
       2716.5155      0.29966260
       2716.8981      0.13607253
       2717.2807      0.16255019
       2717.6633      0.32503461
       2718.0459      0.38095893
       2718.4285      0.41887581
       2718.8111      0.35886418
       2719.1937      0.28061969
       2719.5763      0.22131753
       2719.9590      0.25856207
       2720.3416      0.27391318
       2720.7242      0.21154147
       2721.1068      0.27338715
       2721.4894      0.26589498
       2721.8720      0.22271866
       2722.2546      0.22419790
       2722.6372      0.25517411
       2723.0198      0.25946093
       2723.4024      0.18074862
       2723.7850      0.29736449
       2724.1676      0.32424772
       2724.5502      0.23565459
       2724.9328      0.33359510
       2725.3154      0.34757654
       2725.6980      0.25515607
       2726.0806      0.32041721
       2726.4632      0.26239732
       2726.8458      0.22257651
       2727.2284      0.12398718
       2727.6110      0.22912611
       2727.9936      0.20114807
       2728.3762      0.41275158
       2728.7588      0.40131165
       2729.1414      0.38014933
       2729.5241      0.28981067
       2729.9067      0.38288333
       2730.2893      0.23390086
       2730.6719      0.27327384
       2731.0545      0.23495500
       2731.4371      0.31613307
       2731.8197      0.26459656
       2732.2023      0.22608436
       2732.5849      0.25001342
       2732.9675      0.27439096
       2733.3501      0.18605702
       2733.7327      0.27961858
       2734.1153      0.19253016
       2734.4979      0.18989015
       2734.8805      0.28236052
       2735.2631      0.25589359
       2735.6457      0.24111012
       2736.0283      0.22850564
       2736.4109      0.19751958
       2736.7935      0.22622182
       2737.1761      0.17668747
       2737.5587      0.11376457
       2737.9413      0.17946874
       2738.3239      0.23503029
       2738.7065      0.24580624
       2739.0892      0.26079725
       2739.4718      0.21580183
       2739.8544      0.22509066
       2740.2370      0.11999395
       2740.6196      0.29517377
       2741.0022      0.15401911
       2741.3848      0.32100439
       2741.7674      0.35730423
       2742.1500      0.50608061
       2742.5326      0.24191815
       2742.9152      0.45657430
       2743.2978      0.18954216
       2743.6804      0.22307936
       2744.0630      0.31828385
       2744.4456      0.35266892
       2744.8282      0.27755143
       2745.2108      0.26656122
       2745.5934      0.27055540
       2745.9760      0.24332657
       2746.3586      0.30181371
       2746.7412      0.28317824
       2747.1238      0.30724281
       2747.5064      0.25213367
       2747.8890      0.21148181
       2748.2716      0.27707122
       2748.6543      0.16489557
       2749.0369     -0.12327048
       2749.4195      0.12790144
       2749.8021      0.11629319
       2750.1847      0.20585273
       2750.5673      0.16028832
       2750.9499      0.21672789
       2751.3325      0.28818872
       2751.7151      0.23423002
       2752.0977      0.19815596
       2752.4803      0.27339713
       2752.8629      0.18786125
       2753.2455      0.28842804
       2753.6281      0.16916921
       2754.0107      0.23796981
       2754.3933      0.26055807
       2754.7759      0.24118921
       2755.1585      0.21076622
       2755.5411      0.21394031
       2755.9237      0.21089813
       2756.3063      0.19669686
       2756.6889      0.29416743
       2757.0715      0.21661066
       2757.4541      0.24729553
       2757.8367      0.22664698
       2758.2194      0.23104678
       2758.6020      0.25691680
       2758.9846      0.29077187
       2759.3672      0.28575316
       2759.7498      0.25448626
       2760.1324      0.30387503
       2760.5150      0.26320452
       2760.8976      0.18438972
       2761.2802      0.16056639
       2761.6628      0.21309189
       2762.0454      0.16298073
       2762.4280      0.23521304
       2762.8106      0.22343715
       2763.1932      0.21537656
       2763.5758      0.23947820
       2763.9584      0.30164522
       2764.3410      0.33011609
       2764.7236      0.25610341
       2765.1062      0.21761980
       2765.4888      0.36471910
       2765.8714      0.33773173
       2766.2540      0.31968760
       2766.6366      0.21904012
       2767.0192      0.23582567
       2767.4018      0.21566617
       2767.7845      0.19641602
       2768.1671      0.23110452
       2768.5497      0.13685002
       2768.9323      0.16268743
       2769.3149      0.17101577
       2769.6975      0.22057678
       2770.0801      0.34249494
       2770.4627      0.35613219
       2770.8453      0.42929024
       2771.2279      0.34541607
       2771.6105      0.27881680
       2771.9931      0.20613602
       2772.3757      0.17657231
       2772.7583      0.17047567
       2773.1409      0.24244183
       2773.5235      0.27318263
       2773.9061      0.24299998
       2774.2887      0.25093946
       2774.6713      0.31434471
       2775.0539      0.20737520
       2775.4365      0.26008007
       2775.8191      0.23515749
       2776.2017      0.10340887
       2776.5843      0.21719430
       2776.9669      0.23595398
       2777.3496      0.29939442
       2777.7322      0.26374737
       2778.1148      0.25266293
       2778.4974      0.31671712
       2778.8800      0.21524957
       2779.2626      0.36057755
       2779.6452      0.23589256
       2780.0278      0.38253102
       2780.4104      0.27377317
       2780.7930     0.056847648
       2781.1756      0.14259782
       2781.5582      0.17955776
       2781.9408      0.14169150
       2782.3234      0.21777102
       2782.7060      0.29271489
       2783.0886     0.088951651
       2783.4712      0.22670331
       2783.8538     0.055583086
       2784.2364      0.25489466
       2784.6190      0.13674777
       2785.0016     0.074388461
       2785.3842     0.081400713
       2785.7668      0.12741794
       2786.1494      0.13065378
       2786.5320      0.20882293
       2786.9146      0.17630374
       2787.2973      0.21005943
       2787.6799      0.10868770
       2788.0625      0.23243537
       2788.4451     0.095973509
       2788.8277      0.28110398
       2789.2103      0.17725508
       2789.5929      0.17575256
       2789.9755      0.20689374
       2790.3581      0.20205285
       2790.7407      0.34143559
       2791.1233   0.00099736190
       2791.5059      0.21102134
       2791.8885      0.18745124
       2792.2711      0.32639118
       2792.6537      0.18840768
       2793.0363      0.21941095
       2793.4189      0.29995358
       2793.8015      0.34607860
       2794.1841      0.29500748
       2794.5667      0.25991741
       2794.9493      0.39549727
       2795.3319      0.31707062
       2795.7145      0.31817217
       2796.0971      0.23595881
       2796.4797      0.35280031
       2796.8624      0.40921704
       2797.2450      0.22552121
       2797.6276      0.25651791
       2798.0102      0.20672885
       2798.3928      0.19184670
       2798.7754      0.25292307
       2799.1580      0.21384488
       2799.5406      0.29331418
       2799.9232      0.24090405
       2800.3058      0.37572154
       2800.6884      0.31658656
       2801.0710      0.29082700
       2801.4536      0.20403700
       2801.8362      0.31993273
       2802.2188      0.33227026
       2802.6014      0.41979106
       2802.9840      0.21572203
       2803.3666      0.27429869
       2803.7492      0.29200406
       2804.1318      0.22830909
       2804.5144      0.23036472
       2804.8970      0.25599385
       2805.2796      0.26176498
       2805.6622      0.27645235
       2806.0448      0.29649201
       2806.4275      0.24181803
       2806.8101      0.20869362
       2807.1927      0.32202629
       2807.5753      0.24731656
       2807.9579      0.31802386
       2808.3405      0.35201848
       2808.7231      0.31615961
       2809.1057      0.29722819
       2809.4883      0.27150639
       2809.8709      0.30591012
       2810.2535      0.31806202
       2810.6361      0.25808404
       2811.0187      0.28095443
       2811.4013      0.32762291
       2811.7839      0.28945173
       2812.1665      0.26171558
       2812.5491      0.25529430
       2812.9317      0.35134982
       2813.3143      0.29578459
       2813.6969      0.24972556
       2814.0795      0.30021735
       2814.4621      0.27285861
       2814.8447      0.29905654
       2815.2273      0.31865345
       2815.6099      0.21219033
       2815.9926      0.19772882
       2816.3752      0.24192284
       2816.7578      0.24364256
       2817.1404      0.24823109
       2817.5230      0.29789680
       2817.9056      0.33201237
       2818.2882      0.26527350
       2818.6708      0.22319470
       2819.0534      0.25436884
       2819.4360      0.29684096
       2819.8186      0.24258530
       2820.2012      0.16958840
       2820.5838      0.26102814
       2820.9664      0.12675347
       2821.3490      0.17546224
       2821.7316      0.27760973
       2822.1142      0.26751645
       2822.4968      0.29877398
       2822.8794      0.15207334
       2823.2620      0.27149607
       2823.6446      0.14956879
       2824.0272      0.11808428
       2824.4098      0.26778936
       2824.7924      0.11453633
       2825.1750      0.14551438
       2825.5577      0.29262060
       2825.9403      0.28354154
       2826.3229      0.25115250
       2826.7055      0.60837774
       2827.0881      0.30463224
       2827.4707      0.15158076
       2827.8533    -0.019340367
       2828.2359      0.20046640
       2828.6185      0.13315973
       2829.0011      0.29547056
       2829.3837      0.26327891
       2829.7663      0.25749609
       2830.1489      0.33176084
       2830.5315      0.27357728
       2830.9141      0.31438676
       2831.2967     0.084775276
       2831.6793      0.14078214
       2832.0619      0.15350460
       2832.4445     0.084877845
       2832.8271      0.15481340
       2833.2097      0.18315039
       2833.5923      0.20378658
       2833.9749      0.37307196
       2834.3575      0.27424916
       2834.7401      0.17364581
       2835.1228      0.25538725
       2835.5054      0.26577121
       2835.8880      0.27297673
       2836.2706      0.34559489
       2836.6532      0.38905573
       2837.0358      0.34978337
       2837.4184      0.36466433
       2837.8010      0.26067083
       2838.1836      0.30553775
       2838.5662      0.34875884
       2838.9488      0.20995696
       2839.3314      0.25835526
       2839.7140      0.23142226
       2840.0966      0.24907890
       2840.4792      0.22054634
       2840.8618      0.25475635
       2841.2444      0.29571491
       2841.6270      0.28418556
       2842.0096      0.19268584
       2842.3922      0.23489986
       2842.7748      0.27171057
       2843.1574     0.083827336
       2843.5400     0.042012273
       2843.9226     0.044631521
       2844.3052      0.27382501
       2844.6879      0.14419984
       2845.0705      0.22969931
       2845.4531      0.35895036
       2845.8357      0.36132886
       2846.2183    -0.033528823
       2846.6009      0.12659991
       2846.9835      0.10449415
       2847.3661      0.33142198
       2847.7487      0.30577707
       2848.1313      0.32638699
       2848.5139      0.26930662
       2848.8965      0.34061005
       2849.2791      0.38742883
       2849.6617      0.23905674
       2850.0443      0.22191876
       2850.4269      0.29662750
       2850.8095      0.26977935
       2851.1921      0.27881161
       2851.5747      0.20003061
       2851.9573      0.14045345
       2852.3399      0.31593144
       2852.7225      0.30006472
       2853.1051      0.22215931
       2853.4877      0.27921105
       2853.8703      0.22122636
       2854.2529      0.20638435
       2854.6356      0.21973591
       2855.0182      0.24543502
       2855.4008      0.18676102
       2855.7834      0.18542633
       2856.1660      0.15534714
       2856.5486      0.22584240
       2856.9312      0.35311789
       2857.3138      0.12476988
       2857.6964      0.17732339
       2858.0790      0.28708821
       2858.4616      0.27555955
       2858.8442      0.14775136
       2859.2268      0.20478396
       2859.6094      0.28704888
       2859.9920      0.22927463
       2860.3746      0.20884605
       2860.7572      0.23738835
       2861.1398      0.25014166
       2861.5224      0.22005851
       2861.9050     0.095331230
       2862.2876      0.18204729
       2862.6702      0.23750809
       2863.0528      0.51890509
       2863.4354      0.38107098
       2863.8180      0.42688138
       2864.2007      0.42117003
       2864.5833      0.35550736
       2864.9659      0.40505112
       2865.3485      0.34054104
       2865.7311      0.28789395
       2866.1137      0.39972461
       2866.4963      0.34535709
       2866.8789      0.22188005
       2867.2615      0.22365629
       2867.6441      0.21803820
       2868.0267      0.29671341
       2868.4093      0.22190103
       2868.7919      0.37356057
       2869.1745      0.14010090
       2869.5571      0.18388522
       2869.9397      0.27966099
       2870.3223      0.31972479
       2870.7049      0.29586445
       2871.0875      0.19806649
       2871.4701      0.22795365
       2871.8527      0.28741861
       2872.2353      0.33026968
       2872.6179      0.17739750
       2873.0005    0.0016049343
       2873.3831      0.17266778
       2873.7658      0.21137409
       2874.1484      0.26022760
       2874.5310      0.49588377
       2874.9136      0.39925294
       2875.2962      0.46815824
       2875.6788      0.52628792
       2876.0614      0.45045943
       2876.4440      0.32552937
       2876.8266      0.26821503
       2877.2092      0.24516031
       2877.5918      0.24712901
       2877.9744      0.27521583
       2878.3570      0.27888578
       2878.7396      0.24784493
       2879.1222      0.28617111
       2879.5048      0.29911771
       2879.8874      0.28011198
       2880.2700      0.23278180
       2880.6526      0.19316328
       2881.0352      0.35190111
       2881.4178      0.41194515
       2881.8004      0.28388121
       2882.1830      0.15850911
       2882.5656      0.39241165
       2882.9482      0.43395497
       2883.3309      0.30368487
       2883.7135      0.19597316
       2884.0961      0.17573544
       2884.4787      0.19559490
       2884.8613      0.26201926
       2885.2439     0.059713436
       2885.6265      0.25346397
       2886.0091      0.34168629
       2886.3917      0.31699083
       2886.7743      0.35839540
       2887.1569      0.43840819
       2887.5395      0.31318092
       2887.9221      0.29752295
       2888.3047      0.42031722
       2888.6873      0.29186189
       2889.0699      0.25191904
       2889.4525      0.27365475
       2889.8351      0.29655752
       2890.2177      0.30298319
       2890.6003      0.28432716
       2890.9829      0.27783009
       2891.3655      0.24639853
       2891.7481      0.20463388
       2892.1307      0.13116181
       2892.5133      0.17903007
       2892.8960      0.20279339
       2893.2786      0.19472287
       2893.6612      0.30163823
       2894.0438      0.23830677
       2894.4264      0.24687571
       2894.8090      0.20802853
       2895.1916      0.26546467
       2895.5742      0.18751155
       2895.9568      0.21354284
       2896.3394      0.24872913
       2896.7220      0.11723012
       2897.1046     0.094848077
       2897.4872      0.27841365
       2897.8698      0.20157925
       2898.2524      0.21128273
       2898.6350      0.17951084
       2899.0176      0.11411109
       2899.4002      0.21497154
       2899.7828      0.19399853
       2900.1654      0.24480122
       2900.5480      0.42469377
       2900.9306      0.32208960
       2901.3132      0.39561837
       2901.6958      0.16125737
       2902.0784      0.23794332
       2902.4611      0.25949474
       2902.8437      0.19729619
       2903.2263      0.21551050
       2903.6089      0.22404278
       2903.9915      0.18832168
       2904.3741      0.19862363
       2904.7567      0.25331199
       2905.1393      0.18298789
       2905.5219      0.25359075
       2905.9045      0.27601802
       2906.2871      0.27658139
       2906.6697      0.26684007
       2907.0523      0.17473920
       2907.4349      0.22719337
       2907.8175      0.24151578
       2908.2001      0.26298561
       2908.5827      0.18620077
       2908.9653      0.23838579
       2909.3479      0.24821113
       2909.7305      0.31781557
       2910.1131      0.19346462
       2910.4957      0.18457083
       2910.8783      0.14702608
       2911.2609      0.22066186
       2911.6435      0.24081866
       2912.0262      0.21128528
       2912.4088      0.23481964
       2912.7914      0.39062685
       2913.1740      0.32138870
       2913.5566      0.26834940
       2913.9392      0.24402881
       2914.3218      0.21590038
       2914.7044      0.13437361
       2915.0870      0.12977021
       2915.4696      0.23617559
       2915.8522      0.27050522
       2916.2348      0.25129928
       2916.6174      0.26902184
       2917.0000      0.25264890
       2917.3826      0.24961867
       2917.7652      0.20871192
       2918.1478      0.28044462
       2918.5304      0.22622296
       2918.9130      0.27208940
       2919.2956      0.32910920
       2919.6782      0.26829781
       2920.0608      0.26896223
       2920.4434      0.26053430
       2920.8260      0.29486481
       2921.2086      0.22752370
       2921.5912      0.25757337
       2921.9739      0.25747309
       2922.3565      0.19105334
       2922.7391      0.24472729
       2923.1217      0.19556409
       2923.5043      0.21173101
       2923.8869      0.26486172
       2924.2695      0.23485075
       2924.6521      0.23637046
       2925.0347      0.25753255
       2925.4173      0.31189260
       2925.7999      0.29053962
       2926.1825      0.23927941
       2926.5651      0.21013454
       2926.9477      0.24405348
       2927.3303      0.33355141
       2927.7129      0.27596333
       2928.0955      0.19387227
       2928.4781      0.26765673
       2928.8607      0.29711973
       2929.2433      0.24720278
       2929.6259      0.37581724
       2930.0085      0.41202490
       2930.3911      0.30595702
       2930.7737      0.25680061
       2931.1563      0.19498201
       2931.5390      0.22482093
       2931.9216      0.23676458
       2932.3042      0.14095275
       2932.6868     0.078096875
       2933.0694      0.25592173
       2933.4520      0.18474641
       2933.8346      0.20077844
       2934.2172      0.23964820
       2934.5998      0.22130412
       2934.9824      0.22930620
       2935.3650      0.21899275
       2935.7476      0.20715796
       2936.1302      0.23670116
       2936.5128      0.30969370
       2936.8954      0.30960254
       2937.2780      0.32075110
       2937.6606      0.31223219
       2938.0432      0.24358463
       2938.4258      0.23538690
       2938.8084      0.24831004
       2939.1910      0.25498736
       2939.5736      0.23175312
       2939.9562      0.21848677
       2940.3388      0.21743440
       2940.7214      0.25446744
       2941.1041      0.21564962
       2941.4867      0.18436717
       2941.8693      0.27508046
       2942.2519      0.30741606
       2942.6345      0.19075166
       2943.0171      0.19666412
       2943.3997      0.25741621
       2943.7823      0.29025963
       2944.1649      0.23813446
       2944.5475      0.21491021
       2944.9301      0.25462847
       2945.3127      0.26179742
       2945.6953      0.30296218
       2946.0779      0.27491500
       2946.4605      0.28237694
       2946.8431      0.34116000
       2947.2257      0.20394465
       2947.6083      0.17217596
       2947.9909      0.23643699
       2948.3735      0.26098079
       2948.7561      0.26813516
       2949.1387      0.23661292
       2949.5213      0.26455274
       2949.9039      0.20661852
       2950.2865      0.18215354
       2950.6692      0.24919411
       2951.0518      0.32856902
       2951.4344      0.29088839
       2951.8170      0.29254359
       2952.1996      0.33674201
       2952.5822      0.28837544
       2952.9648      0.28553530
       2953.3474      0.23035625
       2953.7300      0.19558826
       2954.1126      0.25291624
       2954.4952      0.25309490
       2954.8778      0.29333333
       2955.2604      0.28635481
       2955.6430      0.30173971
       2956.0256      0.28927869
       2956.4082      0.29053941
       2956.7908      0.24113761
       2957.1734      0.22689362
       2957.5560      0.25730820
       2957.9386      0.24774998
       2958.3212      0.29797748
       2958.7038      0.29382533
       2959.0864      0.24092626
       2959.4690      0.22032156
       2959.8516      0.28599872
       2960.2343      0.27089789
       2960.6169      0.25617240
       2960.9995      0.24014656
       2961.3821      0.21322048
       2961.7647      0.26464693
       2962.1473      0.25686971
       2962.5299      0.37403802
       2962.9125      0.29621663
       2963.2951      0.13288138
       2963.6777      0.26293326
       2964.0603      0.34869926
       2964.4429      0.24890368
       2964.8255      0.28765210
       2965.2081      0.25466664
       2965.5907      0.18757668
       2965.9733      0.21122567
       2966.3559      0.19679993
       2966.7385      0.24744474
       2967.1211      0.28242134
       2967.5037      0.33597206
       2967.8863      0.23509141
       2968.2689      0.20528012
       2968.6515      0.35528448
       2969.0341      0.27325021
       2969.4167      0.19790394
       2969.7994      0.26527400
       2970.1820      0.25104919
       2970.5646      0.28624006
       2970.9472      0.29587777
       2971.3298      0.28871772
       2971.7124      0.31789888
       2972.0950      0.21737480
       2972.4776      0.13412158
       2972.8602      0.18466822
       2973.2428      0.19461286
       2973.6254      0.21814517
       2974.0080      0.17740784
       2974.3906      0.18391015
       2974.7732      0.21205903
       2975.1558      0.31040614
       2975.5384      0.25709144
       2975.9210      0.27319826
       2976.3036      0.28993593
       2976.6862      0.30638691
       2977.0688      0.29164423
       2977.4514      0.30853069
       2977.8340      0.26781940
       2978.2166      0.21651541
       2978.5992      0.23526259
       2978.9818      0.30427642
       2979.3645      0.32706579
       2979.7471      0.31626788
       2980.1297      0.27134304
       2980.5123      0.26162569
       2980.8949      0.27519292
       2981.2775      0.28486272
       2981.6601      0.26831796
       2982.0427      0.27649111
       2982.4253      0.28734923
       2982.8079      0.27190053
       2983.1905      0.28059238
       2983.5731      0.30308157
       2983.9557      0.28476662
       2984.3383      0.21470957
       2984.7209      0.24946047
       2985.1035      0.24664434
       2985.4861      0.22723560
       2985.8687      0.26753186
       2986.2513      0.26215796
       2986.6339      0.22528439
       2987.0165      0.28068792
       2987.3991      0.29137600
       2987.7817      0.21253455
       2988.1643      0.23816718
       2988.5469      0.22986614
       2988.9295      0.19546154
       2989.3122      0.19378898
       2989.6948      0.21572156
       2990.0774      0.27552817
       2990.4600      0.24661648
       2990.8426      0.21316975
       2991.2252      0.29759526
       2991.6078      0.18869436
       2991.9904      0.17224376
       2992.3730      0.19682531
       2992.7556      0.14593681
       2993.1382      0.25041040
       2993.5208      0.29950813
       2993.9034      0.39487208
       2994.2860      0.31533208
       2994.6686      0.23386730
       2995.0512      0.30066352
       2995.4338      0.29588074
       2995.8164      0.26101488
       2996.1990      0.26889939
       2996.5816      0.28644158
       2996.9642      0.19581612
       2997.3468      0.27792847
       2997.7294      0.26375803
       2998.1120      0.11708976
       2998.4946      0.13438632
       2998.8773      0.22650318
       2999.2599      0.35310554
       2999.6425      0.22461674
       3000.0251      0.28688311
       3000.4077      0.26033176
       3000.7903     0.072808107
       3001.1729      0.15556092
       3001.5555     0.042660269
       3001.9381      0.38701286
       3002.3207      0.22382148
       3002.7033      0.21301649
       3003.0859    -0.098322062
       3003.4685     -0.34828339
       3003.8511     0.055760803
       3004.2337      0.54962295
       3004.6163      0.46680955
       3004.9989      0.27841090
       3005.3815      0.39603081
       3005.7641      0.32149882
       3006.1467      0.31094541
       3006.5293      0.27091721
       3006.9119      0.27943634
       3007.2945      0.14430369
       3007.6771     0.018961229
       3008.0597   -0.0041162374
       3008.4424      0.13092861
       3008.8250      0.36110986
       3009.2076      0.31825512
       3009.5902      0.22422198
       3009.9728      0.22000175
       3010.3554      0.13282135
       3010.7380      0.15269328
       3011.1206      0.21941159
       3011.5032      0.30011649
       3011.8858      0.41130056
       3012.2684      0.34512010
       3012.6510      0.29925472
       3013.0336      0.19656423
       3013.4162      0.17051824
       3013.7988      0.17243357
       3014.1814      0.24421663
       3014.5640      0.31330040
       3014.9466      0.30179500
       3015.3292      0.32319459
       3015.7118      0.28010486
       3016.0944      0.26015588
       3016.4770      0.27379399
       3016.8596      0.22685714
       3017.2422      0.21343614
       3017.6248      0.24484529
       3018.0075      0.23790393
       3018.3901      0.22976993
       3018.7727    -0.014993151
       3019.1553     -0.14021491
       3019.5379    -0.020144408
       3019.9205     -0.25997614
       3020.3031     -0.12536856
       3020.6857    -0.076403813
       3021.0683      0.36015979
       3021.4509      0.70924760
       3021.8335      0.37244905
       3022.2161      0.70073068
       3022.5987      0.47064122
       3022.9813      0.28237621
       3023.3639      0.15484611
       3023.7465      0.15118909
       3024.1291      0.35340230
       3024.5117      0.40347700
       3024.8943      0.17011793
       3025.2769      0.12507771
       3025.6595      0.27744164
       3026.0421      0.27641399
       3026.4247      0.23698528
       3026.8073      0.34858238
       3027.1899      0.26912221
       3027.5726      0.18787870
       3027.9552      0.28496618
       3028.3378      0.31312102
       3028.7204      0.21938975
       3029.1030      0.15867435
       3029.4856      0.16401353
       3029.8682      0.15746891
       3030.2508      0.23186689
       3030.6334      0.29269487
       3031.0160      0.26537609
       3031.3986      0.31259914
       3031.7812      0.30641714
       3032.1638      0.28826478
       3032.5464      0.19978141
       3032.9290      0.16367204
       3033.3116      0.38667111
       3033.6942      0.29815850
       3034.0768      0.19641086
       3034.4594      0.18346579
       3034.8420      0.26936144
       3035.2246      0.40427380
       3035.6072      0.27167940
       3035.9898      0.43844233
       3036.3724      0.34996614
       3036.7550      0.28560168
       3037.1377      0.12494178
       3037.5203      0.17441231
       3037.9029      0.17854732
       3038.2855      0.22182065
       3038.6681      0.29984468
       3039.0507      0.23000707
       3039.4333      0.20000095
       3039.8159      0.49023151
       3040.1985    -0.011252653
       3040.5811      0.19429607
       3040.9637     0.048090591
       3041.3463      0.43970134
       3041.7289      0.48085312
       3042.1115   -0.0053798294
       3042.4941      0.53001583
       3042.8767      0.34187726
       3043.2593      0.26902570
       3043.6419      0.17423948
       3044.0245      0.17334120
       3044.4071      0.20455605
       3044.7897      0.13442387
       3045.1723      0.10400106
       3045.5549      0.23774854
       3045.9375     0.079993430
       3046.3201     -0.24638755
       3046.7028   -0.0039250719
       3047.0854     0.058457278
       3047.4680     0.057350033
       3047.8506      0.24068109
       3048.2332      0.32010505
       3048.6158      0.49964246
       3048.9984      0.21852981
       3049.3810      0.27246788
       3049.7636      0.26094311
       3050.1462      0.14629149
       3050.5288      0.21193924
       3050.9114      0.14212300
       3051.2940     0.072191868
       3051.6766      0.47020037
       3052.0592     -0.11456805
       3052.4418     0.010915274
       3052.8244      0.33336772
       3053.2070      0.33334664
       3053.5896      0.34247367
       3053.9722      0.23125684
       3054.3548      0.67139995
       3054.7374      0.39360005
       3055.1200      0.36829165
       3055.5026      0.25891831
       3055.8852      0.21157726
       3056.2678      0.26269626
       3056.6505      0.22264675
       3057.0331      0.21804625
       3057.4157      0.27714563
       3057.7983      0.38486973
       3058.1809      0.29653806
       3058.5635      0.21158605
       3058.9461      0.18103832
       3059.3287      0.20436932
       3059.7113      0.22767450
       3060.0939      0.14146191
       3060.4765      0.16148178
       3060.8591     0.075275139
       3061.2417      0.30639021
       3061.6243      0.34385401
       3062.0069     0.077811866
       3062.3895     0.056901955
       3062.7721      0.39912413
       3063.1547      0.36500138
       3063.5373      0.22340581
       3063.9199      0.12935609
       3064.3025      0.17856949
       3064.6851      0.14420526
       3065.0677      0.32414516
       3065.4503      0.17092559
       3065.8329     -0.12236925
       3066.2156      0.39027476
       3066.5982      0.34944085
       3066.9808    0.0051061992
       3067.3634      0.22429276
       3067.7460      0.25361945
       3068.1286      0.39133477
       3068.5112      0.30163734
       3068.8938      0.28680934
       3069.2764      0.33573324
       3069.6590      0.18298361
       3070.0416      0.15466864
       3070.4242      0.26120141
       3070.8068      0.32182450
       3071.1894      0.37959998
       3071.5720      0.25940219
       3071.9546      0.17121227
       3072.3372      0.20408460
       3072.7198      0.25252570
       3073.1024      0.24003161
       3073.4850      0.22126300
       3073.8676      0.28715845
       3074.2502      0.21235934
       3074.6328      0.15718295
       3075.0154      0.17823510
       3075.3980      0.18867463
       3075.7807      0.31845892
       3076.1633      0.27392454
       3076.5459     0.060972765
       3076.9285      0.22676876
       3077.3111      0.25049883
       3077.6937      0.33302882
       3078.0763      0.22209233
       3078.4589      0.28678478
       3078.8415      0.32960965
       3079.2241      0.19736471
       3079.6067      0.19230820
       3079.9893      0.16851115
       3080.3719      0.32346910
       3080.7545      0.48590026
       3081.1371      0.14223357
       3081.5197    0.0010605497
       3081.9023      0.38072597
       3082.2849      0.68325641
       3082.6675      0.28460366
       3083.0501     0.081099088
       3083.4327      0.55625089
       3083.8153      0.31365674
       3084.1979      0.34814399
       3084.5805      0.31151343
       3084.9631      0.24937598
       3085.3458      0.21588025
       3085.7284      0.19637490
       3086.1110      0.14862675
       3086.4936      0.13833637
       3086.8762      0.22446757
       3087.2588      0.22684558
       3087.6414      0.22925043
       3088.0240      0.18613964
       3088.4066      0.23468696
       3088.7892      0.21018585
       3089.1718      0.17980294
       3089.5544      0.19763273
       3089.9370      0.22659105
       3090.3196      0.24071156
       3090.7022      0.30568100
       3091.0848      0.33605138
       3091.4674      0.30888743
       3091.8500      0.27265383
       3092.2326      0.27820449
       3092.6152      0.29624364
       3092.9978      0.29036171
       3093.3804      0.33498343
       3093.7630      0.34192841
       3094.1456      0.40728612
       3094.5282      0.27839086
       3094.9109     0.084208798
       3095.2935      0.21124120
       3095.6761      0.29966725
       3096.0587      0.40928979
       3096.4413      0.39655229
       3096.8239      0.33435645
       3097.2065      0.21614669
       3097.5891      0.17797408
       3097.9717      0.13722394
       3098.3543      0.19223875
       3098.7369      0.27274548
       3099.1195      0.21134913
       3099.5021      0.38225338
       3099.8847      0.14644414
       3100.2673      0.14490495
       3100.6499      0.38858943
       3101.0325      0.41064803
       3101.4151      0.29341393
       3101.7977      0.26365456
       3102.1803      0.29615154
       3102.5629      0.26272434
       3102.9455      0.27890234
       3103.3281      0.24453440
       3103.7107      0.22181124
       3104.0933      0.26248173
       3104.4760      0.23866709
       3104.8586      0.23804206
       3105.2412      0.20169991
       3105.6238      0.23761312
       3106.0064      0.31078093
       3106.3890      0.26400858
       3106.7716      0.27592698
       3107.1542      0.27866403
       3107.5368      0.25060641
       3107.9194      0.24029746
       3108.3020      0.31580918
       3108.6846      0.33400759
       3109.0672      0.28928544
       3109.4498      0.24136321
       3109.8324      0.21485135
       3110.2150      0.19000370
       3110.5976      0.23495603
       3110.9802      0.36066024
       3111.3628      0.34731008
       3111.7454      0.30849387
       3112.1280      0.16879241
       3112.5106      0.14737707
       3112.8932      0.35447507
       3113.2758      0.40128469
       3113.6584      0.26301403
       3114.0411      0.18415762
       3114.4237      0.26708825
       3114.8063      0.37406327
       3115.1889      0.24715825
       3115.5715      0.52103008
       3115.9541      0.48760757
       3116.3367      0.27245634
       3116.7193      0.27726035
       3117.1019      0.24128090
       3117.4845      0.16091085
       3117.8671      0.18550590
       3118.2497      0.14479815
       3118.6323      0.26313839
       3119.0149      0.30334272
       3119.3975      0.14144121
       3119.7801      0.14920695
       3120.1627      0.31520437
       3120.5453      0.23602165
       3120.9279     0.049114862
       3121.3105    -0.038224883
       3121.6931      0.16685933
       3122.0757      0.26354914
       3122.4583      0.24763290
       3122.8409      0.44234481
       3123.2235      0.23693449
       3123.6061      0.33518655
       3123.9888      0.21224373
       3124.3714      0.22196846
       3124.7540      0.14875703
       3125.1366     -0.16857060
       3125.5192      0.37679867
       3125.9018      0.29977762
       3126.2844      0.23183095
       3126.6670      0.18372548
       3127.0496      0.15676328
       3127.4322     0.053848495
       3127.8148      0.15197909
       3128.1974      0.21390746
       3128.5800      0.15923297
       3128.9626      0.25295625
       3129.3452      0.45302756
       3129.7278      0.32394232
       3130.1104     0.053507163
       3130.4930      0.11127455
       3130.8756      0.33237135
       3131.2582      0.34563072
       3131.6408    -0.035153046
       3132.0234      0.17885377
       3132.4060      0.31253475
       3132.7886      0.26890972
       3133.1712      0.24149242
       3133.5539      0.17322945
       3133.9365      0.29184024
       3134.3191      0.36359527
       3134.7017      0.40216537
       3135.0843      0.43626852
       3135.4669      0.38099606
       3135.8495      0.12544743
       3136.2321      0.28271071
       3136.6147      0.32859480
       3136.9973      0.22103319
       3137.3799      0.25360030
       3137.7625      0.35927260
       3138.1451      0.41069213
       3138.5277      0.13278787
       3138.9103      0.16745388
       3139.2929      0.24499230
       3139.6755      0.32201536
       3140.0581      0.35200270
       3140.4407      0.32274141
       3140.8233      0.24275220
       3141.2059      0.12582570
       3141.5885      0.25157035
       3141.9711      0.26095732
       3142.3537      0.24671200
       3142.7363      0.31605711
       3143.1190      0.28948125
       3143.5016      0.23257057
       3143.8842      0.26647774
       3144.2668      0.25323337
       3144.6494      0.18230193
       3145.0320      0.20326320
       3145.4146      0.24288397
       3145.7972      0.25092934
       3146.1798      0.21062241
       3146.5624      0.22165687
       3146.9450      0.26060723
       3147.3276      0.31880286
       3147.7102      0.22102416
       3148.0928      0.14929834
       3148.4754      0.21177474
       3148.8580      0.15559857
       3149.2406      0.17440509
       3149.6232      0.20354997
       3150.0058      0.25455847
       3150.3884      0.31535738
       3150.7710      0.24679283
       3151.1536      0.25041937
       3151.5362      0.25203892
       3151.9188      0.63765274
       3152.3014       1.7580527
       3152.6841       1.2046736
       3153.0667       1.7799361
       3153.4493       2.4940388
       3153.8319       2.3202771
       3154.2145       1.9830900
       3154.5971       1.3995045
       3154.9797       1.8394960
       3155.3623      0.90393269
       3155.7449      0.30005042
       3156.1275    0.0041640132
       3156.5101     -0.24904323
       3156.8927     -0.13879057
       3157.2753      0.20845083
       3157.6579      0.44082999
       3158.0405      0.42553445
       3158.4231      0.36727612
       3158.8057      0.26625478
       3159.1883      0.23340048
       3159.5709      0.39807111
       3159.9535      0.21641026
       3160.3361      0.16678114
       3160.7187      0.20868396
       3161.1013      0.10072014
       3161.4839      0.12536130
       3161.8665      0.33182203
       3162.2492      0.24810357
       3162.6318      0.26816695
       3163.0144      0.40953040
       3163.3970      0.33608746
       3163.7796      0.33569285
       3164.1622      0.35075101
       3164.5448      0.37502636
       3164.9274      0.39608204
       3165.3100      0.33916643
       3165.6926      0.22954524
       3166.0752      0.20676568
       3166.4578      0.16066388
       3166.8404      0.24652865
       3167.2230      0.32400616
       3167.6056      0.28627878
       3167.9882      0.39467630
       3168.3708      0.33996195
       3168.7534      0.27369571
       3169.1360      0.27547572
       3169.5186      0.29812765
       3169.9012      0.23236391
       3170.2838      0.25127052
       3170.6664      0.38737223
       3171.0490     0.032247737
       3171.4316     0.026034656
       3171.8143      0.39050787
       3172.1969      0.35536977
       3172.5795      0.35556812
       3172.9621      0.29220111
       3173.3447      0.35079616
       3173.7273      0.31527599
       3174.1099      0.21786721
       3174.4925      0.20984638
       3174.8751      0.23867204
       3175.2577      0.26613166
       3175.6403      0.33996133
       3176.0229      0.29402324
       3176.4055      0.20831574
       3176.7881      0.23224951
       3177.1707      0.21970191
       3177.5533      0.19831051
       3177.9359      0.31349334
       3178.3185      0.77510494
       3178.7011     -0.23660691
       3179.0837    -0.094945427
       3179.4663     0.087585222
       3179.8489      0.11903690
       3180.2315      0.24319065
       3180.6141    -0.068045085
       3180.9967      0.90810389
       3181.3794      0.51243011
       3181.7620      0.27608541
       3182.1446      0.22692967
       3182.5272      0.22991580
       3182.9098      0.30177381
       3183.2924      0.24499584
       3183.6750      0.27607160
       3184.0576      0.23302335
       3184.4402      0.19656146
       3184.8228      0.18084583
       3185.2054      0.44122558
       3185.5880      0.41367571
       3185.9706     0.090310331
       3186.3532      0.28678496
       3186.7358     0.045154164
       3187.1184      0.18876090
       3187.5010      0.34097923
       3187.8836      0.26303483
       3188.2662      0.42745676
       3188.6488      0.40791537
       3189.0314      0.38048423
       3189.4140      0.33915859
       3189.7966      0.36157627
       3190.1792      0.27575206
       3190.5618      0.22348113
       3190.9444      0.30452836
       3191.3271      0.23247869
       3191.7097      0.48417382
       3192.0923      0.16852833
       3192.4749     -0.33094993
       3192.8575      0.44969334
       3193.2401      0.93840416
       3193.6227      0.67815514
       3194.0053    -0.075099298
       3194.3879      0.29832186
       3194.7705      0.96174726
       3195.1531      0.42705507
       3195.5357      0.31646482
       3195.9183      0.30635468
       3196.3009      0.24191703
       3196.6835      0.36601705
       3197.0661      0.32655290
       3197.4487      0.20667794
       3197.8313      0.16997462
       3198.2139      0.18673059
       3198.5965      0.24117696
       3198.9791      0.31199603
       3199.3617      0.28964038
       3199.7443      0.22108019
       3200.1269      0.31207398
       3200.5095      0.33212071
       3200.8922      0.21247129
       3201.2748     0.012304714
       3201.6574      0.20808095
       3202.0400      0.52267783
       3202.4226     -0.22978222
       3202.8052     -0.19955888
       3203.1878      0.25298158
       3203.5704      0.46256616
       3203.9530     0.072003524
       3204.3356     0.070029394
       3204.7182      0.45977660
       3205.1008      0.88626334
       3205.4834      0.48468814
       3205.8660     -0.16004523
       3206.2486     0.030619978
       3206.6312      0.18430660
       3207.0138      0.28863133
       3207.3964     -0.34970498
       3207.7790    -0.067203637
       3208.1616      0.67415162
       3208.5442      0.13464478
       3208.9268    -0.021508172
       3209.3094    -0.088180347
       3209.6920      0.61959868
       3210.0746      0.53692032
       3210.4573      0.46009611
       3210.8399      0.21187949
       3211.2225      0.19828153
       3211.6051     0.042177122
       3211.9877     -0.11228025
       3212.3703     0.049594419
       3212.7529      0.20407287
       3213.1355      0.40950639
       3213.5181      0.32199181
       3213.9007      0.36211982
       3214.2833      0.24007939
       3214.6659      0.24485922
       3215.0485      0.38141948
       3215.4311      0.23172379
       3215.8137      0.22534077
       3216.1963      0.27540159
       3216.5789      0.18161916
       3216.9615     0.097420379
       3217.3441      0.20189703
       3217.7267      0.23368345
       3218.1093      0.29200276
       3218.4919      0.26699035
       3218.8745      0.39260393
       3219.2571      0.28074826
       3219.6397      0.17171106
       3220.0224      0.17375529
       3220.4050      0.16921196
       3220.7876      0.36586687
       3221.1702      0.34769391
       3221.5528      0.40256580
       3221.9354      0.55623412
       3222.3180      0.46994901
       3222.7006      0.25673787
       3223.0832      0.58063356
       3223.4658      0.50590149
       3223.8484     -0.57797408
       3224.2310     -0.83945633
       3224.6136      0.20316559
       3224.9962     0.028661950
       3225.3788     -0.35315833
       3225.7614     -0.25200550
       3226.1440      0.76861191
       3226.5266      0.45408120
       3226.9092      0.15591054
       3227.2918      0.19549674
       3227.6744    -0.093065644
       3228.0570     -0.16475559
       3228.4396      0.25323176
       3228.8222      0.47302501
       3229.2048      0.82639808
       3229.5875      0.39237291
       3229.9701      0.56848860
       3230.3527      0.63088190
       3230.7353      0.51965434
       3231.1179      0.22680700
       3231.5005      0.17843305
       3231.8831      0.12682665
       3232.2657      0.11353569
       3232.6483      0.13653397
       3233.0309     0.026828219
       3233.4135     0.076583056
       3233.7961     0.061089961
       3234.1787      0.15599504
       3234.5613      0.48652438
       3234.9439      0.47075756
       3235.3265      0.33154992
       3235.7091      0.10113912
       3236.0917      0.20994079
       3236.4743      0.11998090
       3236.8569     0.089904111
       3237.2395     0.030233508
       3237.6221     0.081695092
       3238.0047      0.17668991
       3238.3873      0.30396826
       3238.7699      0.16441030
       3239.1526     -0.11750584
       3239.5352    -0.011134619
       3239.9178      0.44460173
       3240.3004      0.10137466
       3240.6830      0.13462483
       3241.0656      0.28062969
       3241.4482      0.61891138
       3241.8308      0.62975571
       3242.2134      0.29962584
       3242.5960      0.29099306
       3242.9786      0.19287969
       3243.3612      0.21548260
       3243.7438      0.19325519
       3244.1264      0.18611468
       3244.5090      0.25288499
       3244.8916      0.20212009
       3245.2742      0.42763182
       3245.6568      0.67034611
       3246.0394     0.080598952
       3246.4220    -0.028527945
       3246.8046    -0.046068607
       3247.1872   -0.0070999435
       3247.5698     -0.16379258
       3247.9524     -0.49434554
       3248.3350      0.48888483
       3248.7177      0.75272590
       3249.1003      0.48287095
       3249.4829      0.30476116
       3249.8655      0.23114194
       3250.2481     0.079223821
       3250.6307      0.34795784
       3251.0133      0.48590069
       3251.3959      0.44327215
       3251.7785      0.18559779
       3252.1611      0.24914022
       3252.5437      0.27201073
       3252.9263    -0.015070646
       3253.3089      0.14362884
       3253.6915      0.18781895
       3254.0741    -0.062093617
       3254.4567     -0.12891499
       3254.8393     -0.25729509
       3255.2219      0.42436220
       3255.6045      0.39956305
       3255.9871      0.23537342
       3256.3697      0.22723153
       3256.7523      0.31313453
       3257.1349      0.13106244
       3257.5175      0.19041226
       3257.9001      0.27026395
       3258.2827      0.17690134
       3258.6654      0.42960701
       3259.0480      0.39039006
       3259.4306     -0.30487608
       3259.8132     0.031683945
       3260.1958     -0.31818774
       3260.5784     -0.15404176
       3260.9610     -0.44898716
       3261.3436     -0.83432885
       3261.7262      0.94021133
       3262.1088       1.0292559
       3262.4914      0.16373720
       3262.8740     0.024881667
       3263.2566     0.064376042
       3263.6392      0.17459231
       3264.0218      0.18928049
       3264.4044      0.15354149
       3264.7870      0.11248500
       3265.1696      0.13721243
       3265.5522      0.23588286
       3265.9348      0.27410754
       3266.3174      0.37459714
       3266.7000      0.24731203
       3267.0826      0.35197700
       3267.4652      0.38105028
       3267.8478      0.31519176
       3268.2305      0.47313727
       3268.6131     0.081045136
       3268.9957      0.18206204
       3269.3783      0.37080024
       3269.7609      0.47079652
       3270.1435     0.055612664
       3270.5261      0.17330523
       3270.9087      0.56946405
       3271.2913      0.50569159
       3271.6739      0.43207759
       3272.0565      0.24631864
       3272.4391     -0.12870056
       3272.8217      0.21799271
       3273.2043      0.35286965
       3273.5869     0.063620095
       3273.9695      0.53600231
       3274.3521      0.81042565
       3274.7347     -0.12062952
       3275.1173     -0.23240036
       3275.4999     0.086165034
       3275.8825      0.12421198
       3276.2651     -0.20454805
       3276.6477    -0.045462583
       3277.0303      0.90909684
       3277.4129      0.86515248
       3277.7956      0.17467882
       3278.1782     0.034779635
       3278.5608      0.17562751
       3278.9434      0.20221196
       3279.3260      0.48812945
       3279.7086      0.38331623
       3280.0912      0.69057099
       3280.4738     0.089662711
       3280.8564   -0.0061118419
       3281.2390     0.056796085
       3281.6216      0.19555400
       3282.0042      0.76012353
       3282.3868      0.25935068
       3282.7694      0.42714622
       3283.1520      0.56150798
       3283.5346      0.32707276
       3283.9172      0.19495125
       3284.2998      0.28081002
       3284.6824      0.21703273
       3285.0650      0.18438621
       3285.4476      0.25909414
       3285.8302      0.53781711
       3286.2128      0.46376517
       3286.5954      0.31893528
       3286.9780      0.34108539
       3287.3607     -0.45002853
       3287.7433    -0.099878121
       3288.1259     -0.13011426
       3288.5085     -0.50745770
       3288.8911     -0.13717498
       3289.2737   -0.0033679886
       3289.6563      0.49314450
       3290.0389      0.61310279
       3290.4215      0.28993292
       3290.8041      0.20054178
       3291.1867      0.25439243
       3291.5693      0.22704007
       3291.9519     -0.17361230
       3292.3345     -0.42192205
       3292.7171      0.31502342
       3293.0997      0.49882725
       3293.4823     0.032118327
       3293.8649     -0.22090484
       3294.2475      0.24531123
       3294.6301      0.79820769
       3295.0127      0.56078882
       3295.3953      0.27111543
       3295.7779      0.23101155
       3296.1605      0.55392475
       3296.5431      0.38707461
       3296.9258     -0.12833311
       3297.3084    -0.043981257
       3297.6910      0.23489665
       3298.0736      0.11520036
       3298.4562     0.038351353
       3298.8388     0.098765604
       3299.2214     0.037937127
       3299.6040     0.056138015
       3299.9866      0.26792692
       3300.3692      0.14297946
       3300.7518     0.065335081
       3301.1344      0.30362025
       3301.5170      0.23870667
       3301.8996      0.30906859
       3302.2822    -0.012056828
       3302.6648      0.26680928
       3303.0474     0.058708054
       3303.4300  -0.00088558508
       3303.8126      0.31169819
