# wavelength flux
       2357.2815   -0.0067410855
       2358.0808     0.042753115
       2358.8800     0.026755733
       2359.6793     0.056102942
       2360.4785     0.013052067
       2361.2778     0.042127083
       2362.0770     0.035979613
       2362.8762    -0.031723497
       2363.6755     0.027882059
       2364.4747    -0.027676087
       2365.2740     0.015519772
       2366.0732     0.021820209
       2366.8725     0.012793982
       2367.6717     0.015590932
       2368.4710     0.016652279
       2369.2702    -0.012821606
       2370.0694    -0.014353079
       2370.8687    -0.014331235
       2371.6679    0.0065105598
       2372.4672     0.042188137
       2373.2664    0.0094048704
       2374.0657     0.010645940
       2374.8649   -0.0094719900
       2375.6641    0.0039164429
       2376.4634     0.012158403
       2377.2626     0.019112311
       2378.0619    0.0072617446
       2378.8611     0.034986405
       2379.6604     0.010656045
       2380.4596    0.0087973875
       2381.2589    0.0094393200
       2382.0581   -0.0054350676
       2382.8573    -0.012493186
       2383.6566   -0.0035571413
       2384.4558   -0.0040341492
       2385.2551     0.020495945
       2386.0543     0.033725285
       2386.8536   -0.0093857017
       2387.6528    -0.016689652
       2388.4521     0.012141083
       2389.2513     0.021768599
       2390.0505     0.020038327
       2390.8498   -0.0064537186
       2391.6490     0.015076344
       2392.4483     0.020190779
       2393.2475     0.012769102
       2394.0468     0.011569106
       2394.8460     0.015813775
       2395.6453    -0.013429386
       2396.4445    0.0049939572
       2397.2437   -0.0084046384
       2398.0430    -0.016110454
       2398.8422    0.0058631966
       2399.6415     0.032555819
       2400.4407     0.017752975
       2401.2400     0.011903131
       2402.0392     0.026078310
       2402.8385    0.0024716528
       2403.6377    0.0055434029
       2404.4369    0.0043781079
       2405.2362    0.0080079059
       2406.0354     0.010903355
       2406.8347    0.0044740327
       2407.6339     0.011498968
       2408.4332     0.042987008
       2409.2324   -0.0025562693
       2410.0317     0.013344328
       2410.8309    -0.012689729
       2411.6301   -0.0047840576
       2412.4294     0.011711591
       2413.2286     0.032097415
       2414.0279   -0.0082652665
       2414.8271     0.027499487
       2415.6264   -0.0088739953
       2416.4256   -0.0019592430
       2417.2249     0.010018459
       2418.0241     0.029656782
       2418.8233    0.0097505246
       2419.6226    -0.018366275
       2420.4218     0.010091102
       2421.2211     0.014233999
       2422.0203    -0.015982909
       2422.8196     0.037904683
       2423.6188     0.033902132
       2424.4181   -0.0090818024
       2425.2173     0.014872604
       2426.0165     0.020492963
       2426.8158    0.0085516018
       2427.6150    -0.028031273
       2428.4143     0.040563176
       2429.2135     0.014769501
       2430.0128     0.022435105
       2430.8120    -0.016508889
       2431.6112     0.012884295
       2432.4105     0.022925902
       2433.2097   -0.0028392036
       2434.0090   -0.0017611455
       2434.8082    -0.013981083
       2435.6075     0.030027854
       2436.4067     0.011081602
       2437.2060    -0.010841538
       2438.0052     0.030265310
       2438.8044     0.017230416
       2439.6037    0.0074340543
       2440.4029    0.0030898882
       2441.2022   -0.0097255218
       2442.0014    0.0087943072
       2442.8007     0.024091205
       2443.5999    0.0036395269
       2444.3992    -0.010892425
       2445.1984    -0.037985130
       2445.9976     0.023433360
       2446.7969     0.015326580
       2447.5961     0.029567901
       2448.3954     0.026078159
       2449.1946     0.026140819
       2449.9939     0.037920602
       2450.7931   -0.0054384701
       2451.5924   -0.0053751769
       2452.3916     0.019113542
       2453.1908    0.0051687453
       2453.9901   -0.0053000639
       2454.7893    -0.010120341
       2455.5886     0.012557987
       2456.3878    -0.010735413
       2457.1871     0.018058290
       2457.9863    0.0024811556
       2458.7856    0.0064199821
       2459.5848     0.015560179
       2460.3840   0.00051008569
       2461.1833     0.026034927
       2461.9825     0.013365451
       2462.7818     0.017145176
       2463.5810    0.0038312236
       2464.3803     0.024014142
       2465.1795     0.031199460
       2465.9788    0.0059477346
       2466.7780     0.015064104
       2467.5772    -0.023078494
       2468.3765   -0.0042670036
       2469.1757    0.0030101501
       2469.9750  -0.00024590637
       2470.7742    -0.023546465
       2471.5735    0.0071388351
       2472.3727     0.015437397
       2473.1720     0.029547827
       2473.9712     0.015156956
       2474.7704   -0.0033133034
       2475.5697     0.016626304
       2476.3689   -0.0036596391
       2477.1682     0.010676711
       2477.9674     0.020305303
       2478.7667     0.024845536
       2479.5659     0.016232532
       2480.3652     0.018199936
       2481.1644   -0.0098826375
       2481.9636     0.015452452
       2482.7629     0.024209285
       2483.5621     0.022479795
       2484.3614    -0.011553490
       2485.1606     0.019380335
       2485.9599     0.016908817
       2486.7591     0.017250297
       2487.5583     0.019824118
       2488.3576     0.042560243
       2489.1568     0.019873563
       2489.9561     0.038365634
       2490.7553    0.0024289150
       2491.5546    -0.010093128
       2492.3538   0.00045587541
       2493.1531     0.031300151
       2493.9523    0.0081025980
       2494.7515    0.0039686996
       2495.5508     0.025484948
       2496.3500     0.025362469
       2497.1493    -0.012981473
       2497.9485    -0.020254060
       2498.7478   -0.0049947846
       2499.5470   -0.0046529423
       2500.3463    -0.019697491
       2501.1455   0.00069027981
       2501.9447     0.013071781
       2502.7440     0.014223317
       2503.5432     0.013954285
       2504.3425   -0.0012083660
       2505.1417    0.0014114422
       2505.9410    0.0099137761
       2506.7402     0.021581745
       2507.5395     0.020637901
       2508.3387   0.00043017311
       2509.1379     0.014638629
       2509.9372     0.016995179
       2510.7364   -0.0015418443
       2511.5357     0.020575279
       2512.3349     0.017443332
       2513.1342     0.016332555
       2513.9334   -0.0013397593
       2514.7327   -0.0097953956
       2515.5319    0.0070490259
       2516.3311     0.010069960
       2517.1304   0.00087438684
       2517.9296   -0.0047142460
       2518.7289     0.037235540
       2519.5281    -0.017566115
       2520.3274     0.017572164
       2521.1266    0.0099032561
       2521.9259     0.013846788
       2522.7251    0.0045965086
       2523.5243     0.011469051
       2524.3236     0.026337992
       2525.1228     0.011849865
       2525.9221     0.018427193
       2526.7213     0.016963401
       2527.5206   -0.0029027850
       2528.3198     0.026138033
       2529.1191    0.0071661250
       2529.9183     0.022811896
       2530.7175    0.0053949762
       2531.5168     0.019272442
       2532.3160     0.035721360
       2533.1153     0.019944265
       2533.9145     0.015441097
       2534.7138   -0.0088979452
       2535.5130    -0.019459092
       2536.3123     0.015105769
       2537.1115   -0.0030383412
       2537.9107    0.0093995556
       2538.7100     0.016762609
       2539.5092    0.0048196803
       2540.3085     0.018189535
       2541.1077    0.0023227083
       2541.9070     0.013769401
       2542.7062     0.020866958
       2543.5055     0.016784610
       2544.3047     0.011571716
       2545.1039     0.021245168
       2545.9032     0.013040349
       2546.7024     0.018566290
       2547.5017    0.0041780906
       2548.3009    0.0095937493
       2549.1002     0.011062250
       2549.8994     0.010622284
       2550.6986     0.016733409
       2551.4979    0.0029547714
       2552.2971    0.0036457181
       2553.0964     0.028407509
       2553.8956    0.0088156903
       2554.6949    0.0054251005
       2555.4941     0.017984311
       2556.2934     0.024148896
       2557.0926     0.013627791
       2557.8918    0.0072325153
       2558.6911    -0.019694240
       2559.4903   -0.0061682968
       2560.2896     0.011217757
       2561.0888     0.034408908
       2561.8881     0.034964494
       2562.6873     0.024362840
       2563.4866     0.014833590
       2564.2858     0.015842127
       2565.0850     0.026157268
       2565.8843    0.0021210112
       2566.6835     0.031123325
       2567.4828    0.0056050430
       2568.2820    0.0083454787
       2569.0813    0.0088576275
       2569.8805    0.0032326083
       2570.6798     0.013220394
       2571.4790     0.011631625
       2572.2782    0.0059350454
       2573.0775   -0.0075420200
       2573.8767     0.012212100
       2574.6760     0.035254623
       2575.4752     0.019603095
       2576.2745     0.030048677
       2577.0737     0.025646820
       2577.8730    0.0075515865
       2578.6722     0.016392634
       2579.4714     0.017200569
       2580.2707     0.026866723
       2581.0699   -0.0022583693
       2581.8692    0.0028552175
       2582.6684     0.025279005
       2583.4677     0.018101855
       2584.2669     0.042846841
       2585.0662     0.029708377
       2585.8654     0.027633469
       2586.6646    0.0078132325
       2587.4639     0.010656351
       2588.2631   -0.0019045581
       2589.0624    -0.015631001
       2589.8616     0.014884138
       2590.6609     0.011753674
       2591.4601   -0.0047995440
       2592.2594     0.020619396
       2593.0586     0.022323234
       2593.8578    0.0064119739
       2594.6571     0.010010036
       2595.4563     0.022280442
       2596.2556     0.029686394
       2597.0548     0.016183489
       2597.8541     0.028696142
       2598.6533     0.012945323
       2599.4526     0.025616450
       2600.2518     0.022608456
       2601.0510    0.0074639912
       2601.8503     0.018797629
       2602.6495    -0.015362968
       2603.4488    0.0077302260
       2604.2480    0.0099868987
       2605.0473    0.0084653223
       2605.8465     0.010242662
       2606.6457   0.00089818238
       2607.4450     0.010087423
       2608.2442    0.0080269906
       2609.0435     0.012761609
       2609.8427     0.012794099
       2610.6420    0.0050580113
       2611.4412    0.0093820313
       2612.2405     0.019422827
       2613.0397     0.015110905
       2613.8389     0.024420378
       2614.6382     0.028140544
       2615.4374     0.021512701
       2616.2367     0.021756204
       2617.0359   -0.0035389053
       2617.8352     0.010917338
       2618.6344    0.0069977047
       2619.4337  -0.00021079831
       2620.2329     0.011904373
       2621.0321     0.014699678
       2621.8314     0.012886268
       2622.6306    0.0044635985
       2623.4299   -0.0020575207
       2624.2291     0.018932117
       2625.0284     0.047206023
       2625.8276     0.013748363
       2626.6269     0.020517448
       2627.4261     0.019794850
       2628.2253     0.010138457
       2629.0246   1.1046271e-05
       2629.8238     0.020894738
       2630.6231     0.024119794
       2631.4223  -0.00035764156
       2632.2216    0.0050590903
       2633.0208   -0.0028043154
       2633.8201   0.00061650787
       2634.6193     0.017660022
       2635.4185     0.033432829
       2636.2178    0.0043014517
       2637.0170     0.027584860
       2637.8163    0.0070324881
       2638.6155     0.014441766
       2639.4148     0.018879329
       2640.2140     0.023814562
       2641.0133     0.013055385
       2641.8125   -0.0011122146
       2642.6117     0.020709139
       2643.4110     0.020007561
       2644.2102     0.011477563
       2645.0095     0.014827783
       2645.8087   -0.0063580723
       2646.6080     0.031489005
       2647.4072    0.0076981349
       2648.2065     0.016106361
       2649.0057    0.0010947721
       2649.8049    0.0086424137
       2650.6042     0.031858503
       2651.4034    0.0070261269
       2652.2027    0.0093986831
       2653.0019    0.0061175165
       2653.8012     0.015969016
       2654.6004     0.012764131
       2655.3997     0.019922661
       2656.1989     0.014469955
       2656.9981     0.020897901
       2657.7974     0.017274284
       2658.5966   -0.0050520656
       2659.3959    0.0070831442
       2660.1951     0.019605258
       2660.9944    0.0077049171
       2661.7936     0.015698887
       2662.5928     0.023038437
       2663.3921    -0.015600461
       2664.1913     0.014487552
       2664.9906   -0.0035430654
       2665.7898     0.022603110
       2666.5891     0.026243447
       2667.3883    0.0045992806
       2668.1876   -0.0066288782
       2668.9868     0.029160452
       2669.7860     0.024535063
       2670.5853     0.010467917
       2671.3845     0.018852195
       2672.1838     0.030203144
       2672.9830    0.0077140323
       2673.7823    0.0019792756
       2674.5815     0.016061567
       2675.3808     0.023473741
       2676.1800   -0.0017972142
       2676.9792    0.0054913974
       2677.7785     0.019242415
       2678.5777     0.016783630
       2679.3770     0.030753047
       2680.1762     0.013078328
       2680.9755   0.00074940092
       2681.7747     0.022988917
       2682.5740     0.018158473
       2683.3732     0.019384891
       2684.1724     0.014069585
       2684.9717     0.017512863
       2685.7709     0.017514128
       2686.5702     0.018156721
       2687.3694    0.0041385219
       2688.1687    0.0070235252
       2688.9679     0.011150326
       2689.7672    0.0040707926
       2690.5664     0.020264388
       2691.3656   -0.0028236521
       2692.1649     0.014648601
       2692.9641     0.014247988
       2693.7634     0.012296604
       2694.5626    0.0053381256
       2695.3619    0.0052910829
       2696.1611     0.027209622
       2696.9604     0.016913275
       2697.7596     0.032849519
       2698.5588    0.0074146257
       2699.3581     0.014828351
       2700.1573    0.0080518270
       2700.9566    0.0091774931
       2701.7558     0.016181111
       2702.5551    0.0046562071
       2703.3543    0.0088649224
       2704.1536     0.014970793
       2704.9528     0.020109776
       2705.7520     0.020053712
       2706.5513     0.017147306
       2707.3505   -0.0014121327
       2708.1498     0.032812093
       2708.9490    -0.014515321
       2709.7483     0.016514151
       2710.5475   -0.0019277933
       2711.3468    0.0023857703
       2712.1460    0.0077767904
       2712.9452     0.014530111
       2713.7445     0.011224840
       2714.5437     0.034408529
       2715.3430     0.010637746
       2716.1422     0.024040913
       2716.9415     0.010582313
       2717.7407     0.021396525
       2718.5400    0.0045840130
       2719.3392     0.015174956
       2720.1384     0.013768129
       2720.9377     0.012679771
       2721.7369     0.024118910
       2722.5362    0.0088431979
       2723.3354     0.015855231
       2724.1347     0.012696818
       2724.9339     0.021160390
       2725.7331    0.0070203615
       2726.5324    0.0057396761
       2727.3316    0.0030132597
       2728.1309     0.033057822
       2728.9301     0.029329789
       2729.7294     0.014674523
       2730.5286     0.023699368
       2731.3279     0.020436234
       2732.1271     0.014151505
       2732.9263     0.024405976
       2733.7256     0.012661952
       2734.5248    0.0066272372
       2735.3241    0.0046432521
       2736.1233   -0.0058443483
       2736.9226     0.015156402
       2737.7218     0.028272420
       2738.5211     0.032398988
       2739.3203     0.027933094
       2740.1195   -0.0019279762
       2740.9188   -0.0082045135
       2741.7180    -0.013884359
       2742.5173    0.0089519891
       2743.3165    0.0074461998
       2744.1158    0.0037731836
       2744.9150   -0.0069887186
       2745.7143     0.014996112
       2746.5135     0.023571587
       2747.3127  -0.00077199321
       2748.1120     0.010420557
       2748.9112    0.0069329639
       2749.7105    0.0014747749
       2750.5097     0.013495914
       2751.3090     0.038623773
       2752.1082     0.021794789
       2752.9075    0.0020190114
       2753.7067   -0.0072000744
       2754.5059     0.036566077
       2755.3052     0.016693038
       2756.1044    0.0071755927
       2756.9037     0.028253224
       2757.7029     0.014533592
       2758.5022    0.0098072450
       2759.3014     0.013885679
       2760.1007     0.013616509
       2760.8999     0.052101111
       2761.6991     0.011184988
       2762.4984     0.017968773
       2763.2976     0.016484136
       2764.0969     0.026108721
       2764.8961     0.030899375
       2765.6954     0.011195106
       2766.4946     0.014648017
       2767.2939   -0.0039236061
       2768.0931     0.019818765
       2768.8923     0.010070731
       2769.6916     0.019930589
       2770.4908    0.0096723030
       2771.2901    0.0028389808
       2772.0893     0.028414034
       2772.8886     0.020426887
       2773.6878    -0.012971522
       2774.4871   -0.0013963410
       2775.2863    0.0087376672
       2776.0855   -0.0058519591
       2776.8848    0.0092982951
       2777.6840     0.010426537
       2778.4833     0.027934861
       2779.2825     0.015813518
       2780.0818     0.038547402
       2780.8810     0.014458721
       2781.6802     0.010010591
       2782.4795     0.015147912
       2783.2787    -0.012365425
       2784.0780   -0.0032805203
       2784.8772    0.0076456209
       2785.6765   -0.0049771858
       2786.4757    0.0088606320
       2787.2750     0.011707145
       2788.0742     0.027177967
       2788.8734     0.025552220
       2789.6727     0.023552543
       2790.4719     0.019870918
       2791.2712   -0.0017148626
       2792.0704    0.0030060690
       2792.8697     0.025206302
       2793.6689  -0.00012595324
       2794.4682    0.0053416034
       2795.2674    0.0097377540
       2796.0666     0.016224358
       2796.8659     0.013832120
       2797.6651     0.010088659
       2798.4644    0.0068734531
       2799.2636     0.018066518
       2800.0629     0.034204959
       2800.8621  -0.00053403152
       2801.6614   -0.0029389534
       2802.4606     0.017589770
       2803.2598    0.0018807702
       2804.0591   -0.0046281099
       2804.8583    0.0094291376
       2805.6576     0.013826355
       2806.4568    0.0019847682
       2807.2561    0.0099870483
       2808.0553     0.028435286
       2808.8546    0.0068207319
       2809.6538    0.0085698944
       2810.4530   -0.0028124681
       2811.2523    0.0034651270
       2812.0515   -0.0049592906
       2812.8508   0.00034715535
       2813.6500     0.012212494
       2814.4493   -0.0029760216
       2815.2485     0.012105884
       2816.0478   -0.0022126133
       2816.8470     0.024270857
       2817.6462     0.018452608
       2818.4455     0.027852654
       2819.2447    0.0070328498
       2820.0440     0.017294618
       2820.8432     0.021997158
       2821.6425     0.017974021
       2822.4417    0.0048390216
       2823.2410     0.012921680
       2824.0402     0.019337470
       2824.8394    0.0090725596
       2825.6387     0.022336341
       2826.4379     0.021684471
       2827.2372   0.00040737244
       2828.0364    0.0086564769
       2828.8357     0.022210822
       2829.6349     0.016503763
       2830.4342   -0.0093684028
       2831.2334     0.024348437
       2832.0326     0.011447067
       2832.8319     0.011254948
       2833.6311     0.026050248
       2834.4304     0.030783542
       2835.2296     0.013440955
       2836.0289     0.014491630
       2836.8281     0.022163797
       2837.6273     0.011330163
       2838.4266     0.016075306
       2839.2258     0.013446434
       2840.0251     0.014386159
       2840.8243    -0.010188786
       2841.6236     0.012772981
       2842.4228     0.024398716
       2843.2221     0.013654475
       2844.0213     0.017019684
       2844.8205   -0.0025183579
       2845.6198     0.022686323
       2846.4190     0.012544241
       2847.2183     0.011999982
       2848.0175     0.012149948
       2848.8168     0.019682737
       2849.6160     0.016793882
       2850.4153    0.0053249665
       2851.2145     0.013544174
       2852.0137     0.014712952
       2852.8130    0.0054313409
       2853.6122    0.0097995948
       2854.4115     0.010828038
       2855.2107    0.0088093037
       2856.0100     0.030255806
       2856.8092     0.018855750
       2857.6085    0.0021653929
       2858.4077   -0.0042601986
       2859.2069     0.011373397
       2860.0062     0.012920892
       2860.8054     0.013277753
       2861.6047     0.016675517
       2862.4039   -0.0057558167
       2863.2032     0.011879353
       2864.0024     0.033009086
       2864.8017   -0.0016977428
       2865.6009    0.0089293705
       2866.4001     0.013234813
       2867.1994   0.00076773551
       2867.9986     0.010328525
       2868.7979    0.0071264240
       2869.5971    0.0076579629
       2870.3964     0.026973249
       2871.1956    0.0066242335
       2871.9949     0.011443572
       2872.7941     0.022248114
       2873.5933    -0.010469924
       2874.3926     0.016068192
       2875.1918    0.0086962204
       2875.9911     0.010075128
       2876.7903     0.011789192
       2877.5896     0.022321416
       2878.3888     0.013233561
       2879.1881     0.028298197
       2879.9873     0.010114643
       2880.7865    0.0074883848
       2881.5858    0.0047001011
       2882.3850     0.017461328
       2883.1843     0.012281013
       2883.9835  -0.00016007025
       2884.7828     0.011691240
       2885.5820     0.018563967
       2886.3813     0.019222310
       2887.1805    0.0088924665
       2887.9797    0.0026712598
       2888.7790     0.015391475
       2889.5782     0.014095851
       2890.3775    0.0057743441
       2891.1767     0.019885735
       2891.9760     0.016505893
       2892.7752    0.0040613807
       2893.5744     0.012745846
       2894.3737     0.034416291
       2895.1729     0.014086671
       2895.9722     0.018239000
       2896.7714    0.0094915830
       2897.5707     0.022780796
       2898.3699     0.026554326
       2899.1692     0.014975274
       2899.9684     0.024693284
       2900.7676     0.019457519
       2901.5669     0.014479612
       2902.3661    0.0015790133
       2903.1654     0.010552713
       2903.9646     0.020133112
       2904.7639     0.010274719
       2905.5631     0.010794108
       2906.3624     0.013136079
       2907.1616    0.0094469374
       2907.9608     0.034806653
       2908.7601    0.0033726952
       2909.5593     0.024232872
       2910.3586  -0.00074538263
       2911.1578     0.010986757
       2911.9571     0.025126978
       2912.7563     0.019744403
       2913.5556     0.014513956
       2914.3548     0.019870057
       2915.1540     0.028167048
       2915.9533     0.019475612
       2916.7525     0.012630335
       2917.5518     0.013874674
       2918.3510     0.034435403
       2919.1503     0.019013149
       2919.9495     0.013140490
       2920.7488     0.021021777
       2921.5480   -0.0044799200
       2922.3472     0.014245664
       2923.1465     0.017924069
       2923.9457     0.019953719
       2924.7450    0.0084666750
       2925.5442     0.012402134
       2926.3435    0.0096287210
       2927.1427     0.016402691
       2927.9420     0.010728519
       2928.7412     0.014780504
       2929.5404    0.0027953128
       2930.3397    0.0093832119
       2931.1389     0.019225205
       2931.9382     0.014179149
       2932.7374     0.012319784
       2933.5367     0.015362661
       2934.3359     0.012722286
       2935.1352     0.010862149
       2935.9344  -0.00054996669
       2936.7336    0.0069841306
       2937.5329     0.012856668
       2938.3321     0.024805947
       2939.1314     0.022220451
       2939.9306     0.011108820
       2940.7299     0.021393173
       2941.5291    0.0093669228
       2942.3284     0.014700470
       2943.1276    0.0072317681
       2943.9268     0.019563737
       2944.7261     0.011192022
       2945.5253    0.0053683636
       2946.3246     0.013145135
       2947.1238     0.033623681
       2947.9231     0.012796022
       2948.7223    0.0012176015
       2949.5216     0.012263093
       2950.3208     0.010705239
       2951.1200    0.0052396120
       2951.9193    0.0055498004
       2952.7185     0.016430159
       2953.5178     0.020490392
       2954.3170    0.0060667069
       2955.1163     0.042684039
       2955.9155    0.0094999355
       2956.7147     0.012256514
       2957.5140     0.027778987
       2958.3132     0.016486409
       2959.1125    0.0073694632
       2959.9117     0.024233867
       2960.7110     0.024156440
       2961.5102    0.0074091636
       2962.3095   -0.0019627268
       2963.1087    0.0074316608
       2963.9079    0.0040568981
       2964.7072     0.029620886
       2965.5064     0.018115640
       2966.3057     0.024929308
       2967.1049    0.0094613377
       2967.9042     0.015175441
       2968.7034     0.018522196
       2969.5027     0.023841615
       2970.3019     0.018229942
       2971.1011    0.0032724655
       2971.9004     0.011243595
       2972.6996     0.018775916
       2973.4989     0.018344691
       2974.2981     0.019116654
       2975.0974     0.011861902
       2975.8966     0.024920987
       2976.6959     0.012816940
       2977.4951     0.033220090
       2978.2943     0.015649445
       2979.0936    0.0070898856
       2979.8928     0.015614942
       2980.6921     0.015143033
       2981.4913    0.0020880807
       2982.2906     0.013977026
       2983.0898     0.022991616
       2983.8891     0.025451485
       2984.6883     0.030545043
       2985.4875     0.010299387
       2986.2868     0.029103563
       2987.0860     0.016223666
       2987.8853    0.0037577305
       2988.6845    0.0043968499
       2989.4838     0.019613786
       2990.2830     0.020680913
       2991.0823    0.0024317677
       2991.8815     0.026282360
       2992.6807     0.030062491
       2993.4800     0.016845373
       2994.2792    0.0071064535
       2995.0785     0.016307817
       2995.8777     0.013533301
       2996.6770     0.017812696
       2997.4762    0.0055560216
       2998.2755     0.012242418
       2999.0747     0.015388774
       2999.8739    0.0067198364
       3000.6732    0.0069456067
       3001.4724    0.0051139289
       3002.2717  -0.00033258036
       3003.0709    0.0089555570
       3003.8702    0.0054374095
       3004.6694    0.0049432734
       3005.4687     0.022227884
       3006.2679     0.019267927
       3007.0671    0.0036194442
       3007.8664     0.022973885
       3008.6656     0.025672518
       3009.4649     0.013730748
       3010.2641     0.016233588
       3011.0634     0.016795560
       3011.8626     0.022126696
       3012.6618     0.018512149
       3013.4611     0.014655294
       3014.2603    0.0075066685
       3015.0596  -0.00053720769
       3015.8588     0.016979126
       3016.6581    0.0067914876
       3017.4573     0.013924967
       3018.2566    0.0059472908
       3019.0558    0.0021488118
       3019.8550     0.014211917
       3020.6543     0.012413738
       3021.4535    0.0029896768
       3022.2528     0.011305256
       3023.0520     0.014401278
       3023.8513     0.017301577
       3024.6505    0.0094620651
       3025.4498     0.035331734
       3026.2490     0.013340267
       3027.0482     0.022516887
       3027.8475    0.0095108352
       3028.6467     0.013782147
       3029.4460    0.0090352099
       3030.2452   -0.0047988733
       3031.0445     0.010327788
       3031.8437     0.025419500
       3032.6430   0.00082432253
       3033.4422     0.010776053
       3034.2414     0.010041942
       3035.0407     0.018722697
       3035.8399     0.015195844
       3036.6392     0.019407074
       3037.4384     0.010371649
       3038.2377     0.028182943
       3039.0369     0.020738528
       3039.8362     0.020842403
       3040.6354    0.0081388776
       3041.4346     0.013249350
       3042.2339     0.016966577
       3043.0331    0.0049292929
       3043.8324     0.031772566
       3044.6316     0.015151621
       3045.4309     0.014340641
       3046.2301     0.011347830
       3047.0294     0.019014952
       3047.8286     0.016974597
       3048.6278     0.014982536
       3049.4271    0.0026263558
       3050.2263     0.028296956
       3051.0256     0.014496694
       3051.8248     0.028284970
       3052.6241     0.019935175
       3053.4233     0.018304446
       3054.2226   -0.0092794894
       3055.0218     0.021533757
       3055.8210     0.023612630
       3056.6203     0.012431825
       3057.4195     0.011114736
       3058.2188     0.013436582
       3059.0180     0.014010215
       3059.8173  -0.00027621361
       3060.6165     0.023646952
       3061.4158     0.030692159
       3062.2150     0.010526780
       3063.0142     0.015552814
       3063.8135     0.011537149
       3064.6127     0.025318272
       3065.4120    0.0090035632
       3066.2112     0.027947515
       3067.0105     0.024736772
       3067.8097     0.020056803
       3068.6089     0.012728019
       3069.4082     0.040039128
       3070.2074   -0.0054778361
       3071.0067     0.014824699
       3071.8059     0.022676729
       3072.6052    0.0087616825
       3073.4044     0.012258073
       3074.2037     0.023659815
       3075.0029     0.010306153
       3075.8021     0.028189438
       3076.6014     0.018563017
       3077.4006    0.0051919674
       3078.1999     0.021977731
       3078.9991    0.0027475104
       3079.7984     0.013080022
       3080.5976     0.010007042
       3081.3969     0.033103574
       3082.1961     0.018110240
       3082.9953     0.026218663
       3083.7946     0.011410316
       3084.5938    0.0060439192
       3085.3931     0.020191599
       3086.1923     0.036768983
       3086.9916     0.015460921
       3087.7908    0.0026126608
       3088.5901   -0.0030260807
       3089.3893    0.0056473801
       3090.1885    0.0084409706
       3090.9878     0.019559266
       3091.7870     0.035924094
       3092.5863     0.019244900
       3093.3855     0.025673232
       3094.1848     0.015307221
       3094.9840     0.019966792
       3095.7833     0.014084540
       3096.5825     0.034513887
       3097.3817     0.016931990
       3098.1810     0.037971652
       3098.9802   -0.0079766549
       3099.7795    0.0070480970
       3100.5787     0.032541262
       3101.3780    0.0044756553
       3102.1772     0.013484460
       3102.9765     0.016739257
       3103.7757     0.020811672
       3104.5749    0.0063338256
       3105.3742    0.0066386034
       3106.1734    0.0042492493
       3106.9727     0.030241930
       3107.7719    0.0093244419
       3108.5712  -0.00042165137
       3109.3704     0.031438641
       3110.1697     0.019212100
       3110.9689   0.00083815533
       3111.7681    0.0011183291
       3112.5674     0.025403853
       3113.3666     0.014010643
       3114.1659   -0.0060698836
       3114.9651   -0.0055215327
       3115.7644    0.0013172042
       3116.5636     0.016810213
       3117.3629     0.018146787
       3118.1621     0.010335521
       3118.9613    0.0027117964
       3119.7606     0.016644722
       3120.5598     0.020975220
       3121.3591     0.026591046
       3122.1583     0.018841525
       3122.9576     0.018496026
       3123.7568     0.018862914
       3124.5561     0.024543788
       3125.3553     0.022186475
       3126.1545     0.017533440
       3126.9538     0.016430455
       3127.7530     0.022603238
       3128.5523     0.024718236
       3129.3515     0.030273990
       3130.1508     0.025984063
       3130.9500    0.0096740572
       3131.7492    0.0076212745
       3132.5485     0.022014083
       3133.3477     0.033860178
       3134.1470  -0.00017042703
       3134.9462    0.0051623928
       3135.7455     0.010096474
       3136.5447     0.031208555
       3137.3440     0.021285173
       3138.1432     0.014263122
       3138.9424     0.015571197
       3139.7417     0.015114801
       3140.5409     0.021102388
       3141.3402     0.023951546
       3142.1394     0.021979873
       3142.9387     0.033763794
       3143.7379     0.025894876
       3144.5372    0.0078222690
       3145.3364     0.031876131
       3146.1356    0.0081283094
       3146.9349     0.039517192
       3147.7341     0.014331695
       3148.5334    0.0059106188
       3149.3326     0.013386745
       3150.1319   -0.0093740385
       3150.9311     0.021460592
       3151.7304     0.020115685
       3152.5296     0.017277969
       3153.3288     0.026847854
       3154.1281     0.021292202
       3154.9273     0.022342046
       3155.7266     0.015541536
       3156.5258   -0.0016868519
       3157.3251     0.019396675
       3158.1243    0.0043189679
       3158.9236   -0.0025668454
       3159.7228     0.022309379
       3160.5220    0.0062814209
       3161.3213    0.0081206179
       3162.1205     0.013293811
       3162.9198     0.014704532
       3163.7190     0.018115373
       3164.5183     0.038898285
       3165.3175    0.0090177174
       3166.1168    0.0053754396
       3166.9160     0.041782578
       3167.7152     0.015015072
       3168.5145     0.016579774
       3169.3137     0.016618174
       3170.1130     0.010172009
       3170.9122     0.030831129
       3171.7115     0.031289206
       3172.5107     0.013098701
       3173.3100    0.0076016904
       3174.1092     0.015828026
       3174.9084    0.0018310552
       3175.7077     0.031913230
       3176.5069     0.028304146
       3177.3062     0.010534885
       3178.1054    0.0072242897
       3178.9047     0.030396615
       3179.7039     0.028787484
       3180.5032     0.026368314
       3181.3024     0.029538156
       3182.1016     0.015089569
       3182.9009    0.0059430932
       3183.7001    0.0045007111
       3184.4994     0.016282355
       3185.2986    0.0064795493
       3186.0979     0.030289407
       3186.8971     0.028674329
       3187.6963     0.015067382
       3188.4956    0.0091985487
       3189.2948    0.0079744138
       3190.0941     0.033748553
       3190.8933     0.018036252
       3191.6926    0.0090757154
       3192.4918    0.0095501436
       3193.2911     0.019113048
       3194.0903     0.012308959
       3194.8895    0.0058283939
       3195.6888     0.014152416
       3196.4880     0.014918861
       3197.2873     0.013124688
       3198.0865    0.0064922394
       3198.8858     0.017045851
       3199.6850  -0.00089845966
       3200.4843     0.022294898
       3201.2835     0.013447967
       3202.0827     0.023657443
       3202.8820    0.0092371919
       3203.6812     0.020427866
       3204.4805   -0.0089739446
       3205.2797    -0.014827451
       3206.0790    0.0056281453
       3206.8782  -0.00098446238
       3207.6775     0.020471860
       3208.4767     0.028045858
       3209.2759     0.025849451
       3210.0752     0.023369911
       3210.8744     0.055815449
       3211.6737     0.011692342
       3212.4729   0.00061647512
       3213.2722     0.027303023
       3214.0714     0.023542289
       3214.8707     0.013280893
       3215.6699     0.030884056
       3216.4691     0.016844906
       3217.2684     0.025320809
       3218.0676     0.031674063
       3218.8669     0.022277096
       3219.6661     0.019982897
       3220.4654   -0.0028750874
       3221.2646     0.017533927
       3222.0639   -0.0042696511
       3222.8631     0.017444441
       3223.6623    0.0069870150
       3224.4616     0.012629268
       3225.2608     0.026315502
       3226.0601    0.0060919224
       3226.8593     0.012981712
       3227.6586    0.0097776560
       3228.4578     0.032206735
       3229.2571     0.020443987
       3230.0563     0.014868407
       3230.8555    0.0072155248
       3231.6548     0.019140035
       3232.4540     0.018436868
       3233.2533     0.031580680
       3234.0525     0.024200129
       3234.8518     0.012090906
       3235.6510     0.029457040
       3236.4503     0.031182698
       3237.2495     0.018998167
       3238.0487     0.029848979
       3238.8480    0.0068674192
       3239.6472     0.011382099
       3240.4465     0.022127848
       3241.2457    0.0083931625
       3242.0450     0.019626482
       3242.8442     0.015778921
       3243.6434     0.011923745
       3244.4427    0.0052599512
       3245.2419     0.029284400
       3246.0412    0.0092155460
       3246.8404   -0.0013997095
       3247.6397     0.024560323
       3248.4389     0.021077182
       3249.2382     0.010616760
       3250.0374     0.012858456
       3250.8366     0.027093826
       3251.6359     0.026660910
       3252.4351    0.0094189316
       3253.2344     0.021158650
       3254.0336     0.019916254
       3254.8329     0.021988309
       3255.6321     0.037562250
       3256.4314     0.019200742
       3257.2306     0.017524815
       3258.0298     0.025906716
       3258.8291     0.011179282
       3259.6283     0.013767080
       3260.4276     0.028108961
       3261.2268    0.0079585785
       3262.0261    0.0019599338
       3262.8253     0.013985824
       3263.6246     0.025277718
       3264.4238     0.037768208
       3265.2230     0.030261732
       3266.0223     0.018670368
       3266.8215     0.031366902
       3267.6208     0.022915418
       3268.4200     0.024549713
       3269.2193     0.015877014
       3270.0185     0.024632563
       3270.8178    0.0054570393
       3271.6170     0.010861504
       3272.4162     0.015270251
       3273.2155    0.0014236134
       3274.0147    0.0040884776
       3274.8140     0.037918289
       3275.6132     0.014820399
       3276.4125     0.027126719
       3277.2117     0.023416590
       3278.0110     0.029578488
       3278.8102    0.0069034469
       3279.6094     0.010642558
       3280.4087     0.011702436
       3281.2079     0.044961595
       3282.0072     0.021543532
       3282.8064    0.0094889103
       3283.6057     0.034999200
       3284.4049   -0.0075732315
       3285.2042     0.012688715
       3286.0034    0.0025855711
       3286.8026    0.0098133532
       3287.6019     0.010050679
       3288.4011     0.021795996
       3289.2004    0.0045973737
       3289.9996     0.019582941
       3290.7989     0.016555187
       3291.5981     0.015406268
       3292.3974     0.016884649
       3293.1966     0.036128734
       3293.9958     0.045866513
       3294.7951     0.030415637
       3295.5943     0.013689603
       3296.3936     0.024121579
       3297.1928     0.039297930
       3297.9921    0.0034898124
       3298.7913    0.0048380532
       3299.5906     0.021271234
       3300.3898     0.024861460
       3301.1890     0.017429175
       3301.9883     0.039172684
       3302.7875     0.022971052
       3303.5868     0.010174159
       3304.3860     0.023853933
       3305.1853     0.031999515
       3305.9845     0.045373896
       3306.7837     0.015148104
       3307.5830     0.019604147
       3308.3822     0.044677058
       3309.1815     0.019682854
       3309.9807    0.0061162855
       3310.7800     0.033548722
       3311.5792     0.017933563
       3312.3785     0.031534182
       3313.1777     0.032962255
       3313.9769    0.0068367342
       3314.7762     0.019708582
       3315.5754     0.016496452
       3316.3747     0.013034860
       3317.1739    0.0074237654
       3317.9732     0.010396564
       3318.7724     0.019807428
       3319.5717     0.016826235
       3320.3709     0.029238039
       3321.1701     0.030387095
       3321.9694    0.0061643564
       3322.7686     0.016604682
       3323.5679    0.0079827470
       3324.3671    0.0099110023
       3325.1664     0.017966905
       3325.9656     0.022773988
       3326.7649    0.0056446938
       3327.5641     0.015537213
       3328.3633     0.012848789
       3329.1626     0.024989316
       3329.9618     0.010070035
       3330.7611     0.014883111
       3331.5603     0.028055940
       3332.3596     0.019690750
       3333.1588    0.0070195104
       3333.9581    0.0074940693
       3334.7573     0.023125259
       3335.5565     0.022447943
       3336.3558     0.015443154
       3337.1550     0.018646400
       3337.9543    0.0091086162
       3338.7535     0.022519277
       3339.5528     0.015992800
       3340.3520     0.018170144
       3341.1513     0.013947003
       3341.9505     0.029399088
       3342.7497     0.010700449
       3343.5490     0.030370387
       3344.3482    0.0062729859
       3345.1475     0.044728247
       3345.9467     0.012355006
       3346.7460     0.015488881
       3347.5452     0.011996066
       3348.3445     0.021099055
       3349.1437     0.018628544
       3349.9429    0.0070906982
       3350.7422     0.015461615
       3351.5414    0.0049112122
       3352.3407     0.010205899
       3353.1399    0.0062784845
       3353.9392     0.028286943
       3354.7384     0.030813141
       3355.5377     0.031973795
       3356.3369     0.036872267
       3357.1361     0.018665928
       3357.9354     0.038905460
       3358.7346     0.021136872
       3359.5339    0.0052540744
       3360.3331     0.027649569
       3361.1324     0.013182067
       3361.9316     0.022231263
       3362.7308     0.024601731
       3363.5301     0.021598429
       3364.3293     0.033477226
       3365.1286     0.019309777
       3365.9278     0.015000457
       3366.7271     0.017799155
       3367.5263     0.021301038
       3368.3256    0.0020382684
       3369.1248     0.036383005
       3369.9240     0.025502115
       3370.7233     0.016630858
       3371.5225    0.0080334394
       3372.3218    0.0052954230
       3373.1210    0.0038242028
       3373.9203     0.016279716
       3374.7195    0.0094991112
       3375.5188     0.021173773
       3376.3180     0.013645886
       3377.1172     0.010001685
       3377.9165     0.015777014
       3378.7157    0.0053563027
       3379.5150     0.017173408
       3380.3142     0.039532582
       3381.1135     0.050309643
       3381.9127     0.012080481
       3382.7120     0.014594550
       3383.5112    0.0092524209
       3384.3104     0.017203742
       3385.1097     0.030797728
       3385.9089    0.0071357401
       3386.7082     0.019450017
       3387.5074     0.015066979
       3388.3067     0.035079072
       3389.1059     0.011476250
       3389.9052    0.0099819027
       3390.7044    0.0073788264
       3391.5036     0.013835128
       3392.3029     0.023614600
       3393.1021     0.021709093
       3393.9014     0.011785234
       3394.7006     0.011363917
       3395.4999    0.0094582102
       3396.2991     0.027319523
       3397.0984     0.043735777
       3397.8976     0.040509609
       3398.6968     0.010736852
       3399.4961     0.031718782
       3400.2953    0.0074548530
       3401.0946     0.039829311
       3401.8938     0.017616846
       3402.6931     0.023946528
       3403.4923     0.041778991
       3404.2916     0.022149445
       3405.0908     0.029501269
       3405.8900     0.018110016
       3406.6893     0.018701832
       3407.4885     0.023216987
       3408.2878     0.016580481
       3409.0870     0.010683769
       3409.8863     0.019139538
       3410.6855    0.0070755671
       3411.4848     0.036757292
       3412.2840     0.021950109
       3413.0832     0.032540606
       3413.8825     0.011044633
       3414.6817     0.016273729
       3415.4810    0.0024747951
       3416.2802     0.020829854
       3417.0795     0.031772363
       3417.8787     0.039229049
       3418.6779    0.0095862089
       3419.4772     0.018654380
       3420.2764     0.016360504
       3421.0757     0.013042890
       3421.8749     0.029305875
       3422.6742     0.016395073
       3423.4734     0.012228776
       3424.2727     0.049548872
       3425.0719     0.034061808
       3425.8711     0.027184717
       3426.6704     0.022331507
       3427.4696    0.0099184857
       3428.2689     0.013945221
       3429.0681     0.030570894
       3429.8674     0.025290903
       3430.6666     0.020855431
       3431.4659     0.018541059
       3432.2651     0.028427458
       3433.0643     0.020303743
       3433.8636     0.040744170
       3434.6628     0.026786533
       3435.4621     0.029156177
       3436.2613     0.031511266
       3437.0606    0.0036409925
       3437.8598     0.026468839
       3438.6591     0.012166447
       3439.4583     0.023497611
       3440.2575     0.026073144
       3441.0568     0.034082282
       3441.8560     0.024511409
       3442.6553     0.028461962
       3443.4545     0.014406814
       3444.2538     0.033889349
       3445.0530     0.019631152
       3445.8523     0.032440831
       3446.6515     0.037983663
       3447.4507     0.010514326
       3448.2500    0.0083479275
       3449.0492     0.021339312
       3449.8485     0.034367732
       3450.6477    0.0053143205
       3451.4470     0.017494561
       3452.2462     0.044015378
       3453.0455   0.00062375173
       3453.8447     0.015776295
       3454.6439     0.012292003
       3455.4432     0.034726877
       3456.2424     0.013866174
       3457.0417    0.0055112989
       3457.8409     0.015296062
       3458.6402     0.025556116
       3459.4394     0.011007167
       3460.2387     0.019332909
       3461.0379     0.013530496
       3461.8371     0.011179582
       3462.6364    0.0088229863
       3463.4356    0.0048347404
       3464.2349     0.017713956
       3465.0341     0.010144180
       3465.8334     0.015057043
       3466.6326     0.013518676
       3467.4319     0.011952081
       3468.2311     0.019492741
       3469.0303   0.00037037886
       3469.8296   -0.0034324633
       3470.6288    0.0030429204
       3471.4281     0.018631613
       3472.2273    0.0045568669
       3473.0266   -0.0024319737
       3473.8258     0.023032225
       3474.6251     0.030871394
       3475.4243    0.0062401250
       3476.2235     0.018866405
       3477.0228     0.036174814
       3477.8220     0.025825184
       3478.6213     0.015732989
       3479.4205     0.016501578
       3480.2198     0.033062509
       3481.0190     0.024152515
       3481.8182     0.025798027
       3482.6175   -0.0015651058
       3483.4167     0.022175962
       3484.2160     0.037726457
       3485.0152    0.0098739554
       3485.8145     0.028875868
       3486.6137  -8.6388586e-05
       3487.4130     0.011019266
       3488.2122     0.010496744
       3489.0114     0.010928355
       3489.8107   -0.0061001319
       3490.6099    0.0085362298
       3491.4092     0.035605718
       3492.2084     0.019015194
       3493.0077     0.033851519
       3493.8069    0.0070346292
       3494.6062     0.022028202
       3495.4054     0.010140934
       3496.2046    0.0015927035
       3497.0039     0.011569949
       3497.8031     0.040391888
       3498.6024     0.012198260
       3499.4016     0.031846005
       3500.2009     0.032624998
       3501.0001     0.026062984
       3501.7994     0.022176550
       3502.5986     0.041949206
       3503.3978     0.012124861
       3504.1971     0.027089361
       3504.9963     0.016710408
       3505.7956     0.050635961
       3506.5948     0.037761792
       3507.3941    0.0086796258
       3508.1933     0.027956271
       3508.9926     0.029884182
       3509.7918     0.028234286
       3510.5910    0.0016336089
       3511.3903     0.018046216
       3512.1895     0.040360515
       3512.9888     0.034628614
       3513.7880     0.039142551
       3514.5873     0.013361635
       3515.3865     0.037389315
       3516.1858     0.023200922
       3516.9850     0.021151543
       3517.7842     0.041291005
       3518.5835     0.019636556
       3519.3827     0.018056973
       3520.1820     0.026828632
       3520.9812     0.051985526
       3521.7805     0.016828731
       3522.5797     0.023893790
       3523.3790     0.024456899
       3524.1782     0.026889634
       3524.9774     0.035808864
       3525.7767     0.014133043
       3526.5759     0.010998087
       3527.3752    0.0024351446
       3528.1744     0.043762040
       3528.9737     0.042292274
       3529.7729     0.019181929
       3530.5722     0.027689157
       3531.3714     0.037335305
       3532.1706     0.041891927
       3532.9699     0.013772739
       3533.7691    0.0067766925
       3534.5684     0.010859621
       3535.3676     0.032037812
       3536.1669     0.016419367
       3536.9661     0.032051013
       3537.7653   -0.0068186308
       3538.5646     0.014807727
       3539.3638     0.035092370
       3540.1631     0.032182023
       3540.9623     0.044276603
       3541.7616     0.039207446
       3542.5608     0.017136252
       3543.3601     0.018258785
       3544.1593     0.022163549
       3544.9585     0.036553072
       3545.7578     0.042562835
       3546.5570     0.018823524
       3547.3563     0.016441791
       3548.1555     0.034530138
       3548.9548    0.0043420464
       3549.7540     0.012091962
       3550.5533     0.049410053
       3551.3525     0.040944213
       3552.1517     0.029510879
       3552.9510     0.016775394
       3553.7502     0.014318662
       3554.5495     0.030214294
       3555.3487     0.047152368
       3556.1480     0.014434307
       3556.9472    0.0015149664
       3557.7465     0.018779123
       3558.5457     0.038243159
       3559.3449     0.027874736
       3560.1442   -0.0052753234
       3560.9434     0.027134689
       3561.7427   -0.0033196140
       3562.5419     0.021419440
       3563.3412   -0.0060382401
       3564.1404     0.023677597
       3564.9397     0.018275744
       3565.7389     0.014318995
       3566.5381     0.010495450
       3567.3374    0.0017891650
       3568.1366     0.024650973
       3568.9359    0.0051350415
       3569.7351     0.027828383
       3570.5344     0.030864195
       3571.3336     0.027761209
       3572.1329     0.011719659
       3572.9321     0.016548741
       3573.7313     0.010192873
       3574.5306    0.0037666050
       3575.3298     0.013695368
       3576.1291     0.026949411
       3576.9283     0.034003156
       3577.7276     0.024142013
       3578.5268     0.011267479
       3579.3261     0.010658206
       3580.1253   -0.0096786089
       3580.9245    0.0061258307
       3581.7238     0.012182823
       3582.5230     0.040432542
       3583.3223   0.00061390506
       3584.1215   -0.0053526118
       3584.9208     0.033449999
       3585.7200     0.027548759
       3586.5193     0.020502227
       3587.3185   -0.0099384257
       3588.1177     0.013994330
       3588.9170     0.016116368
       3589.7162    0.0087893810
       3590.5155     0.011066030
       3591.3147     0.028767374
       3592.1140     0.022005548
       3592.9132     0.028279396
       3593.7124     0.026159328
       3594.5117     0.034116298
       3595.3109   0.00033396593
       3596.1102     0.034200326
       3596.9094     0.020204168
       3597.7087     0.028123327
       3598.5079     0.069093104
       3599.3072     0.052197685
       3600.1064     0.028333923
       3600.9056     0.026062512
       3601.7049     0.014886540
       3602.5041     0.032459073
       3603.3034     0.021483013
       3604.1026     0.014100263
       3604.9019     0.030951548
       3605.7011     0.019141024
       3606.5004   -0.0055430590
       3607.2996     0.030703236
       3608.0988     0.043185905
       3608.8981    0.0080189457
       3609.6973     0.017226324
       3610.4966     0.017458462
       3611.2958     0.025547838
       3612.0951     0.010530572
       3612.8943    0.0080407557
       3613.6936     0.020330720
       3614.4928     0.018294093
       3615.2920     0.010739423
       3616.0913     0.033645414
       3616.8905     0.022923512
       3617.6898     0.026975034
       3618.4890     0.028591852
       3619.2883     0.050023547
       3620.0875     0.037697785
       3620.8868     0.046541523
       3621.6860     0.011384097
       3622.4852     0.010337192
       3623.2845    0.0064695909
       3624.0837     0.013668310
       3624.8830    0.0022685625
       3625.6822     0.059252573
       3626.4815     0.025069442
       3627.2807     0.029616900
       3628.0800     0.034577282
       3628.8792     0.041953730
       3629.6784     0.015859716
       3630.4777     0.030295175
       3631.2769     0.029569127
       3632.0762     0.010652919
       3632.8754     0.028256989
       3633.6747     0.011204608
       3634.4739     0.047663995
       3635.2732    0.0077265666
       3636.0724     0.031374634
       3636.8716     0.040601025
       3637.6709     0.012458573
       3638.4701     0.028974609
       3639.2694     0.012012699
       3640.0686     0.026788007
       3640.8679    -0.011980783
       3641.6671     0.023538285
       3642.4664     0.050264267
       3643.2656     0.012903515
       3644.0648     0.024210796
       3644.8641     0.020638399
       3645.6633     0.010430542
       3646.4626     0.031461679
       3647.2618     0.018502877
       3648.0611     0.032071261
       3648.8603     0.027879013
       3649.6596     0.027494400
       3650.4588     0.028701093
       3651.2580     0.024747030
       3652.0573     0.033012615
       3652.8565    0.0023317790
       3653.6558     0.018814182
       3654.4550     0.013005165
       3655.2543     0.039425611
       3656.0535     0.025446803
       3656.8527     0.039604794
       3657.6520     0.014551707
       3658.4512     0.042879804
       3659.2505     0.021481795
       3660.0497     0.010031643
       3660.8490     0.019738318
       3661.6482     0.039186210
       3662.4475     0.023846669
       3663.2467     0.016047264
       3664.0459     0.037431451
       3664.8452     0.017942566
       3665.6444     0.030004563
       3666.4437     0.056642213
       3667.2429     0.031430251
       3668.0422     0.055835521
       3668.8414     0.037805698
       3669.6407     0.016650842
       3670.4399     0.029653103
       3671.2391     0.033004095
       3672.0384     0.031802993
       3672.8376     0.026117441
       3673.6369     0.021311171
       3674.4361     0.024229659
       3675.2354    0.0053132983
       3676.0346     0.022643529
       3676.8339     0.014726879
       3677.6331   -0.0029376744
       3678.4323     0.025674922
       3679.2316     0.017805019
       3680.0308     0.019297985
       3680.8301     0.026417860
       3681.6293   0.00067483518
       3682.4286     0.052598276
       3683.2278     0.042002995
       3684.0271    -0.024753442
       3684.8263    0.0044060798
       3685.6255    -0.013865987
       3686.4248     0.027579710
       3687.2240    0.0074594056
       3688.0233     0.038467464
       3688.8225     0.026282207
       3689.6218    0.0059867103
       3690.4210     0.010882515
       3691.2203     0.028953955
       3692.0195    0.0091422717
       3692.8187     0.050787200
       3693.6180     0.037018726
       3694.4172     0.029645381
       3695.2165     0.049254878
       3696.0157     0.032434818
       3696.8150     0.026331727
       3697.6142     0.029691874
       3698.4135     0.024444708
       3699.2127     0.040945493
       3700.0119     0.018051632
       3700.8112     0.023233461
       3701.6104    -0.010863229
       3702.4097    0.0096386247
       3703.2089     0.010123796
       3704.0082    0.0074664424
       3704.8074    0.0091743084
       3705.6067     0.029851790
       3706.4059     0.015919386
       3707.2051     0.040140368
       3708.0044     0.032845217
       3708.8036     0.023476863
       3709.6029     0.029537575
       3710.4021     0.019340383
       3711.2014     0.017582406
       3712.0006     0.011297083
       3712.7998     0.031820816
       3713.5991     0.031519284
       3714.3983     0.023049761
       3715.1976     0.025655144
       3715.9968     0.031108153
       3716.7961     0.040989693
       3717.5953     0.027996194
       3718.3946     0.032749915
       3719.1938     0.011014676
       3719.9930     0.016878783
       3720.7923     0.018727731
       3721.5915     0.013250610
       3722.3908     0.040383951
       3723.1900     0.042356924
       3723.9893     0.049530073
       3724.7885     0.065766203
       3725.5878     0.067439205
       3726.3870     0.098261347
       3727.1862     0.073718596
       3727.9855     0.063313623
       3728.7847     0.044309760
       3729.5840     0.065250398
       3730.3832     0.034254885
       3731.1825     0.052240196
       3731.9817     0.030744002
       3732.7810     0.026337708
       3733.5802     0.026914286
       3734.3794    0.0057080040
       3735.1787     0.044204343
       3735.9779   0.00063333450
       3736.7772    0.0089504808
       3737.5764     0.029188320
       3738.3757     0.015091093
       3739.1749     0.046485510
       3739.9742     0.027141958
       3740.7734     0.038708609
       3741.5726     0.052278626
       3742.3719     0.041177058
       3743.1711     0.038399536
       3743.9704     0.028875270
       3744.7696     0.021829904
       3745.5689     0.040083289
       3746.3681     0.037919763
       3747.1674     0.040178789
       3747.9666     0.011115880
       3748.7658     0.018397110
       3749.5651     0.012990297
       3750.3643     0.027800673
       3751.1636    0.0074438297
       3751.9628    0.0024014022
       3752.7621     0.031912169
       3753.5613     0.011887190
       3754.3606     0.019259911
       3755.1598     0.028280805
       3755.9590     0.021740911
       3756.7583     0.026583369
       3757.5575     0.017895579
       3758.3568    0.0075542533
       3759.1560     0.031511444
       3759.9553     0.033908613
       3760.7545     0.028695973
       3761.5538    0.0077933280
       3762.3530     0.029865542
       3763.1522     0.019586271
       3763.9515     0.026436339
       3764.7507     0.020416765
       3765.5500     0.026954363
       3766.3492     0.014564991
       3767.1485     0.046647732
       3767.9477     0.045321576
       3768.7469     0.027980266
       3769.5462    0.0070086295
       3770.3454     0.024636714
       3771.1447     0.024188914
       3771.9439    0.0074162781
       3772.7432     0.042278807
       3773.5424     0.040981540
       3774.3417     0.044349229
       3775.1409     0.033999319
       3775.9401     0.033057948
       3776.7394     0.028151702
       3777.5386     0.036988708
       3778.3379     0.038381369
       3779.1371     0.046382963
       3779.9364     0.035712941
       3780.7356     0.033661757
       3781.5349     0.040732848
       3782.3341     0.031387250
       3783.1333     0.048944620
       3783.9326     0.037887040
       3784.7318     0.055461340
       3785.5311    0.0028113653
       3786.3303     0.018332409
       3787.1296     0.022705310
       3787.9288    0.0048173134
       3788.7281     0.016221498
       3789.5273     0.043286291
       3790.3265     0.022842172
       3791.1258     0.032898852
       3791.9250     0.010791982
       3792.7243     0.024781773
       3793.5235     0.020145787
       3794.3228    -0.019550960
       3795.1220     0.037945204
       3795.9213     0.019257860
       3796.7205     0.035505927
       3797.5197     0.027068525
       3798.3190     0.044836720
       3799.1182     0.020796058
       3799.9175     0.012876960
       3800.7167     0.054518777
       3801.5160     0.037025434
       3802.3152     0.041377526
       3803.1145     0.022494693
       3803.9137     0.041431351
       3804.7129     0.058203227
       3805.5122     0.023226740
       3806.3114     0.031304300
       3807.1107     0.038238502
       3807.9099     0.044240832
       3808.7092     0.018819209
       3809.5084     0.020629272
       3810.3077     0.043569071
       3811.1069     0.041817082
       3811.9061     0.065265470
       3812.7054     0.032857104
       3813.5046     0.046540517
       3814.3039     0.038265863
       3815.1031     0.030940901
       3815.9024     0.036476498
       3816.7016     0.033870636
       3817.5009     0.040853200
       3818.3001     0.057719035
       3819.0993     0.034385243
       3819.8986     0.052247867
       3820.6978     0.044687050
       3821.4971     0.017968010
       3822.2963     0.034664824
       3823.0956     0.036209249
       3823.8948     0.015632430
       3824.6940     0.028948589
       3825.4933     0.036965642
       3826.2925     0.025208059
       3827.0918     0.029994057
       3827.8910     0.014908208
       3828.6903    0.0039955740
       3829.4895   0.00068581421
       3830.2888     0.033418304
       3831.0880    0.0089837005
       3831.8872     0.029313791
       3832.6865     0.047237166
       3833.4857     0.022203634
       3834.2850     0.013952079
       3835.0842     0.042427679
       3835.8835     0.049138804
       3836.6827     0.035655061
       3837.4820     0.049835458
       3838.2812     0.043722416
       3839.0804     0.036786022
       3839.8797     0.032999119
       3840.6789     0.027644547
       3841.4782    0.0019712922
       3842.2774     0.021169497
       3843.0767     0.031153126
       3843.8759     0.039976078
       3844.6752     0.036638278
       3845.4744     0.032693864
       3846.2736     0.033477848
       3847.0729     0.031778513
       3847.8721     0.064058450
       3848.6714     0.078004838
       3849.4706     0.046895496
       3850.2699     0.028127958
       3851.0691     0.043289066
       3851.8684     0.067381493
       3852.6676     0.028794853
       3853.4668     0.030335013
       3854.2661    0.0075617733
       3855.0653     0.025089907
       3855.8646     0.055234283
       3856.6638     0.019083895
       3857.4631     0.042031887
       3858.2623     0.039396688
       3859.0616     0.041689222
       3859.8608     0.032010520
       3860.6600     0.019794070
       3861.4593     0.040347499
       3862.2585     0.014744886
       3863.0578    0.0053143234
       3863.8570     0.027109102
       3864.6563     0.031837184
       3865.4555     0.035240267
       3866.2548     0.028971561
       3867.0540     0.046665121
       3867.8532    0.0033408563
       3868.6525     0.012294283
       3869.4517     0.052992754
       3870.2510     0.023166666
       3871.0502     0.026854742
       3871.8495     0.042354776
       3872.6487     0.087439639
       3873.4480     0.042578831
       3874.2472     0.013070297
       3875.0464     0.015360082
       3875.8457     0.033299860
       3876.6449     0.027741671
       3877.4442     0.017865254
       3878.2434     0.044987070
       3879.0427     0.035786548
       3879.8419     0.028324487
       3880.6412     0.023469762
       3881.4404     0.054768330
       3882.2396     0.024783933
       3883.0389     0.064371178
       3883.8381     0.050881581
       3884.6374     0.012092511
       3885.4366     0.026174819
       3886.2359  -0.00028286608
       3887.0351     0.034629564
       3887.8343     0.037046306
       3888.6336     0.052595770
       3889.4328     0.050704769
       3890.2321     0.022388330
       3891.0313     0.026703444
       3891.8306     0.049586547
       3892.6298     0.040713677
       3893.4291     0.063925119
       3894.2283     0.016620386
       3895.0275     0.030562652
       3895.8268     0.041501320
       3896.6260     0.040223459
       3897.4253     0.013516027
       3898.2245     0.044687678
       3899.0238     0.056120558
       3899.8230     0.052104979
       3900.6223     0.026794519
       3901.4215     0.041452049
       3902.2207     0.045745820
       3903.0200     0.033761236
       3903.8192     0.056392036
       3904.6185     0.040806077
       3905.4177    0.0080824422
       3906.2170     0.025564191
       3907.0162     0.057958132
       3907.8155     0.056871402
       3908.6147     0.022165355
       3909.4139     0.052829977
       3910.2132     0.049165930
       3911.0124     0.015576145
       3911.8117     0.028737875
       3912.6109     0.015095667
       3913.4102    0.0064666632
       3914.2094     0.026551614
       3915.0087     0.013799960
       3915.8079     0.030171176
       3916.6071     0.047367516
       3917.4064     0.035149203
       3918.2056     0.019100399
       3919.0049     0.026475941
       3919.8041     0.033854043
       3920.6034     0.036102971
       3921.4026     0.058356821
       3922.2019     0.052631074
       3923.0011     0.027561116
       3923.8003     0.027106159
       3924.5996     0.021810779
       3925.3988    0.0099774201
       3926.1981     0.014235831
       3926.9973   -0.0062348113
       3927.7966     0.026828629
       3928.5958     0.022727897
       3929.3951     0.037580685
       3930.1943     0.019927391
       3930.9935     0.012549997
       3931.7928     0.034302333
       3932.5920     0.037047571
       3933.3913     0.043868892
       3934.1905     0.055346673
       3934.9898     0.033586242
       3935.7890     0.032549829
       3936.5883     0.038020152
       3937.3875     0.037214994
       3938.1867     0.010990736
       3938.9860     0.047514166
       3939.7852     0.035645082
       3940.5845     0.021986488
       3941.3837   8.7149772e-05
       3942.1830     0.037456670
       3942.9822     0.016753711
       3943.7814     0.041585502
       3944.5807     0.037007824
       3945.3799     0.032095331
       3946.1792     0.049957299
       3946.9784     0.012254988
       3947.7777     0.033997340
       3948.5769     0.013221316
       3949.3762     0.053773081
       3950.1754     0.010038946
       3950.9746     0.067399048
       3951.7739   -0.0026358631
       3952.5731     0.010055439
       3953.3724     0.036827343
       3954.1716     0.034187206
       3954.9709     0.030122255
       3955.7701     0.010294497
       3956.5694     0.059582704
       3957.3686    0.0070223025
       3958.1678     0.022420771
       3958.9671    0.0032560820
       3959.7663    0.0027113294
       3960.5656     0.013229195
       3961.3648     0.017093795
       3962.1641     0.036003105
       3962.9633     0.011219512
       3963.7626     0.054146774
       3964.5618     0.040696355
       3965.3610     0.014462380
       3966.1603     0.036447197
       3966.9595     0.041532509
       3967.7588     0.049316742
       3968.5580     0.047196180
       3969.3573     0.036106608
       3970.1565     0.045995485
       3970.9558     0.032036155
       3971.7550     0.044434935
       3972.5542     0.051604901
       3973.3535     0.031351099
       3974.1527     0.025983086
       3974.9520     0.051832278
       3975.7512     0.049217167
       3976.5505    0.0049276821
       3977.3497     0.036009255
       3978.1490     0.045298673
       3978.9482     0.058645928
       3979.7474     0.045251738
       3980.5467     0.015558141
       3981.3459     0.010748270
       3982.1452     0.030358204
       3982.9444     0.065526846
       3983.7437     0.039870805
       3984.5429   -0.0013189109
       3985.3422     0.020703676
       3986.1414     0.014231638
       3986.9406     0.026756147
       3987.7399     0.036164189
       3988.5391     0.042846132
       3989.3384     0.046484998
       3990.1376     0.046393262
       3990.9369     0.057814883
       3991.7361     0.035636011
       3992.5354     0.045329740
       3993.3346     0.021165848
       3994.1338     0.033614777
       3994.9331     0.033906836
       3995.7323     0.035377304
       3996.5316     0.041848206
       3997.3308     0.013187260
       3998.1301     0.024816229
       3998.9293     0.037885152
       3999.7285     0.045169779
       4000.5278     0.057089014
       4001.3270     0.046073391
       4002.1263     0.035824463
       4002.9255    0.0081934740
       4003.7248     0.021278433
       4004.5240     0.052162589
       4005.3233     0.026519508
       4006.1225     0.055636659
       4006.9217     0.040474647
       4007.7210     0.044667149
       4008.5202     0.022965406
       4009.3195     0.049684804
       4010.1187     0.040480076
       4010.9180     0.027581923
       4011.7172     0.043756096
       4012.5165     0.031853176
       4013.3157     0.043267665
       4014.1149     0.029014439
       4014.9142     0.028382086
       4015.7134     0.012971941
       4016.5127     0.050917930
       4017.3119     0.044788243
       4018.1112     0.049334089
       4018.9104    0.0057229812
       4019.7097     0.059177960
       4020.5089     0.054869954
       4021.3081     0.032447953
       4022.1074     0.047766413
       4022.9066     0.046458597
       4023.7059     0.019962373
       4024.5051     0.020211720
       4025.3044     0.032673575
       4026.1036     0.049221916
       4026.9029     0.052745295
       4027.7021     0.054107400
       4028.5013     0.028049202
       4029.3006     0.051589983
       4030.0998     0.060501762
       4030.8991     0.079721060
       4031.6983     0.080266088
       4032.4976     0.037767589
       4033.2968     0.051988540
       4034.0961     0.027032138
       4034.8953     0.031295694
       4035.6945     0.030362797
       4036.4938     0.038307508
       4037.2930     0.018757583
       4038.0923     0.054890947
       4038.8915     0.032495102
       4039.6908     0.030662285
       4040.4900     0.078078575
       4041.2893     0.059353428
       4042.0885     0.044541620
       4042.8877     0.044831239
       4043.6870     0.027337900
       4044.4862     0.058611894
       4045.2855     0.010824594
       4046.0847     0.035725450
       4046.8840     0.056534921
       4047.6832     0.036288298
       4048.4825     0.040179123
       4049.2817     0.036835633
       4050.0809     0.047046848
       4050.8802     0.041859775
       4051.6794     0.047833535
       4052.4787     0.016379306
       4053.2779     0.012848972
       4054.0772     0.050653535
       4054.8764     0.037176248
       4055.6757     0.066737920
       4056.4749     0.055392208
       4057.2741     0.043047722
       4058.0734     0.025610163
       4058.8726     0.055607441
       4059.6719     0.026591305
       4060.4711     0.062578618
       4061.2704     0.040903840
       4062.0696     0.053939312
       4062.8688   -0.0032806022
       4063.6681     0.049493632
       4064.4673     0.028138448
       4065.2666     0.040883218
       4066.0658     0.058204955
       4066.8651     0.019516401
       4067.6643     0.036205621
       4068.4636     0.047339940
       4069.2628     0.027148436
       4070.0620     0.050905262
       4070.8613     0.044654811
       4071.6605     0.055431573
       4072.4598     0.033845069
       4073.2590     0.026194188
       4074.0583     0.056359856
       4074.8575     0.030451444
       4075.6568     0.035237214
       4076.4560     0.030416748
       4077.2552     0.054502980
       4078.0545     0.020807237
       4078.8537     0.039606411
       4079.6530    0.0043498439
       4080.4522     0.033450277
       4081.2515     0.049492635
       4082.0507     0.052342364
       4082.8500     0.036533693
       4083.6492     0.030267120
       4084.4484     0.044942313
       4085.2477   -0.0062383878
       4086.0469     0.045458345
       4086.8462    0.0023947634
       4087.6454     0.017935024
       4088.4447     0.024288978
       4089.2439     0.032221691
       4090.0432     0.017954781
       4090.8424     0.023565320
       4091.6416     0.021505773
       4092.4409     0.013877024
       4093.2401     0.053844479
       4094.0394    0.0040463571
       4094.8386     0.041525819
       4095.6379     0.037557962
       4096.4371    0.0038369288
       4097.2364   0.00085940284
       4098.0356     0.033827974
       4098.8348     0.020565244
       4099.6341   -0.0047626431
       4100.4333     0.032234222
       4101.2326     0.025875356
       4102.0318     0.012698231
       4102.8311     0.031846927
       4103.6303     0.054948679
       4104.4296     0.022041425
       4105.2288     0.024312896
       4106.0280     0.046144453
       4106.8273    -0.088191075
       4107.6265    -0.016530445
       4108.4258    -0.020291022
       4109.2250   -0.0092046346
       4110.0243     0.075692232
       4110.8235    -0.035850902
       4111.6228     0.020837365
       4112.4220     0.056716023
       4113.2212     0.037411508
       4114.0205     0.016230820
       4114.8197     0.044167200
       4115.6190   -0.0060520156
       4116.4182     0.022439959
       4117.2175     0.050490231
       4118.0167     0.040875357
       4118.8159     0.015913092
       4119.6152     0.016528107
       4120.4144    0.0090304065
       4121.2137     0.048560323
       4122.0129     0.058242860
       4122.8122     0.046464841
       4123.6114     0.017301579
       4124.4107    0.0068994782
       4125.2099     0.027829880
       4126.0091     0.016030587
       4126.8084     0.036641502
       4127.6076     0.027880758
       4128.4069     0.033729018
       4129.2061     0.020839933
       4130.0054     0.053241702
       4130.8046     0.050460140
       4131.6039   -0.0012538388
       4132.4031     0.025920310
       4133.2023     0.034651804
       4134.0016     0.029556734
       4134.8008     0.028682333
       4135.6001     0.046774718
       4136.3993     0.029424305
       4137.1986     0.052589945
       4137.9978     0.033288352
       4138.7971     0.028595370
       4139.5963   -0.0050476099
       4140.3955    0.0027808656
       4141.1948    -0.011574690
       4141.9940     0.010262297
       4142.7933     0.022712720
       4143.5925     0.042875941
       4144.3918     0.030976556
       4145.1910     0.027598181
       4145.9903     0.038170649
       4146.7895     0.011949928
       4147.5887     0.023682578
       4148.3880     0.013453785
       4149.1872     0.027291442
       4149.9865     0.031008406
       4150.7857     0.019755486
       4151.5850   0.00017391332
       4152.3842    -0.018834270
       4153.1835   0.00027137718
       4153.9827    0.0079294530
       4154.7819     0.017926214
       4155.5812     0.054546190
       4156.3804   -0.0086919274
       4157.1797     0.024824088
       4157.9789    0.0019321469
       4158.7782    0.0090042110
       4159.5774     0.028734791
       4160.3767     0.013599305
       4161.1759     0.023782492
       4161.9751   -0.0015012002
       4162.7744     0.023080243
       4163.5736     0.020984132
       4164.3729    0.0046287551
       4165.1721     0.039654254
       4165.9714     0.041819854
       4166.7706     0.023384996
       4167.5699     0.034434366
       4168.3691     0.010757884
       4169.1683     0.028526360
       4169.9676     0.022463529
       4170.7668     0.013224570
       4171.5661   -0.0053490853
       4172.3653    0.0031018690
       4173.1646     0.022300751
       4173.9638    0.0092002414
       4174.7630     0.028102756
       4175.5623    0.0022621215
       4176.3615   -0.0038786396
       4177.1608     0.013177726
       4177.9600    -0.015957833
       4178.7593     0.013532811
       4179.5585     0.040981070
       4180.3578   0.00032450324
       4181.1570     0.026827953
       4181.9562     0.028591515
       4182.7555     0.019597233
       4183.5547     0.016879769
       4184.3540     0.031728891
       4185.1532     0.036436196
       4185.9525     0.010494921
       4186.7517    0.0026806493
       4187.5510    0.0059014356
       4188.3502     0.025289560
       4189.1494    -0.012535854
       4189.9487     0.019600361
       4190.7479     0.042557451
       4191.5472     0.042799891
       4192.3464     0.016339566
       4193.1457    -0.015794866
       4193.9449     0.031023032
       4194.7442     0.018789984
       4195.5434   -0.0093401912
       4196.3426    0.0015908651
       4197.1419     0.012401591
       4515.5961      0.14174297
       4516.4803      0.24879974
       4517.3645      0.17249235
       4518.2486     0.052020185
       4519.1328      0.13775139
       4520.0170      0.17044180
       4520.9011      0.14802916
       4521.7853      0.15167823
       4522.6695     0.075445000
       4523.5536      0.17020315
       4524.4378     0.070994500
       4525.3220     0.071769585
       4526.2061     0.061093170
       4527.0903      0.15681954
       4527.9745     0.094654774
       4528.8586     0.081409928
       4529.7428     0.080190751
       4530.6270      0.21488891
       4531.5111     0.070102326
       4532.3953      0.14106097
       4533.2795      0.14939104
       4534.1636      0.18479066
       4535.0478      0.11327423
       4535.9320      0.12279557
       4536.8162      0.19111475
       4537.7003      0.16492105
       4538.5845     0.090581369
       4539.4687      0.13440101
       4540.3528      0.14009455
       4541.2370      0.16710084
       4542.1212      0.16306000
       4543.0053      0.13520458
       4543.8895      0.20228351
       4544.7737      0.16862909
       4545.6578      0.19881815
       4546.5420      0.13358100
       4547.4262      0.20671354
       4548.3103      0.18375627
       4549.1945     0.098902307
       4550.0787      0.10945458
       4550.9628      0.10961965
       4551.8470      0.17038145
       4552.7312      0.15566989
       4553.6153      0.12647633
       4554.4995      0.14976901
       4555.3837      0.15572135
       4556.2678      0.14335401
       4557.1520      0.10479752
       4558.0362     0.090033575
       4558.9203     0.080016804
       4559.8045      0.12914659
       4560.6887      0.17262731
       4561.5728     0.093010199
       4562.4570      0.13964098
       4563.3412      0.16585163
       4564.2253      0.17056068
       4565.1095      0.12000530
       4565.9937      0.13694631
       4566.8778      0.12494803
       4567.7620      0.18107151
       4568.6462      0.15070536
       4569.5303      0.10706055
       4570.4145      0.12127914
       4571.2987      0.13062994
       4572.1828      0.14416591
       4573.0670      0.11514728
       4573.9512     0.081011348
       4574.8353     0.076826004
       4575.7195      0.12769591
       4576.6037      0.19071876
       4577.4878     0.087658706
       4578.3720      0.15426106
       4579.2562      0.16370634
       4580.1403      0.23037475
       4581.0245      0.18506596
       4581.9087      0.14333407
       4582.7928      0.18295107
       4583.6770      0.18887195
       4584.5612      0.14278770
       4585.4453      0.19000345
       4586.3295     0.072601131
       4587.2137     0.050562973
       4588.0978     0.068517573
       4588.9820      0.17169273
       4589.8662      0.21949523
       4590.7503      0.20921768
       4591.6345      0.26999868
       4592.5187      0.24204506
       4593.4028      0.19585047
       4594.2870      0.19012213
       4595.1712     0.081200941
       4596.0553      0.17253525
       4596.9395      0.19870933
       4597.8237      0.19870947
       4598.7078      0.18898910
       4599.5920      0.14544347
       4600.4762      0.14875650
       4601.3603      0.19370598
       4602.2445      0.15712286
       4603.1287      0.24423318
       4604.0128      0.19506691
       4604.8970      0.22420689
       4605.7812      0.21908573
       4606.6653      0.25133107
       4607.5495      0.28605561
       4608.4337      0.24367015
       4609.3178      0.14139498
       4610.2020      0.23443435
       4611.0862      0.11740905
       4611.9703      0.21305360
       4612.8545      0.19854817
       4613.7387      0.13570305
       4614.6228      0.10953479
       4615.5070      0.11705335
       4616.3912      0.11990832
       4617.2753     0.069886618
       4618.1595      0.12759668
       4619.0437      0.11961515
       4619.9278      0.19478435
       4620.8120      0.22502329
       4621.6962      0.14478746
       4622.5803      0.14024970
       4623.4645      0.14440260
       4624.3487      0.14131052
       4625.2328      0.14318292
       4626.1170      0.15894834
       4627.0012      0.11637879
       4627.8853      0.12589394
       4628.7695      0.14246722
       4629.6537      0.11084898
       4630.5378      0.19590241
       4631.4220      0.11914337
       4632.3062      0.11423475
       4633.1903      0.13135033
       4634.0745      0.29143835
       4634.9587      0.15860267
       4635.8428     0.096226782
       4636.7270      0.11631539
       4637.6112      0.23285534
       4638.4953    -0.017734944
       4639.3795     0.065638469
       4640.2637     0.091051536
       4641.1478    -0.028202028
       4642.0320     -0.32172399
       4642.9162     -0.13941245
       4643.8003      0.17288423
       4644.6845      0.20380094
       4645.5687      0.19947550
       4646.4528      0.12318841
       4647.3370      0.11063014
       4648.2212      0.15012574
       4649.1053      0.12970862
       4649.9895      0.14804002
       4650.8737      0.15706413
       4651.7578      0.13190219
       4652.6420      0.16256087
       4653.5262      0.10780630
       4654.4103      0.19679626
       4655.2945      0.22167885
       4656.1787      0.13875326
       4657.0628      0.12484705
       4657.9470      0.12775631
       4658.8312     0.097803700
       4659.7153      0.23034932
       4660.5995      0.24287151
       4661.4837      0.16860775
       4662.3678      0.20957403
       4663.2520      0.14634157
       4664.1362      0.29651343
       4665.0203      0.10993319
       4665.9045      0.10894418
       4666.7887      0.17744293
       4667.6728      0.16351575
       4668.5570      0.12959108
       4669.4412      0.10386512
       4670.3253      0.17125406
       4671.2095      0.17027052
       4672.0937      0.14645749
       4672.9778      0.10968502
       4673.8620      0.16520090
       4674.7462      0.18766949
       4675.6303      0.19763790
       4676.5145      0.21797597
       4677.3987      0.16150984
       4678.2828      0.15367842
       4679.1670      0.21885948
       4680.0512      0.15197998
       4680.9353      0.11625711
       4681.8195      0.14756274
       4682.7037      0.19437579
       4683.5879      0.10694605
       4684.4720     0.097668940
       4685.3562     0.093798443
       4686.2404      0.14591286
       4687.1245      0.13510899
       4688.0087    -0.042701842
       4688.8929      0.10317577
       4689.7770      0.23101601
       4690.6612      0.14744634
       4691.5454      0.18409526
       4692.4295      0.17642706
       4693.3137      0.10751426
       4694.1979      0.15825519
       4695.0820      0.16016851
       4695.9662      0.25353072
       4696.8504      0.14221821
       4697.7345      0.11001882
       4698.6187      0.12848461
       4699.5029      0.17028383
       4700.3870      0.15857688
       4701.2712      0.10196378
       4702.1554      0.16505411
       4703.0395      0.16726960
       4703.9237     0.098142486
       4704.8079      0.15874711
       4705.6920      0.16597715
       4706.5762      0.13497186
       4707.4604      0.18754475
       4708.3445      0.13998267
       4709.2287      0.10891780
       4710.1129      0.17611561
       4710.9970      0.23701090
       4711.8812      0.11349311
       4712.7654      0.14391373
       4713.6495      0.13049009
       4714.5337     0.087891580
       4715.4179      0.15352964
       4716.3020      0.12248570
       4717.1862      0.12821441
       4718.0704      0.18709635
       4718.9545      0.18322622
       4719.8387      0.14002624
       4720.7229      0.12063378
       4721.6070      0.11863247
       4722.4912      0.15887573
       4723.3754      0.17519448
       4724.2595      0.20048068
       4725.1437      0.12987468
       4726.0279      0.10765180
       4726.9120      0.11910522
       4727.7962      0.12527039
       4728.6804      0.13991351
       4729.5645      0.16985748
       4730.4487      0.12124859
       4731.3329      0.11347851
       4732.2170      0.18619815
       4733.1012      0.18330047
       4733.9854      0.26354945
       4734.8695      0.18263037
       4735.7537      0.20593502
       4736.6379      0.20674504
       4737.5220      0.17505685
       4738.4062      0.19503824
       4739.2904      0.18866278
       4740.1745      0.18299946
       4741.0587      0.12728052
       4741.9429     0.097246517
       4742.8270      0.15190568
       4743.7112      0.17986544
       4744.5954      0.12709753
       4745.4795      0.19041616
       4746.3637      0.20631333
       4747.2479     0.069887211
       4748.1320      0.22782188
       4749.0162      0.11031360
       4749.9004      0.16594672
       4750.7845      0.19144811
       4751.6687      0.21905996
       4752.5529      0.14000917
       4753.4370      0.12992212
       4754.3212      0.16982365
       4755.2054      0.21865697
       4756.0895      0.16868125
       4756.9737      0.19161265
       4757.8579      0.22972020
       4758.7420      0.11403632
       4759.6262      0.14718936
       4760.5104      0.15754167
       4761.3945      0.11031122
       4762.2787      0.13308962
       4763.1629      0.19218640
       4764.0470     0.096720656
       4764.9312      0.16503713
       4765.8154      0.18811555
       4766.6995      0.20058554
       4767.5837      0.14536365
       4768.4679      0.10244683
       4769.3520     0.082532440
       4770.2362      0.11014221
       4771.1204      0.12452297
       4772.0045      0.19316417
       4772.8887      0.13598199
       4773.7729      0.15395768
       4774.6570      0.18152543
       4775.5412      0.16413779
       4776.4254      0.12396083
       4777.3095      0.20358266
       4778.1937      0.12456637
       4779.0779      0.16462674
       4779.9620      0.15889786
       4780.8462      0.18058781
       4781.7304      0.13804454
       4782.6145      0.15596949
       4783.4987      0.12871776
       4784.3829      0.13984651
       4785.2670      0.17867785
       4786.1512      0.12998966
       4787.0354      0.15493041
       4787.9195      0.15877131
       4788.8037      0.14617298
       4789.6879      0.16412611
       4790.5720      0.15434953
       4791.4562      0.21346571
       4792.3404      0.12843214
       4793.2245      0.15743143
       4794.1087      0.20079006
       4794.9929      0.13790263
       4795.8770      0.18062411
       4796.7612      0.16671703
       4797.6454      0.21698356
       4798.5295      0.15929874
       4799.4137      0.21182383
       4800.2979      0.18309820
       4801.1820      0.11124403
       4802.0662      0.12448248
       4802.9504      0.14741587
       4803.8345      0.14280972
       4804.7187      0.16869865
       4805.6029      0.13809520
       4806.4870      0.18195689
       4807.3712     0.096121954
       4808.2554      0.13680019
       4809.1395      0.17141503
       4810.0237      0.17719027
       4810.9079      0.21044486
       4811.7920     0.093213238
       4812.6762     0.074274620
       4813.5604      0.17980522
       4814.4445      0.12563710
       4815.3287     0.062652200
       4816.2129      0.15091234
       4817.0970      0.22127346
       4817.9812      0.10159722
       4818.8654      0.19545856
       4819.7495      0.16890996
       4820.6337      0.11675738
       4821.5179      0.11891285
       4822.4020      0.12514574
       4823.2862      0.11213682
       4824.1704      0.21060108
       4825.0545      0.11816036
       4825.9387      0.19676598
       4826.8229      0.16080189
       4827.7070      0.16897934
       4828.5912     0.090094934
       4829.4754      0.13664009
       4830.3596     0.093066131
       4831.2437      0.11903717
       4832.1279      0.20152224
       4833.0121      0.14495539
       4833.8962      0.19486750
       4834.7804      0.25061549
       4835.6646      0.17218216
       4836.5487      0.19786510
       4837.4329      0.16217211
       4838.3171      0.15926229
       4839.2012      0.16815751
       4840.0854      0.11209781
       4840.9696      0.12575501
       4841.8537      0.15132449
       4842.7379     0.093545121
       4843.6221      0.14675158
       4844.5062      0.14494064
       4845.3904      0.18169283
       4846.2746      0.12521618
       4847.1587      0.14272427
       4848.0429     0.083367527
       4848.9271     0.090051531
       4849.8112      0.10204448
       4850.6954      0.11585977
       4851.5796      0.16864077
       4852.4637      0.34431119
       4853.3479      0.26387111
       4854.2321      0.29495309
       4855.1162      0.38668166
       4856.0004      0.23735976
       4856.8846      0.28246644
       4857.7687      0.27413026
       4858.6529      0.15327471
       4859.5371      0.11371547
       4860.4212     0.078301612
       4861.3054      0.11181927
       4862.1896     0.098424837
       4863.0737      0.11281696
       4863.9579      0.22303780
       4864.8421      0.17345817
       4865.7262      0.16292415
       4866.6104      0.21148945
       4867.4946      0.11575636
       4868.3787     0.091467451
       4869.2629      0.15764946
       4870.1471      0.20067133
       4871.0312      0.16922952
       4871.9154      0.17087496
       4872.7996    -0.084711552
       4873.6837     -0.92014211
       4874.5679     -0.20466896
       4875.4521     0.078993789
       4876.3362      0.14137798
       4877.2204      0.21759851
       4878.1046      0.10276125
       4878.9887      0.15815185
       4879.8729      0.13782109
       4880.7571      0.11955340
       4881.6412      0.16181835
       4882.5254      0.11816773
       4883.4096      0.16422110
       4884.2937      0.14699656
       4885.1779      0.20587157
       4886.0621      0.14226178
       4886.9462      0.14909483
       4887.8304      0.16621309
       4888.7146      0.14287769
       4889.5987      0.15038940
       4890.4829     0.078867814
       4891.3671      0.22183117
       4892.2512      0.20725223
       4893.1354      0.16679518
       4894.0196      0.18270535
       4894.9037      0.14919904
       4895.7879      0.14384439
       4896.6721      0.10977326
       4897.5562      0.20152344
       4898.4404      0.14781922
       4899.3246      0.17127402
       4900.2087      0.15310313
       4901.0929      0.17965551
       4901.9771      0.16739419
       4902.8612      0.14394940
       4903.7454      0.10545401
       4904.6296     0.088016647
       4905.5137      0.11792384
       4906.3979      0.19821976
       4907.2821      0.14883099
       4908.1662      0.16522919
       4909.0504      0.12933826
       4909.9346      0.14125366
       4910.8187     0.083082782
       4911.7029     0.089545679
       4912.5871      0.15719093
       4913.4712      0.19945303
       4914.3554      0.17296919
       4915.2396      0.15686740
       4916.1237      0.12165594
       4917.0079      0.12649928
       4917.8921      0.11275807
       4918.7762      0.13172346
       4919.6604      0.16301975
       4920.5446      0.13117876
       4921.4287      0.16979661
       4922.3129      0.12822147
       4923.1971      0.18099446
       4924.0812      0.10871316
       4924.9654      0.16393272
       4925.8496      0.12376387
       4926.7337      0.16073245
       4927.6179      0.19844039
       4928.5021      0.14106026
       4929.3862     0.096169447
       4930.2704      0.14659151
       4931.1546      0.17532492
       4932.0387      0.15578503
       4932.9229      0.20280220
       4933.8071      0.20510560
       4934.6912      0.14579874
       4935.5754      0.11016688
       4936.4596      0.14394116
       4937.3437      0.18471236
       4938.2279      0.14587553
       4939.1121      0.25686171
       4939.9962     0.078578071
       4940.8804      0.13165263
       4941.7646      0.17585950
       4942.6487      0.20046667
       4943.5329      0.20350104
       4944.4171      0.13704767
       4945.3012     0.058767974
       4946.1854      0.12355470
       4947.0696      0.17361029
       4947.9537      0.12466119
       4948.8379      0.15502950
       4949.7221      0.15714778
       4950.6062      0.18420198
       4951.4904      0.16304639
       4952.3746      0.14376899
       4953.2587      0.18451394
       4954.1429      0.10429930
       4955.0271      0.15602903
       4955.9112      0.17852583
       4956.7954      0.20313733
       4957.6796      0.13091363
       4958.5637      0.20675380
       4959.4479      0.17041661
       4960.3321      0.12251581
       4961.2162     0.092706863
       4962.1004      0.12849792
       4962.9846      0.13203456
       4963.8687      0.17416645
       4964.7529      0.17386418
       4965.6371      0.14742555
       4966.5212      0.20480886
       4967.4054      0.16286463
       4968.2896      0.15255933
       4969.1737      0.13042879
       4970.0579      0.21550811
       4970.9421      0.11752405
       4971.8262      0.15046373
       4972.7104      0.18806843
       4973.5946      0.11132154
       4974.4788      0.10918159
       4975.3629      0.13399660
       4976.2471      0.12230281
       4977.1313     0.094789850
       4978.0154     0.096077100
       4978.8996      0.11569267
       4979.7838     0.095052663
       4980.6679     0.069262103
       4981.5521     0.064391201
       4982.4363     0.089336324
       4983.3204     0.073131286
       4984.2046     0.079538648
       4985.0888     0.080006249
       4985.9729     0.086579034
       4986.8571     0.090119233
       4987.7413     0.086529633
       4988.6254      0.11266386
       4989.5096      0.10971255
       4990.3938      0.10223886
       4991.2779      0.12476413
       4992.1621      0.13421486
       4993.0463      0.12043507
       4993.9304      0.12306466
       4994.8146      0.16204888
       4995.6988      0.14471236
       4996.5829      0.16873738
       4997.4671      0.19091447
       4998.3513      0.11638559
       4999.2354      0.20166684
       5000.1196      0.16252866
       5001.0038      0.17138633
       5001.8879      0.12146115
       5002.7721      0.12798163
       5003.6563     0.055478430
       5004.5404      0.14956733
       5005.4246      0.17230984
       5006.3088      0.13582136
       5007.1929      0.18706028
       5008.0771      0.21755534
       5008.9613      0.19258710
       5009.8454      0.12426420
       5010.7296      0.13961906
       5011.6138      0.18267238
       5012.4979     0.077401523
       5013.3821      0.13804221
       5014.2663     0.093179681
       5015.1504      0.19230863
       5016.0346      0.21669188
       5016.9188      0.12241617
       5017.8029      0.17565200
       5018.6871      0.12044148
       5019.5713      0.19091270
       5020.4554      0.17438929
       5021.3396      0.19764371
       5022.2238      0.14132624
       5023.1079      0.17806554
       5023.9921      0.18855189
       5024.8763      0.11735588
       5025.7604      0.16953832
       5026.6446      0.21066260
       5027.5288      0.17442845
       5028.4129      0.15846793
       5029.2971      0.13456377
       5030.1813      0.17322425
       5031.0654      0.23892443
       5031.9496      0.17501792
       5032.8338      0.20585115
       5033.7179      0.12357188
       5034.6021      0.16735918
       5035.4863      0.18487119
       5036.3704      0.11593044
       5037.2546      0.15005152
       5038.1388      0.15773034
       5039.0229      0.14308967
       5039.9071     0.081584597
       5040.7913      0.13732219
       5041.6754      0.12873559
       5042.5596      0.12652251
       5043.4438      0.16636566
       5044.3279      0.12252135
       5045.2121      0.13050680
       5046.0963     0.095342481
       5046.9804      0.14247044
       5047.8646      0.16224310
       5048.7488      0.13253174
       5049.6329      0.13052266
       5050.5171      0.17164537
       5051.4013      0.23507326
       5052.2854      0.26942799
       5053.1696      0.10371014
       5054.0538      0.11887278
       5054.9379      0.14133872
       5055.8221      0.17144631
       5056.7063      0.14444873
       5057.5904      0.10630206
       5058.4746      0.16555830
       5059.3588     0.097303320
       5060.2429      0.20602233
       5061.1271      0.14495726
       5062.0113      0.15047062
       5062.8954      0.14597991
       5063.7796      0.16409623
       5064.6638      0.21132934
       5065.5479      0.19381468
       5066.4321      0.14091189
       5067.3163      0.22009396
       5068.2004      0.20372115
       5069.0846      0.28890674
       5069.9688      0.17828709
       5070.8529      0.17010944
       5071.7371      0.19250236
       5072.6213      0.26630341
       5073.5054      0.29719241
       5074.3896      0.23805646
       5075.2738      0.20232352
       5076.1579      0.18732538
       5077.0421      0.16245937
       5077.9263      0.16115586
       5078.8104     0.093160183
       5079.6946      0.20404100
       5080.5788      0.12552877
       5081.4629      0.12382623
       5082.3471      0.13080023
       5083.2313      0.10266098
       5084.1154     0.090646947
       5084.9996      0.16431402
       5085.8838      0.17819960
       5086.7679     0.042238567
       5087.6521      0.11632015
       5088.5363      0.13402448
       5089.4204      0.13137758
       5090.3046      0.21092208
       5091.1888      0.13122675
       5092.0729      0.14120388
       5092.9571      0.15967372
       5093.8413      0.12700213
       5094.7254      0.18354464
       5095.6096      0.12362079
       5096.4938      0.21181814
       5097.3779      0.16424616
       5098.2621      0.11588389
       5099.1463      0.15466968
       5100.0304      0.17204697
       5100.9146     0.085472469
       5101.7988      0.15100309
       5102.6829      0.19078296
       5103.5671      0.16548502
       5104.4513      0.14167249
       5105.3354      0.18413874
       5106.2196      0.13505449
       5107.1038      0.18294042
       5107.9879      0.14815734
       5108.8721      0.20868331
       5109.7563      0.11215350
       5110.6404      0.14996299
       5111.5246      0.22161142
       5112.4088      0.14248558
       5113.2929      0.17643521
       5114.1771      0.26034919
       5115.0613      0.16825323
       5115.9454      0.13643577
       5116.8296      0.16088473
       5117.7138      0.22963409
       5118.5979      0.17361486
       5119.4821     0.061684026
       5120.3663     0.075086567
       5121.2505      0.11031422
       5122.1346      0.17747780
       5123.0188     0.069983184
       5123.9030      0.11949452
       5124.7871      0.16640188
       5125.6713      0.12593146
       5126.5555      0.15630949
       5127.4396     0.088048404
       5128.3238      0.18716775
       5129.2080     0.079971055
       5130.0921      0.15051462
       5130.9763      0.15867582
       5131.8605      0.10895882
       5132.7446      0.20204648
       5133.6288      0.12420094
       5134.5130      0.12467665
       5135.3971      0.14906510
       5136.2813      0.16470533
       5137.1655      0.21145602
       5138.0496      0.14206064
       5138.9338      0.19324494
       5139.8180      0.14710897
       5140.7021      0.17119218
       5141.5863      0.14817954
       5142.4705      0.10325143
       5143.3546      0.15188680
       5144.2388      0.14762441
       5145.1230      0.17566245
       5146.0071     0.084458921
       5146.8913      0.15922859
       5147.7755      0.18240480
       5148.6596      0.14805181
       5149.5438      0.10921176
       5150.4280     0.078125248
       5151.3121      0.18164083
       5152.1963      0.19635593
       5153.0805     0.074632742
       5153.9646      0.16055155
       5154.8488      0.13181900
       5155.7330      0.12569516
       5156.6171      0.11409524
       5157.5013      0.15813229
       5158.3855      0.13580198
       5159.2696      0.19075815
       5160.1538      0.11615763
       5161.0380      0.17766946
       5161.9221      0.21808165
       5162.8063      0.15762646
       5163.6905      0.18556669
       5164.5746      0.20009913
       5165.4588      0.17527112
       5166.3430      0.16606810
       5167.2271      0.23499895
       5168.1113      0.18625938
       5168.9955      0.12026299
       5169.8796     0.086062178
       5170.7638      0.10266710
       5171.6480      0.17489995
       5172.5321     0.087269728
       5173.4163     0.098445702
       5174.3005      0.17148297
       5175.1846      0.10917726
       5176.0688      0.15185263
       5176.9530      0.15694843
       5177.8371      0.16872450
       5178.7213      0.20755137
       5179.6055      0.17777804
       5180.4896      0.12334626
       5181.3738      0.11723625
       5182.2580      0.16902564
       5183.1421      0.18243057
       5184.0263      0.14847629
       5184.9105      0.10897712
       5185.7946      0.12382582
       5186.6788      0.19727604
       5187.5630      0.15988828
       5188.4471      0.14679773
       5189.3313      0.20605869
       5190.2155      0.15876696
       5191.0996      0.17995339
       5191.9838      0.11682292
       5192.8680      0.11331197
       5193.7521      0.15525511
       5194.6363      0.16118573
       5195.5205     0.071271743
       5196.4046      0.13558982
       5197.2888      0.13474557
       5198.1730      0.22350410
       5199.0571      0.18658998
       5199.9413     0.096901608
       5200.8255      0.12691348
       5201.7096      0.21501648
       5202.5938      0.10191213
       5203.4780      0.21261340
       5204.3621      0.19827419
       5205.2463      0.12337297
       5206.1305      0.17060289
       5207.0146      0.17818530
       5207.8988      0.19917953
       5208.7830      0.18560748
       5209.6671     0.096024513
       5210.5513      0.18956513
       5211.4355      0.11324733
       5212.3196      0.18526634
       5213.2038      0.13018213
       5214.0880      0.11978239
       5214.9721      0.12835827
       5215.8563      0.16797832
       5216.7405      0.13046694
       5217.6246      0.13475157
       5218.5088     0.087013674
       5219.3930     0.097970056
       5220.2771      0.19335979
       5221.1613      0.15392146
       5222.0455      0.13033391
       5222.9296      0.20338074
       5223.8138      0.17416760
       5224.6980      0.17706126
       5225.5821      0.18182186
       5226.4663      0.12219251
       5227.3505      0.10928717
       5228.2346      0.12868981
       5229.1188      0.14256737
       5230.0030      0.11601370
       5230.8871      0.12298081
       5231.7713      0.18150004
       5232.6555      0.15308145
       5233.5396      0.18227545
       5234.4238      0.15914165
       5235.3080      0.16769618
       5236.1921      0.20358289
       5237.0763      0.17318047
       5237.9605      0.13363789
       5238.8446     0.099826937
       5239.7288     0.085333813
       5240.6130      0.18679086
       5241.4971      0.14829916
       5242.3813      0.17560418
       5243.2655      0.16487737
       5244.1496      0.14077619
       5245.0338      0.13116590
       5245.9180      0.20125107
       5246.8021      0.19781572
       5247.6863      0.18570639
       5248.5705      0.20247494
       5249.4546      0.15744519
       5250.3388      0.15055501
       5251.2230      0.14153298
       5252.1071      0.19851118
       5252.9913      0.17004198
       5253.8755      0.21277123
       5254.7596      0.26085488
       5255.6438      0.12962776
       5256.5280      0.12929217
       5257.4121      0.16845564
       5258.2963      0.17663823
       5259.1805      0.15825603
       5260.0646      0.11442177
       5260.9488      0.13801853
       5261.8330      0.19228487
       5262.7171      0.21540229
       5263.6013      0.12650764
       5264.4855      0.20694582
       5265.3696      0.17681473
       5266.2538      0.20540998
       5267.1380      0.22818265
       5268.0222      0.15579922
       5268.9063      0.21516804
       5269.7905      0.14807599
       5270.6747      0.10537803
       5271.5588      0.20917120
       5272.4430      0.17985322
       5273.3272      0.13543180
       5274.2113      0.23593168
       5275.0955      0.16523835
       5275.9797      0.12307525
       5276.8638      0.20034899
       5277.7480      0.10880365
       5278.6322      0.17885219
       5279.5163      0.14830046
       5280.4005      0.13193339
       5281.2847      0.14366787
       5282.1688      0.22200075
       5283.0530      0.19175378
       5283.9372     0.099494384
       5284.8213      0.19374500
       5285.7055      0.20118101
       5286.5897      0.16608133
       5287.4738      0.20478977
       5288.3580      0.13154069
       5289.2422      0.11038488
       5290.1263      0.15428260
       5291.0105      0.17590038
       5291.8947      0.17507082
       5292.7788      0.21172451
       5293.6630      0.22473873
       5294.5472      0.16230091
       5295.4313      0.15266689
       5296.3155      0.12262850
       5297.1997      0.14689381
       5298.0838      0.17347893
       5298.9680      0.18408507
       5299.8522      0.18328050
       5300.7363      0.24075722
       5301.6205      0.27844941
       5302.5047      0.23151659
       5303.3888      0.19899297
       5304.2730      0.16308106
       5305.1572      0.14502325
       5306.0413      0.22659872
       5306.9255      0.17266343
       5307.8097      0.19025674
       5308.6938      0.14303684
       5309.5780      0.16086835
       5310.4622      0.13737911
       5311.3463      0.15931916
       5312.2305      0.19817770
       5313.1147      0.21500814
       5313.9988      0.15564577
       5314.8830      0.25687020
       5315.7672      0.20066457
       5316.6513      0.14037418
       5317.5355      0.11867498
       5318.4197      0.17613111
       5319.3038      0.15735480
       5320.1880      0.15558871
       5321.0722      0.17421002
       5321.9563      0.15922259
       5322.8405      0.14925721
       5323.7247      0.24645706
       5324.6088      0.16075370
       5325.4930      0.19689671
       5326.3772      0.13784401
       5327.2613      0.21427810
       5328.1455      0.15225706
       5329.0297      0.13286689
       5329.9138      0.12371335
       5330.7980      0.13450056
       5331.6822      0.18652818
       5332.5663      0.22298701
       5333.4505      0.17648118
       5334.3347      0.21658579
       5335.2188      0.16692876
       5336.1030      0.13460541
       5336.9872      0.19250222
       5337.8713      0.20294736
       5338.7555      0.12577556
       5339.6397      0.18387237
       5340.5238     0.087269741
       5341.4080      0.18842411
       5342.2922      0.16625067
       5343.1763      0.19408501
       5344.0605      0.18535288
       5344.9447      0.15132943
       5345.8288      0.22386276
       5346.7130      0.16029444
       5347.5972      0.15007137
       5348.4813      0.15248151
       5349.3655      0.15377256
       5350.2497      0.14544917
       5351.1338      0.16590998
       5352.0180      0.11901218
       5352.9022      0.13777555
       5353.7863     0.098939814
       5354.6705      0.15926388
       5355.5547      0.10014457
       5356.4388      0.18827450
       5357.3230      0.21935984
       5358.2072      0.26521704
       5359.0913      0.14815025
       5359.9755     0.095550608
       5360.8597      0.13406054
       5361.7438      0.17550120
       5362.6280      0.22659867
       5363.5122      0.21545373
       5364.3963      0.17569596
       5365.2805      0.15933600
       5366.1647      0.19973305
       5367.0488      0.18748144
       5367.9330      0.19327637
       5368.8172     0.082373465
       5369.7013      0.11612335
       5370.5855      0.17989524
       5371.4697      0.13273454
       5372.3538      0.18410184
       5373.2380      0.26072727
       5374.1222      0.19950278
       5375.0063      0.20710314
       5375.8905      0.14797828
       5376.7747      0.20311639
       5377.6588      0.19468487
       5378.5430      0.17091694
       5379.4272      0.13739172
       5380.3113      0.14345882
       5381.1955      0.16540988
       5382.0797      0.18712134
       5382.9638      0.11579364
       5383.8480      0.24119248
       5384.7322      0.11392557
       5385.6163      0.13246888
       5386.5005      0.17645929
       5387.3847      0.17861599
       5388.2688      0.10316611
       5389.1530      0.12241822
       5390.0372      0.18962363
       5390.9213      0.18596014
       5391.8055      0.18799288
       5392.6897      0.21551160
       5393.5738      0.21191146
       5394.4580      0.35850004
       5395.3422      0.82741826
       5396.2263      0.43427129
       5397.1105      0.23905713
       5397.9947      0.25782273
       5398.8788      0.23858926
       5399.7630      0.18941175
       5400.6472      0.19849338
       5401.5313      0.23057020
       5402.4155      0.19195439
       5403.2997      0.19363633
       5404.1838      0.20556761
       5405.0680      0.19475235
       5405.9522      0.15994417
       5406.8363      0.20695869
       5407.7205      0.17001610
       5408.6047      0.20977318
       5409.4888      0.15173079
       5410.3730      0.17205073
       5411.2572      0.17473508
       5412.1414      0.14474751
       5413.0255      0.19654881
       5413.9097      0.19210789
       5414.7939     0.053705396
       5415.6780      0.20231649
       5416.5622     0.043465153
       5417.4464     0.078521277
       5418.3305      0.20048722
       5419.2147      0.21128349
       5420.0989      0.26039551
       5420.9830      0.19167483
       5421.8672      0.14192231
       5422.7514      0.25159657
       5423.6355      0.20485491
       5424.5197      0.17579993
       5425.4039      0.25126491
       5426.2880      0.26286866
       5427.1722      0.10818376
       5428.0564      0.20097303
       5428.9405      0.21883145
       5429.8247      0.20552587
       5430.7089      0.15979122
       5431.5930     0.089474382
       5432.4772      0.23544997
       5433.3614      0.20384965
       5434.2455      0.14283491
       5435.1297      0.14519907
       5436.0139      0.12681103
       5436.8980      0.13528793
       5437.7822      0.11504460
       5438.6664      0.15023562
       5439.5505      0.19390484
       5440.4347      0.16685437
       5441.3189      0.13792457
       5442.2030      0.11546804
       5443.0872      0.20059027
       5443.9714      0.14085631
       5444.8555      0.12727825
       5445.7397      0.20477428
       5446.6239      0.15045499
       5447.5080      0.15929069
       5448.3922      0.16264090
       5449.2764      0.13924967
       5450.1605      0.14765673
       5451.0447      0.18017834
       5451.9289      0.15580104
       5452.8130      0.15298733
       5453.6972      0.15159224
       5454.5814      0.22788677
       5455.4655      0.24611548
       5456.3497      0.13763083
       5457.2339      0.13592386
       5458.1180      0.14578357
       5459.0022      0.16849645
       5459.8864      0.13925948
       5460.7705      0.14124010
       5461.6547      0.11379970
       5462.5389      0.16173624
       5463.4230      0.13889821
       5464.3072      0.23688384
       5465.1914      0.19314943
       5466.0755      0.14178340
       5466.9597      0.17585547
       5467.8439      0.14408951
       5468.7280      0.24569259
       5469.6122      0.15917380
       5470.4964      0.11014412
       5471.3805      0.18375900
       5472.2647      0.16491229
       5473.1489      0.19692768
       5474.0330      0.15405235
       5474.9172      0.12425933
       5475.8014      0.23320296
       5476.6855      0.20788148
       5477.5697      0.16085687
       5478.4539      0.22665834
       5479.3380      0.24090364
       5480.2222      0.15969988
       5481.1064      0.27634779
       5481.9905      0.19942058
       5482.8747      0.13544775
       5483.7589      0.17055827
       5484.6430      0.15169867
       5485.5272      0.13988993
       5486.4114      0.17507767
       5487.2955      0.19865579
       5488.1797      0.15369014
       5489.0639      0.21341445
       5489.9480      0.14614778
       5490.8322      0.20381784
       5491.7164      0.16347242
       5492.6005      0.19119955
       5493.4847      0.20344306
       5494.3689      0.15801633
       5495.2530      0.11949246
       5496.1372      0.13530622
       5497.0214      0.12234199
       5497.9055      0.24143533
       5498.7897      0.20247024
       5499.6739      0.17961501
       5500.5580      0.16622524
       5501.4422      0.18764140
       5502.3264      0.16717330
       5503.2105      0.14343086
       5504.0947      0.19691246
       5504.9789      0.17250062
       5505.8630      0.20069508
       5506.7472      0.22804693
       5507.6314      0.19332861
       5508.5155     0.074479555
       5509.3997      0.16070717
       5510.2839      0.14103305
       5511.1680      0.17210897
       5512.0522      0.15374858
       5512.9364      0.16089480
       5513.8205      0.20229735
       5514.7047      0.21268413
       5515.5889      0.14551000
       5516.4730      0.16033609
       5517.3572      0.14618628
       5518.2414      0.19916250
       5519.1255      0.11441600
       5520.0097      0.16799597
       5520.8939      0.22243950
       5521.7780      0.19581169
       5522.6622      0.19065212
       5523.5464      0.24005191
       5524.4305      0.26569094
       5525.3147      0.25971144
       5526.1989      0.25822301
       5527.0830      0.13876210
       5527.9672      0.13957769
       5528.8514      0.18253843
       5529.7355      0.27089832
       5530.6197      0.25322882
       5531.5039      0.22412320
       5532.3880      0.20104170
       5533.2722      0.15925589
       5534.1564      0.17471836
       5535.0405      0.14380105
       5535.9247      0.18192997
       5536.8089      0.19469376
       5537.6930      0.16728375
       5538.5772      0.14195434
       5539.4614      0.19346527
       5540.3455     0.089346902
       5541.2297      0.16734402
       5542.1139      0.18050243
       5542.9980      0.21781318
       5543.8822      0.14731936
       5544.7664      0.16253762
       5545.6505      0.15664357
       5546.5347      0.25208480
       5547.4189      0.11866484
       5548.3030      0.20048181
       5549.1872      0.17463250
       5550.0714      0.26817656
       5550.9555      0.17662206
       5551.8397      0.20578626
       5552.7239      0.16325944
       5553.6080      0.21099468
       5554.4922      0.24866166
       5555.3764      0.18152081
       5556.2605      0.13586658
       5557.1447      0.19039490
       5558.0289      0.21462753
       5558.9131      0.19910483
       5559.7972      0.16984655
       5560.6814      0.22327832
       5561.5656      0.16575346
       5562.4497      0.22179220
       5563.3339      0.22065874
       5564.2181      0.19102612
       5565.1022      0.12394368
       5565.9864      0.14832095
       5566.8706      0.19713121
       5567.7547      0.21265954
       5568.6389     0.078601968
       5569.5231      0.21837702
       5570.4072      0.18484309
       5571.2914      0.21373848
       5572.1756     0.048374941
       5573.0597      0.23158738
       5573.9439      0.21373153
       5574.8281      0.15302927
       5575.7122      0.13790952
       5576.5964      0.12903248
       5577.4806      0.16923038
       5578.3647      0.14680316
       5579.2489      0.19253407
       5580.1331      0.19161680
       5581.0172      0.20421821
       5581.9014      0.19653324
       5582.7856      0.23477109
       5583.6697      0.23091594
       5584.5539      0.22289219
       5585.4381      0.19952808
       5586.3222      0.28493676
       5587.2064      0.18465675
       5588.0906      0.21636237
       5588.9747      0.23311453
       5589.8589      0.14320392
       5590.7431      0.20158845
       5591.6272      0.19872005
       5592.5114      0.24437677
       5593.3956      0.12304943
       5594.2797      0.16137733
       5595.1639      0.14587292
       5596.0481      0.21877875
       5596.9322      0.21473469
       5597.8164      0.16698846
       5598.7006      0.18935271
       5599.5847      0.23796296
       5600.4689      0.19307020
       5601.3531      0.18916118
       5602.2372      0.13751835
       5603.1214      0.11558997
       5604.0056      0.15130848
       5604.8897      0.19627345
       5605.7739      0.12991544
       5606.6581      0.23193940
       5607.5422      0.29965232
       5608.4264      0.21133684
       5609.3106      0.18652365
       5610.1947      0.21644056
       5611.0789      0.15682483
       5611.9631      0.10483775
       5612.8472      0.18007125
       5613.7314      0.20629080
       5614.6156      0.24306473
       5615.4997      0.24166920
       5616.3839      0.21281242
       5617.2681      0.21310983
       5618.1522      0.17054823
       5619.0364      0.14922375
       5619.9206      0.18103938
       5620.8047      0.17751111
       5621.6889      0.17743603
       5622.5731      0.13875447
       5623.4572      0.21800119
       5624.3414     0.078372626
       5625.2256      0.11113941
       5626.1097      0.10705642
       5626.9939             NaN
       5627.8781             NaN
       5628.7622             NaN
       5629.6464             NaN
       5630.5306             NaN
       5631.4147             NaN
       5632.2989             NaN
       5633.1831             NaN
       5634.0672             NaN
       5634.9514             NaN
       5635.8356             NaN
       5636.7197             NaN
       5637.6039             NaN
       5638.4881             NaN
       5639.3722             NaN
       5640.2564             NaN
       5641.1406             NaN
       5642.0247             NaN
       5642.9089             NaN
       5643.7931             NaN
       5644.6772             NaN
       5645.5614             NaN
       5646.4456             NaN
       5647.3297             NaN
       5648.2139             NaN
       5649.0981             NaN
       5649.9822             NaN
       5650.8664             NaN
       5651.7506             NaN
       5652.6347             NaN
       5653.5189             NaN
       5654.4031             NaN
       5655.2872             NaN
       5656.1714             NaN
       5657.0556             NaN
       5657.9397             NaN
       5658.8239             NaN
       5659.7081             NaN
       5660.5922             NaN
       5661.4764             NaN
       5662.3606             NaN
       5663.2447             NaN
       5664.1289             NaN
       5665.0131             NaN
       5665.8972             NaN
       5666.7814             NaN
       5667.6656             NaN
       5668.5497             NaN
       5669.4339             NaN
       5670.3181             NaN
       5671.2022             NaN
       5672.0864             NaN
       5672.9706             NaN
       5673.8547             NaN
       5674.7389             NaN
       5675.6231             NaN
       5676.5072             NaN
       5677.3914             NaN
       5678.2756             NaN
       5679.1597             NaN
       5680.0439             NaN
       5680.9281             NaN
       5681.8122             NaN
       5682.6964             NaN
       5683.5806             NaN
       5684.4647             NaN
       5685.3489             NaN
       5686.2331             NaN
       5687.1172             NaN
       5688.0014             NaN
       5688.8856             NaN
       5689.7697             NaN
       5690.6539             NaN
       5691.5381             NaN
       5692.4222             NaN
       5693.3064             NaN
       5694.1906             NaN
       5695.0747             NaN
       5695.9589             NaN
       5696.8431             NaN
       5697.7272             NaN
       5698.6114             NaN
       5699.4956             NaN
       5700.3797             NaN
       5701.2639             NaN
       5702.1481             NaN
       5703.0323             NaN
       5703.9164             NaN
       5704.8006             NaN
       5705.6848      0.19578570
       5706.5689      0.20784210
       5707.4531      0.24235053
       5708.3373      0.22600469
       5709.2214      0.12007064
       5710.1056      0.20358091
       5710.9898      0.21974094
       5711.8739      0.22980967
       5712.7581      0.17605209
       5713.6423    0.0080534064
       5714.5264      0.30723565
       5715.4106      0.20269385
       5716.2948      0.14729100
       5717.1789      0.26062161
       5718.0631      0.17605452
       5718.9473      0.18185431
       5719.8314      0.13682812
       5720.7156      0.22907329
       5721.5998      0.16919895
       5722.4839      0.23697622
       5723.3681      0.17951104
       5724.2523      0.17144917
       5725.1364      0.21651356
       5726.0206      0.17598921
       5726.9048      0.16057759
       5727.7889      0.18168338
       5728.6731      0.21981136
       5729.5573      0.22270259
       5730.4414      0.15922768
       5731.3256      0.19828243
       5732.2098      0.15494915
       5733.0939      0.18862892
       5733.9781      0.20653318
       5734.8623      0.22941556
       5735.7464      0.17968311
       5736.6306      0.30924921
       5737.5148      0.27191802
       5738.3989      0.18880024
       5739.2831      0.15236878
       5740.1673      0.19041408
       5741.0514      0.14079258
       5741.9356      0.15510580
       5742.8198      0.14236495
       5743.7039      0.16988875
       5744.5881      0.30201716
       5745.4723      0.19633501
       5746.3564      0.18484707
       5747.2406      0.16315382
       5748.1248      0.19870423
       5749.0089      0.17976792
       5749.8931      0.18711492
       5750.7773      0.18634927
       5751.6614      0.18343589
       5752.5456      0.12793574
       5753.4298      0.13470250
       5754.3139      0.20002646
       5755.1981      0.19266731
       5756.0823      0.15949427
       5756.9664      0.21758250
       5757.8506      0.13630045
       5758.7348      0.24562043
       5759.6189      0.24656377
       5760.5031      0.16395301
       5761.3873      0.21060699
       5762.2714      0.17397008
       5763.1556      0.16822828
       5764.0398      0.17814054
       5764.9239      0.22328870
       5765.8081      0.28378841
       5766.6923      0.22337151
       5767.5764      0.16620335
       5768.4606      0.25275542
       5769.3448      0.13938552
       5770.2289      0.13985004
       5771.1131     0.056728826
       5771.9973      0.22743999
       5772.8814      0.22525418
       5773.7656      0.16179589
       5774.6498      0.23850732
       5775.5339      0.18100436
       5776.4181      0.23550141
       5777.3023      0.17339042
       5778.1864      0.15484512
       5779.0706      0.14689650
       5779.9548      0.19925809
       5780.8389      0.23961745
       5781.7231      0.16433771
       5782.6073      0.22256479
       5783.4914      0.27127652
       5784.3756      0.20079071
       5785.2598      0.20470264
       5786.1439      0.19165618
       5787.0281      0.15852399
       5787.9123      0.13722000
       5788.7964      0.13302081
       5789.6806      0.12990326
       5790.5648      0.26053648
       5791.4489      0.32516606
       5792.3331     0.097061689
       5793.2173    0.0080285265
       5794.1014     0.045818494
       5794.9856      0.19554079
       5795.8698      0.12844719
       5796.7539      0.22819366
       5797.6381      0.20242086
       5798.5223      0.25259112
       5799.4064      0.20699106
       5800.2906      0.23675915
       5801.1748      0.16555323
       5802.0589      0.18940783
       5802.9431      0.21539343
       5803.8273      0.17521521
       5804.7114      0.15300592
       5805.5956      0.15396571
       5806.4798      0.11703037
       5807.3639      0.11518013
       5808.2481      0.15781705
       5809.1323      0.21441309
       5810.0164      0.19823160
       5810.9006      0.19660658
       5811.7848      0.16943955
       5812.6689      0.30278723
       5813.5531      0.16506179
       5814.4373      0.18014329
       5815.3214      0.18162755
       5816.2056      0.29592614
       5817.0898      0.25969309
       5817.9739      0.15210479
       5818.8581      0.23788500
       5819.7423      0.26724551
       5820.6264      0.23362183
       5821.5106      0.13591664
       5822.3948      0.27700383
       5823.2789      0.14834630
       5824.1631      0.15963479
       5825.0473      0.15857241
       5825.9314      0.10229993
       5826.8156      0.22639553
       5827.6998      0.16319863
       5828.5839      0.23548746
       5829.4681      0.14079029
       5830.3523      0.18198270
       5831.2364      0.20709888
       5832.1206     0.087033341
       5833.0048      0.18718669
       5833.8889      0.10645814
       5834.7731      0.15662353
       5835.6573      0.18145474
       5836.5414      0.17224236
       5837.4256      0.15429074
       5838.3098      0.21397349
       5839.1939     0.082852003
       5840.0781      0.19105106
       5840.9623      0.11741597
       5841.8464     0.059657557
       5842.7306      0.23883850
       5843.6148      0.22284747
       5844.4989      0.18171917
       5845.3831      0.27589560
       5846.2673      0.21610721
       5847.1514      0.19450929
       5848.0356      0.23684450
       5848.9198      0.20629450
       5849.8040      0.23374159
       5850.6881      0.19755950
       5851.5723      0.18969620
       5852.4565      0.21859237
       5853.3406      0.24032804
       5854.2248      0.24301304
       5855.1090      0.16691931
       5855.9931      0.24485513
       5856.8773      0.25564953
       5857.7615      0.23849165
       5858.6456      0.34617772
       5859.5298      0.30665231
       5860.4140      0.33869553
       5861.2981      0.37329494
       5862.1823      0.32692111
       5863.0665      0.20520651
       5863.9506     0.047873395
       5864.8348      0.25565543
       5865.7190      0.15677058
       5866.6031      0.19606217
       5867.4873      0.17113965
       5868.3715      0.15252564
       5869.2556      0.19159998
       5870.1398      0.25732340
       5871.0240      0.10870008
       5871.9081      0.16053424
       5872.7923      0.25372207
       5873.6765      0.21018297
       5874.5606      0.33814961
       5875.4448      0.15190308
       5876.3290      0.24320696
       5877.2131      0.17490688
       5878.0973      0.22789290
       5878.9815      0.13936304
       5879.8656      0.21325270
       5880.7498      0.22325583
       5881.6340      0.23273987
       5882.5181      0.14042666
       5883.4023      0.18948580
       5884.2865      0.23825686
       5885.1706      0.28966191
       5886.0548      0.29291221
       5886.9390      0.21132208
       5887.8231      0.22598369
       5888.7073     0.080057205
       5889.5915      0.22679737
       5890.4756      0.16524072
       5891.3598      0.22070203
       5892.2440      0.22385130
       5893.1281      0.19379106
       5894.0123      0.23648696
       5894.8965      0.13748822
       5895.7806      0.26005656
       5896.6648      0.10737785
       5897.5490      0.24504816
       5898.4331      0.19792604
       5899.3173    0.0026263488
       5900.2015      0.14187595
       5901.0856     0.071016703
       5901.9698      0.20573907
       5902.8540      0.23508601
       5903.7381      0.13777308
       5904.6223      0.23742940
       5905.5065      0.18795174
       5906.3906      0.21635270
       5907.2748      0.14780733
       5908.1590      0.22274690
       5909.0431      0.16900023
       5909.9273     0.029811190
       5910.8115      0.23125549
       5911.6956      0.10156407
       5912.5798      0.22291159
       5913.4640      0.15376513
       5914.3481      0.16307961
       5915.2323      0.19613719
       5916.1165      0.15817975
       5917.0006      0.18641294
       5917.8848      0.26534863
       5918.7690      0.25011937
       5919.6531      0.22871287
       5920.5373      0.13093156
       5921.4215      0.20657981
       5922.3056      0.20574209
       5923.1898      0.19142440
       5924.0740      0.17209101
       5924.9581      0.19744807
       5925.8423      0.27632053
       5926.7265      0.20211081
       5927.6106      0.22011650
       5928.4948     0.098360835
       5929.3790      0.18463781
       5930.2631      0.13238927
       5931.1473     0.073422335
       5932.0315      0.15162081
       5932.9156     0.086233718
       5933.7998      0.26100114
       5934.6840      0.30150736
       5935.5681      0.11817867
       5936.4523      0.19471263
       5937.3365     0.046428060
       5938.2206      0.15556639
       5939.1048      0.10888078
       5939.9890      0.22876467
       5940.8731      0.24746318
       5941.7573      0.26045358
       5942.6415      0.27109936
       5943.5256      0.13882760
       5944.4098   -0.0032301543
       5945.2940      0.18168071
       5946.1781      0.18362806
       5947.0623      0.12294586
       5947.9465      0.18310906
       5948.8306      0.17052039
       5949.7148      0.14336681
       5950.5990      0.21731413
       5951.4831      0.17646606
       5952.3673      0.17091651
       5953.2515      0.21532886
       5954.1356      0.22493796
       5955.0198      0.22595807
       5955.9040      0.16558741
       5956.7881      0.17179538
       5957.6723      0.23955514
       5958.5565      0.17089612
       5959.4406      0.20959703
       5960.3248     0.099385146
       5961.2090      0.14865812
       5962.0931     0.047375209
       5962.9773      0.22430858
       5963.8615      0.16768529
       5964.7456      0.15062472
       5965.6298      0.17432056
       5966.5140      0.18596752
       5967.3981      0.16800637
       5968.2823      0.10445900
       5969.1665      0.15196600
       5970.0506      0.14287551
       5970.9348     0.095827022
       5971.8190      0.17480500
       5972.7031     0.086491867
       5973.5873      0.15144906
       5974.4715      0.13734283
       5975.3556      0.15268013
       5976.2398      0.26066542
       5977.1240      0.18112877
       5978.0081     0.088682472
       5978.8923     0.044396764
       5979.7765      0.16761222
       5980.6606      0.16830596
       5981.5448     0.071057416
       5982.4290      0.19472963
       5983.3131     0.093138511
       5984.1973      0.17318035
       5985.0815      0.17379283
       5985.9656      0.18053846
       5986.8498      0.21679552
       5987.7340      0.25086658
       5988.6181      0.15364624
       5989.5023      0.19871820
       5990.3865      0.14689129
       5991.2706      0.21398507
       5992.1548      0.15541151
       5993.0390      0.21384791
       5993.9231      0.10559743
       5994.8073      0.10750508
       5995.6915      0.18282087
       5996.5757      0.13207541
       5997.4598      0.14943703
       5998.3440      0.16662764
       5999.2282      0.14434232
       6000.1123      0.29008589
       6000.9965      0.15607843
       6001.8807      0.18448830
       6002.7648      0.13697462
       6003.6490      0.21146390
       6004.5332      0.17034326
       6005.4173      0.23685671
       6006.3015      0.20763309
       6007.1857      0.28425729
       6008.0698      0.13596479
       6008.9540      0.17608227
       6009.8382      0.14770112
       6010.7223      0.18595763
       6011.6065      0.12141775
       6012.4907      0.18301550
       6013.3748      0.14887407
       6014.2590      0.14311517
       6015.1432      0.16267063
       6016.0273      0.17393584
       6016.9115      0.13376709
       6017.7957      0.13688429
       6018.6798      0.15328352
       6019.5640      0.14222182
       6020.4482      0.15733152
       6021.3323      0.19724604
       6022.2165      0.13819127
       6023.1007      0.18148595
       6023.9848      0.19334855
       6024.8690      0.13921361
       6025.7532      0.15097275
       6026.6373      0.14261064
       6027.5215      0.22771326
       6028.4057      0.15119430
       6029.2898      0.11234479
       6030.1740      0.21060328
       6031.0582      0.17784150
       6031.9423     0.076625281
       6032.8265      0.13426350
       6033.7107      0.14694725
       6034.5948      0.15383110
       6035.4790      0.17986574
       6036.3632      0.12329642
       6037.2473      0.17940885
       6038.1315      0.14704913
       6039.0157      0.14138301
       6039.8998      0.16271798
       6040.7840      0.12714136
       6041.6682      0.17190152
       6042.5523      0.16107984
       6043.4365      0.15233491
       6044.3207      0.24105725
       6045.2048      0.18391993
       6046.0890      0.11793294
       6046.9732      0.15628695
       6047.8573      0.15819972
       6048.7415      0.16483030
       6049.6257      0.13616751
       6050.5098      0.20128313
       6051.3940      0.14345624
       6052.2782      0.11499673
       6053.1623      0.26767161
       6054.0465      0.17929938
       6054.9307      0.17617546
       6055.8148      0.15237817
       6056.6990      0.10877356
       6057.5832      0.12789644
       6058.4673      0.16727318
       6059.3515      0.14632038
       6060.2357      0.15508339
       6061.1198      0.27104978
       6062.0040      0.16278314
       6062.8882     0.096508629
       6063.7723      0.17303626
       6064.6565      0.11838656
       6065.5407      0.10247146
       6066.4248      0.21469888
       6067.3090      0.11793264
       6068.1932      0.11243067
       6069.0773     0.090370134
       6069.9615      0.11206422
       6070.8457      0.17987002
       6071.7298      0.19224731
       6072.6140      0.12871153
       6073.4982      0.20176750
       6074.3823      0.16254980
       6075.2665      0.25525654
       6076.1507      0.24216085
       6077.0348      0.24929484
       6077.9190      0.13436904
       6078.8032      0.19319705
       6079.6873      0.21731125
       6080.5715      0.16416103
       6081.4557      0.12973037
       6082.3398      0.16715015
       6083.2240      0.12764844
       6084.1082      0.16591256
       6084.9923      0.14116371
       6085.8765     0.063897756
       6086.7607      0.16399420
       6087.6448      0.15473187
       6088.5290      0.18008840
       6089.4132      0.12738397
       6090.2973      0.13023645
       6091.1815      0.24675628
       6092.0657      0.13067262
       6092.9498      0.22464553
       6093.8340      0.18263208
       6094.7182      0.15197062
       6095.6023      0.10230425
       6096.4865      0.10385276
       6097.3707      0.21810593
       6098.2548      0.21465782
       6099.1390      0.20804488
       6100.0232      0.17859160
       6100.9073      0.25119525
       6101.7915      0.17965563
       6102.6757      0.26056598
       6103.5598      0.21178158
       6104.4440      0.16253114
       6105.3282      0.23624047
       6106.2123      0.19953775
       6107.0965      0.16307605
       6107.9807      0.19717027
       6108.8648      0.19767084
       6109.7490      0.11850046
       6110.6332     0.076197140
       6111.5173      0.18790480
       6112.4015      0.17605356
       6113.2857     0.090284198
       6114.1698      0.20039374
       6115.0540      0.22415237
       6115.9382      0.24743851
       6116.8223      0.18481867
       6117.7065      0.20670054
       6118.5907      0.14732850
       6119.4748      0.23887233
       6120.3590      0.17598522
       6121.2432      0.14690692
       6122.1273      0.18956166
       6123.0115      0.24703318
       6123.8957      0.15586683
       6124.7798     0.098605797
       6125.6640      0.22939707
       6126.5482      0.20319693
       6127.4323      0.17868405
       6128.3165      0.18505291
       6129.2007      0.26688284
       6130.0848      0.20968710
       6130.9690      0.25754818
       6131.8532      0.17344548
       6132.7373      0.24579534
       6133.6215      0.20927207
       6134.5057     0.060260932
       6135.3898     0.093091688
       6136.2740      0.15504845
       6137.1582      0.13471289
       6138.0423      0.24727023
       6138.9265      0.31160714
       6139.8107      0.19795158
       6140.6949      0.12782052
       6141.5790      0.12866190
       6142.4632      0.24647983
       6143.3474      0.22499489
       6144.2315      0.26245973
       6145.1157      0.18303339
       6145.9999      0.17678201
       6146.8840     0.082234310
       6147.7682      0.22450674
       6148.6524      0.17598692
       6149.5365      0.14771157
       6150.4207      0.19520081
       6151.3049      0.14244288
       6152.1890      0.23935739
       6153.0732      0.20468424
       6153.9574      0.10424672
       6154.8415      0.12082325
       6155.7257      0.21468719
       6156.6099      0.16692474
       6157.4940      0.12522385
       6158.3782      0.14615694
       6159.2624      0.25059648
       6160.1465      0.10853740
       6161.0307      0.15154603
       6161.9149      0.19934922
       6162.7990      0.17500948
       6163.6832      0.16869346
       6164.5674      0.10338991
       6165.4515      0.22266512
       6166.3357      0.22633914
       6167.2199      0.18635526
       6168.1040      0.16852498
       6168.9882      0.13513124
       6169.8724      0.19503421
       6170.7565      0.15563701
       6171.6407      0.19092555
       6172.5249      0.13664325
       6173.4090      0.20758011
       6174.2932      0.25707717
       6175.1774      0.17523442
       6176.0615      0.19513430
       6176.9457      0.26169680
       6177.8299      0.17905450
       6178.7140      0.32515543
       6179.5982      0.30437320
       6180.4824     0.025574731
       6181.3665    -0.014334011
       6182.2507     0.012966026
       6183.1349     0.028066453
       6184.0190     0.032464903
       6184.9032     0.042333888
       6185.7874      0.17172388
       6186.6715      0.23932828
       6187.5557      0.10158272
       6188.4399      0.16707098
       6189.3240      0.14325508
       6190.2082      0.13234931
       6191.0924      0.11732280
       6191.9765      0.20664938
       6192.8607      0.26394012
       6193.7449      0.18781257
       6194.6290      0.12886761
       6195.5132      0.16421778
       6196.3974     0.086068264
       6197.2815      0.12518206
       6198.1657      0.17474154
       6199.0499      0.17836035
       6199.9340      0.11802238
       6200.8182      0.15354838
       6201.7024      0.18313346
       6202.5865      0.14050494
       6203.4707      0.16036692
       6204.3549      0.16450778
       6205.2390      0.21810387
       6206.1232      0.25092338
       6207.0074      0.20040010
       6207.8915      0.14184588
       6208.7757      0.28489682
       6209.6599      0.14783106
       6210.5440      0.14767423
       6211.4282     0.051026530
       6212.3124      0.16528482
       6213.1965      0.19227046
       6214.0807      0.16722526
       6214.9649      0.27226942
       6215.8490      0.20197771
       6216.7332      0.20483153
       6217.6174      0.17428104
       6218.5015      0.12454210
       6219.3857      0.28255819
       6220.2699      0.11985911
       6221.1540     0.039782879
       6222.0382      0.14841439
       6222.9224     0.042727334
       6223.8065      0.12961499
       6224.6907      0.16922040
       6225.5749      0.21580084
       6226.4590      0.18695746
       6227.3432      0.19771633
       6228.2274      0.23712124
       6229.1115      0.13358374
       6229.9957      0.19906617
       6230.8799      0.15985813
       6231.7640      0.16042875
       6232.6482      0.21864429
       6233.5324      0.26914638
       6234.4165      0.19173988
       6235.3007      0.21803554
       6236.1849     0.083171560
       6237.0690     0.067366863
       6237.9532      0.15717190
       6238.8374      0.12111058
       6239.7215      0.20756342
       6240.6057      0.20882918
       6241.4899      0.16500942
       6242.3740      0.23025834
       6243.2582      0.13862247
       6244.1424      0.13067646
       6245.0265     -0.11745504
       6245.9107     0.088238821
       6246.7949      0.22365572
       6247.6790      0.12909241
       6248.5632     0.085782977
       6249.4474      0.15827089
       6250.3315      0.16460866
       6251.2157      0.19077888
       6252.0999      0.10280788
       6252.9840      0.17924023
       6253.8682      0.12127365
       6254.7524      0.18446869
       6255.6365      0.17817392
       6256.5207      0.15559338
       6257.4049     0.086713571
       6258.2890     0.071086114
       6259.1732      0.12046588
       6260.0574      0.16934630
       6260.9415     0.095800219
       6261.8257      0.10759207
       6262.7099      0.23189778
       6263.5940      0.23235601
       6264.4782      0.10632123
       6265.3624      0.17680913
       6266.2465      0.25155040
       6267.1307      0.21858558
       6268.0149      0.38462794
       6268.8990      0.26173763
       6269.7832     0.010639023
       6270.6674     0.029797819
       6271.5515      0.23386382
       6272.4357      0.20115161
       6273.3199     0.089723730
       6274.2040      0.14245048
       6275.0882      0.14905097
       6275.9724      0.24090658
       6276.8565      0.15834633
       6277.7407      0.23864123
       6278.6249      0.19129756
       6279.5090      0.16187916
       6280.3932      0.21117204
       6281.2774      0.18491291
       6282.1615      0.18359029
       6283.0457      0.17693109
       6283.9299      0.27901362
       6284.8140      0.20246510
       6285.6982      0.20295307
       6286.5824      0.18859513
       6287.4666      0.14151861
       6288.3507      0.14429841
       6289.2349      0.20247102
       6290.1191      0.15585223
       6291.0032      0.16152517
       6291.8874      0.17391565
       6292.7716      0.22051239
       6293.6557      0.25947569
       6294.5399      0.26658369
       6295.4241      0.23863517
       6296.3082      0.17220305
       6297.1924     0.075201935
       6298.0766      0.19320818
       6298.9607     0.055919343
       6299.8449     0.037376215
       6300.7291      0.13657840
       6301.6132      0.15445491
       6302.4974      0.21661989
       6303.3816      0.12719796
       6304.2657      0.14834802
       6305.1499      0.13739261
       6306.0341      0.20350972
       6306.9182      0.15541582
       6307.8024      0.16892904
       6308.6866      0.12788934
       6309.5707      0.16607246
       6310.4549      0.13175870
       6311.3391      0.20147493
       6312.2232      0.19952172
       6313.1074      0.19539409
       6313.9916      0.15730827
       6314.8757      0.15393433
       6315.7599      0.13425889
       6316.6441      0.23834642
       6317.5282      0.14509122
       6318.4124      0.12563177
       6319.2966      0.17014335
       6320.1807      0.19925640
       6321.0649      0.12809967
       6321.9491      0.25764040
       6322.8332      0.20826483
       6323.7174      0.16135352
       6324.6016      0.14321657
       6325.4857      0.16934439
       6326.3699      0.21626849
       6327.2541      0.11607054
       6328.1382      0.22706092
       6329.0224      0.26771936
       6329.9066      0.22982319
       6330.7907      0.18055383
       6331.6749      0.22583767
       6332.5591      0.25070037
       6333.4432      0.15698340
       6334.3274      0.15028540
       6335.2116      0.11653712
       6336.0957      0.17446942
       6336.9799      0.21047604
       6337.8641      0.21681327
       6338.7482      0.14469503
       6339.6324      0.15303439
       6340.5166      0.23520925
       6341.4007      0.22488200
       6342.2849      0.15757761
       6343.1691      0.20923432
       6344.0532      0.16906948
       6344.9374     0.086262552
       6345.8216      0.15437200
       6346.7057      0.10117283
       6347.5899      0.27162380
       6348.4741      0.23170726
       6349.3582      0.22234492
       6350.2424      0.19705301
       6351.1266      0.29588556
       6352.0107     0.091249354
       6352.8949      0.13380488
       6353.7791      0.13903037
       6354.6632      0.17864909
       6355.5474     0.099557449
       6356.4316      0.16594457
       6357.3157      0.22012435
       6358.1999      0.13677213
       6359.0841      0.20190115
       6359.9682      0.17479917
       6360.8524      0.18803759
       6361.7366      0.17376485
       6362.6207     0.093548973
       6363.5049      0.12684613
       6364.3891      0.16627207
       6365.2732      0.27586982
       6366.1574      0.22572912
       6367.0416      0.19493493
       6367.9257      0.19103482
       6368.8099      0.25545768
       6369.6941      0.16837810
       6370.5782      0.25168163
       6371.4624      0.21007093
       6372.3466      0.15332203
       6373.2307      0.21431782
       6374.1149      0.15287212
       6374.9991      0.18875443
       6375.8832      0.15209190
       6376.7674      0.19589801
       6377.6516      0.16468083
       6378.5357      0.19734389
       6379.4199      0.16453328
       6380.3041      0.17294739
       6381.1882      0.13780664
       6382.0724      0.19758886
       6382.9566      0.19837721
       6383.8407      0.23316348
       6384.7249      0.23423477
       6385.6091      0.22799611
       6386.4932      0.22828014
       6387.3774      0.19615171
       6388.2616      0.28497312
       6389.1457      0.12794695
       6390.0299      0.20496823
       6390.9141      0.10591187
       6391.7982     0.083742960
       6392.6824      0.16368935
       6393.5666      0.20155755
       6394.4507      0.10195098
       6395.3349     0.080574610
       6396.2191      0.18160399
       6397.1032      0.17941118
       6397.9874      0.13691657
       6398.8716      0.23857894
       6399.7557      0.23241021
       6400.6399      0.24876143
       6401.5241      0.12592515
       6402.4082      0.15799043
       6403.2924      0.20981768
       6404.1766      0.20026483
       6405.0607      0.18893019
       6405.9449      0.24372029
       6406.8291      0.14272623
       6407.7132      0.24277394
       6408.5974      0.24863806
       6409.4816      0.12042240
       6410.3657     0.022361852
       6411.2499      0.30368325
       6412.1341      0.14349076
       6413.0182      0.32354647
       6413.9024      0.19326018
       6414.7866      0.13678441
       6415.6707      0.34919441
       6416.5549      0.23346810
       6417.4391      0.25648691
       6418.3232      0.13026510
       6419.2074      0.14970667
       6420.0916      0.16137535
       6420.9757      0.18386374
       6421.8599      0.22428700
       6422.7441      0.26011124
       6423.6282      0.13445402
       6424.5124      0.18528035
       6425.3966      0.29117191
       6426.2807      0.17342929
       6427.1649      0.25546778
       6428.0491      0.29438867
       6428.9332      0.16006450
       6429.8174     0.096901129
       6430.7016      0.11169691
       6431.5858      0.13568736
       6432.4699     0.097068797
       6433.3541      0.16757293
       6434.2383      0.12049712
       6435.1224      0.13760626
       6436.0066      0.21622925
       6436.8908      0.21460000
       6437.7749      0.14136272
       6438.6591      0.13175964
       6439.5433      0.21500853
       6440.4274      0.23446593
       6441.3116      0.15606877
       6442.1958      0.19491033
       6443.0799      0.20115166
       6443.9641      0.23834290
       6444.8483      0.19933912
       6445.7324      0.14075114
       6446.6166      0.23335232
       6447.5008      0.18419732
       6448.3849      0.28170432
       6449.2691      0.20226144
       6450.1533      0.12642086
       6451.0374      0.21037660
       6451.9216      0.15546541
       6452.8058     0.082710400
       6453.6899      0.14805137
       6454.5741      0.24194429
       6455.4583      0.20584459
       6456.3424      0.24808043
       6457.2266      0.14455205
       6458.1108      0.10708819
       6458.9949      0.23110888
       6459.8791      0.20866754
       6460.7633      0.16967882
       6461.6474      0.19330884
       6462.5316      0.10173007
       6463.4158      0.23220994
       6464.2999      0.17647330
       6465.1841      0.27631361
       6466.0683      0.18037125
       6466.9524      0.20628472
       6467.8366      0.18272460
       6468.7208      0.15128689
       6469.6049      0.28538548
       6470.4891      0.14902492
       6471.3733      0.23371254
       6472.2574      0.15859393
       6473.1416      0.23303314
       6474.0258      0.16260260
       6474.9099      0.15070955
       6475.7941      0.16850684
       6476.6783      0.14186519
       6477.5624      0.20761751
       6478.4466      0.16486053
       6479.3308      0.21370687
       6480.2149      0.22734382
       6481.0991      0.18764471
       6481.9833      0.27927539
       6482.8674      0.18410567
       6483.7516      0.18587822
       6484.6358      0.24637075
       6485.5199      0.21691688
       6486.4041      0.33077766
       6487.2883      0.12326697
       6488.1724     0.082260081
       6489.0566      0.12562230
       6489.9408      0.18656419
       6490.8249     0.034323071
       6491.7091      0.19146714
       6492.5933      0.24642967
       6493.4774    0.0098197598
       6494.3616      0.12907826
       6495.2458     0.081316161
       6496.1299      0.18862565
       6497.0141      0.25685298
       6497.8983      0.27756573
       6498.7824      0.15078069
       6499.6666      0.10141201
       6500.5508      0.13977627
       6501.4349     0.083579836
       6502.3191     0.068199706
       6503.2033      0.10166236
       6504.0874      0.15022224
       6504.9716      0.23190119
       6505.8558      0.20494367
       6506.7399      0.13708512
       6507.6241      0.20816528
       6508.5083      0.18059847
       6509.3924     0.097301768
       6510.2766     0.077093277
       6511.1608     0.064487847
       6512.0449      0.10223354
       6512.9291      0.14451726
       6513.8133      0.16077640
       6514.6974      0.15574572
       6515.5816      0.15532208
       6516.4658      0.16354370
       6517.3499      0.17522101
       6518.2341      0.22452038
       6519.1183      0.16346030
       6520.0024      0.26952942
       6520.8866      0.30771690
       6521.7708      0.23883202
       6522.6549      0.24331705
       6523.5391      0.16759016
       6524.4233      0.19618148
       6525.3074      0.13592252
       6526.1916      0.18196275
       6527.0758      0.24770615
       6527.9599      0.15583364
       6528.8441      0.18589185
       6529.7283      0.23609682
       6530.6124      0.31144724
       6531.4966      0.21698152
       6532.3808      0.30184959
       6533.2649      0.46969929
       6534.1491      0.62973204
       6535.0333      0.45620404
       6535.9174      0.30738488
       6536.8016     0.074009139
       6537.6858     -0.46477529
       6538.5699      0.22118753
       6539.4541      0.18493268
       6540.3383     0.061848073
       6541.2224      0.26674631
       6542.1066      0.27014455
       6542.9908     0.091708458
       6543.8749      0.44911099
       6544.7591      0.23891659
       6545.6433      0.17839215
       6546.5274      0.17221857
       6547.4116     0.090184807
       6548.2958      0.18102627
       6549.1799      0.28792300
       6550.0641      0.18273869
       6550.9483      0.16287700
       6551.8324      0.19394924
       6552.7166      0.26127466
       6553.6008      0.20646498
       6554.4849      0.12525579
       6555.3691      0.16582984
       6556.2533      0.17489524
       6557.1374      0.18952913
       6558.0216      0.20890019
       6558.9058      0.24534089
       6559.7899      0.37877389
       6560.6741      0.36436214
       6561.5583      0.35737530
       6562.4424      0.37150926
       6563.3266      0.41695214
       6564.2108      0.27023021
       6565.0949      0.15988404
       6565.9791      0.33247903
       6566.8633     0.083322114
       6567.7474      0.17846265
       6568.6316     0.088570747
       6569.5158      0.17574600
       6570.3999      0.17988142
       6571.2841      0.22012526
       6572.1683      0.32605556
       6573.0524      0.53521840
       6573.9366      0.76749313
       6574.8208       1.1936160
       6575.7049       1.6446138
       6576.5891       1.5122344
       6577.4733       1.3835414
       6578.3575      0.99470779
       6579.2416      0.55088564
       6580.1258      0.34785786
       6581.0100    -0.026149829
       6581.8941    -0.010151711
       6582.7783      0.12689542
       6583.6625      0.19760884
       6584.5466      0.19705389
       6585.4308      0.23361673
       6586.3150      0.16377479
       6587.1991      0.21751583
       6588.0833      0.12663647
       6588.9675      0.26693448
       6589.8516      0.26302711
       6590.7358      0.22467415
       6591.6200      0.46452164
       6592.5041      0.33468571
       6593.3883     0.093196117
       6594.2725      0.61551093
       6595.1566      0.42400655
       6596.0408      0.72434252
       6596.9250      0.68622481
       6597.8091      0.58640387
       6598.6933      0.47950397
       6599.5775      0.30360225
       6600.4616      0.34617919
       6601.3458      0.42091640
       6602.2300      0.20570921
       6603.1141     0.064285972
       6603.9983      0.29277124
       6604.8825      0.30372458
       6605.7666    0.0034999608
       6606.6508     -0.22795280
       6607.5350    -0.028298922
       6608.4191      0.11206842
       6609.3033      0.14668413
       6610.1875      0.28219377
       6611.0716      0.24182912
       6611.9558      0.16607194
       6612.8400      0.13242106
       6613.7241      0.13603385
       6614.6083      0.19321397
       6615.4925      0.18980890
       6616.3766      0.22967941
       6617.2608      0.26722153
       6618.1450      0.34967749
       6619.0291      0.30716151
       6619.9133      0.22023783
       6620.7975      0.22399583
       6621.6816      0.17244350
       6622.5658     0.074827486
       6623.4500      0.12257069
       6624.3341     0.051501277
       6625.2183      0.17498219
       6626.1025      0.12242815
       6626.9866      0.13195454
       6627.8708      0.11226216
       6628.7550      0.27541082
       6629.6391      0.21671713
       6630.5233      0.20962820
       6631.4075      0.25953872
       6632.2916      0.31728644
       6633.1758      0.19168059
       6634.0600      0.22712673
       6634.9441    -0.083721628
       6635.8283      0.10822144
       6636.7125      0.10900713
       6637.5966      0.16088571
       6638.4808      0.15527210
       6639.3650      0.24355541
       6640.2491      0.18741674
       6641.1333      0.26518886
       6642.0175      0.14569540
       6642.9016      0.15011192
       6643.7858      0.22896566
       6644.6700      0.17818868
       6645.5541      0.21668791
       6646.4383      0.22514325
       6647.3225      0.24668294
       6648.2066      0.27344361
       6649.0908      0.25604375
       6649.9750      0.30836082
       6650.8591      0.21015873
       6651.7433      0.24848608
       6652.6275      0.14716631
       6653.5116      0.15983980
       6654.3958      0.22871770
       6655.2800      0.14850311
       6656.1641      0.24029369
       6657.0483     0.087929538
       6657.9325      0.14807042
       6658.8166      0.13529122
       6659.7008      0.25458682
       6660.5850      0.30799215
       6661.4691    -0.026714545
       6662.3533      0.33106041
       6663.2375     0.071378655
       6664.1216      0.12564147
       6665.0058      0.20067218
       6665.8900      0.14079322
       6666.7741   -0.0079420397
       6667.6583      0.16598182
       6668.5425      0.22644461
       6669.4266      0.22469414
       6670.3108      0.21476323
       6671.1950      0.22722039
       6672.0791      0.24165672
       6672.9633      0.17365334
       6673.8475      0.16997883
       6674.7316      0.17375461
       6675.6158      0.20928870
       6676.5000      0.22226660
       6677.3841      0.23673535
       6678.2683      0.20052930
       6679.1525      0.13659495
       6680.0366      0.27833110
       6680.9208      0.17877131
       6681.8050      0.20992333
       6682.6891      0.27542675
       6683.5733      0.23004147
       6684.4575      0.16944614
       6685.3416      0.20794861
       6686.2258      0.20015629
       6687.1100      0.21652948
       6687.9941      0.18636363
       6688.8783      0.19805743
       6689.7625      0.15406623
       6690.6466      0.22669921
       6691.5308      0.18418565
       6692.4150      0.11957031
       6693.2991      0.23287579
       6694.1833      0.21769594
       6695.0675      0.11945167
       6695.9516      0.33501195
       6696.8358      0.18705754
       6697.7200      0.28054317
       6698.6041      0.29769272
       6699.4883      0.31970165
       6700.3725      0.24291996
       6701.2566      0.27838638
       6702.1408      0.21541392
       6703.0250      0.21421600
       6703.9091      0.22119316
       6704.7933      0.18677186
       6705.6775      0.17985127
       6706.5616      0.22107367
       6707.4458      0.24171327
       6708.3300      0.21314365
       6709.2141      0.18964811
       6710.0983      0.21728704
       6710.9825      0.21703707
       6711.8666      0.28842088
       6712.7508      0.27777617
       6713.6350      0.18205381
       6714.5191      0.18367971
       6715.4033      0.24363644
       6716.2875      0.17467076
       6717.1716      0.21690655
       6718.0558      0.26643606
       6718.9400      0.17799838
       6719.8241      0.22695984
       6720.7083      0.21402064
       6721.5925      0.15448525
       6722.4766      0.25749681
       6723.3608      0.17192783
       6724.2450      0.23013479
       6725.1292      0.12857888
       6726.0133      0.35281534
       6726.8975      0.35744420
       6727.7817      0.46714384
       6728.6658      0.42457583
       6729.5500      0.50405239
       6730.4342      0.41375214
       6731.3183      0.34864507
       6732.2025      0.34024640
       6733.0867      0.15087116
       6733.9708      0.20904749
       6734.8550      0.27248059
       6735.7392      0.22118270
       6736.6233      0.17029020
       6737.5075      0.29447798
       6738.3917      0.18883692
       6739.2758      0.19185131
       6740.1600      0.19497321
       6741.0442      0.27565251
       6741.9283      0.44855440
       6742.8125      0.31595079
       6743.6967      0.46253035
       6744.5808      0.32267822
       6745.4650      0.24281518
       6746.3492      0.37909934
       6747.2333      0.17384720
       6748.1175      0.23147155
       6749.0017      0.18724131
       6749.8858     -0.19990398
       6750.7700     -0.11133402
       6751.6542     -0.16534851
       6752.5383      0.20523491
       6753.4225      0.29660654
       6754.3067      0.37762640
       6755.1908      0.32003621
       6756.0750      0.27481874
       6756.9592     0.088665849
       6757.8433      0.15409830
       6758.7275      0.19323270
       6759.6117      0.13649948
       6760.4958      0.13386709
       6761.3800      0.10008524
       6762.2642      0.17505559
       6763.1483      0.21086283
       6764.0325      0.12334246
       6764.9167      0.24939640
       6765.8008      0.21624851
       6766.6850      0.21098922
       6767.5692      0.19293078
       6768.4533      0.18962232
       6769.3375      0.18865390
       6770.2217      0.21520962
       6771.1058      0.20048229
       6771.9900      0.29673954
       6772.8742      0.25404954
       6773.7583      0.22774588
       6774.6425      0.23868358
       6775.5267      0.20424347
       6776.4108      0.29066028
       6777.2950      0.12321745
       6778.1792      0.12091812
       6779.0633      0.13778339
       6779.9475      0.19634918
       6780.8317      0.13976659
       6781.7158      0.21718059
       6782.6000      0.29973781
       6783.4842      0.25920919
       6784.3683      0.12786738
       6785.2525      0.18672965
       6786.1367      0.29344169
       6787.0208      0.21424357
       6787.9050      0.31147671
       6788.7892      0.21617803
       6789.6733      0.22215266
       6790.5575      0.21352709
       6791.4417      0.23857436
       6792.3258      0.20615992
       6793.2100      0.27963023
       6794.0942      0.27580662
       6794.9783      0.12065477
       6795.8625      0.25008784
       6796.7467      0.26001868
       6797.6308      0.22922143
       6798.5150      0.16870469
       6799.3992      0.20966131
       6800.2833      0.21135064
       6801.1675      0.28975293
       6802.0517      0.19336285
       6802.9358      0.26781189
       6803.8200      0.26075253
       6804.7042      0.27873592
       6805.5883      0.20518271
       6806.4725      0.19016013
       6807.3567      0.32808822
       6808.2408      0.23938364
       6809.1250      0.25541204
       6810.0092      0.16804645
       6810.8933      0.31217661
       6811.7775      0.20051601
       6812.6617      0.19595320
       6813.5458      0.21040319
       6814.4300      0.26190567
       6815.3142      0.27503241
       6816.1983      0.25207094
       6817.0825      0.27970117
       6817.9667      0.23788250
       6818.8508      0.26000102
       6819.7350      0.28006205
       6820.6192      0.24082919
       6821.5033      0.22935067
       6822.3875      0.24501617
       6823.2717      0.10032707
       6824.1558      0.22879339
       6825.0400      0.16949372
       6825.9242      0.19501043
       6826.8083      0.25815768
       6827.6925      0.20926469
       6828.5767      0.28694877
       6829.4608      0.18495644
       6830.3450      0.26614784
       6831.2292      0.23089522
       6832.1133      0.30158062
       6832.9975      0.21711104
       6833.8817      0.18199737
       6834.7658      0.23788722
       6835.6500      0.25308109
       6836.5342      0.27655128
       6837.4183      0.25510410
       6838.3025      0.20692560
       6839.1867      0.24990468
       6840.0708      0.23337925
       6840.9550      0.18805118
       6841.8392      0.24830566
       6842.7233      0.23999769
       6843.6075      0.27928950
       6844.4917      0.22257802
       6845.3758      0.27721961
       6846.2600      0.25337578
       6847.1442      0.19183809
       6848.0283      0.10052191
       6848.9125      0.30552199
       6849.7967      0.21857739
       6850.6808      0.23155996
       6851.5650      0.20003343
       6852.4492      0.17983751
       6853.3333      0.18587044
       6854.2175      0.26427007
       6855.1017      0.28316598
       6855.9858      0.16171792
       6856.8700      0.24762195
       6857.7542      0.16095733
       6858.6383      0.20522067
       6859.5225      0.23541476
       6860.4067      0.19489127
       6861.2908      0.27113219
       6862.1750      0.22731259
       6863.0592      0.22865727
       6863.9433      0.21232843
       6864.8275      0.10811087
       6865.7117      0.21168527
       6866.5958      0.25906393
       6867.4800      0.25773509
       6868.3642      0.22759984
       6869.2484      0.28707744
       6870.1325      0.17595647
       6871.0167      0.19488277
       6871.9009      0.24772004
       6872.7850      0.20969061
       6873.6692      0.30133596
       6874.5534      0.24427590
       6875.4375      0.37644837
       6876.3217      0.14656403
       6877.2059      0.26975536
       6878.0900      0.25666921
       6878.9742      0.26244996
       6879.8584      0.29448555
       6880.7425      0.22660575
       6881.6267      0.22620733
       6882.5109      0.16669234
       6883.3950      0.20578994
       6884.2792      0.27512303
       6885.1634      0.26030513
       6886.0475      0.27731576
       6886.9317      0.41720098
       6887.8159      0.16759766
       6888.7000     0.055483815
       6889.5842     -0.21666320
       6890.4684      0.11127309
       6891.3525      0.45985266
       6892.2367      0.63483415
       6893.1209      0.57143832
       6894.0050      0.49995844
       6894.8892      0.21978120
       6895.7734    -0.067109753
       6896.6575     -0.10118099
       6897.5417      0.25467810
       6898.4259      0.37631427
       6899.3100      0.36428936
       6900.1942      0.48844208
       6901.0784      0.10519368
       6901.9625      0.10445101
       6902.8467     -0.27082699
       6903.7309    -0.018197536
       6904.6150      0.12869963
       6905.4992      0.27621049
       6906.3834      0.27742135
       6907.2675      0.24380232
       6908.1517      0.11809131
       6909.0359      0.20231769
       6909.9200      0.10341620
       6910.8042     0.091212684
       6911.6884      0.18118604
       6912.5725      0.26380230
       6913.4567    -0.049348278
       6914.3409      0.11568748
       6915.2250      0.13208987
       6916.1092      0.10544999
       6916.9934      0.23745461
       6917.8775      0.26000294
       6918.7617      0.15460727
       6919.6459      0.17526659
       6920.5300      0.23477253
       6921.4142      0.21327159
       6922.2984      0.13755716
       6923.1825      0.15286641
       6924.0667      0.23462704
       6924.9509      0.19876710
       6925.8350      0.18423325
       6926.7192      0.24901514
       6927.6034      0.22308975
       6928.4875      0.28566175
       6929.3717      0.17626794
       6930.2559      0.20590896
       6931.1400      0.33115667
       6932.0242      0.23450738
       6932.9084      0.13086359
       6933.7925      0.18028746
       6934.6767      0.10753813
       6935.5609      0.36615229
       6936.4450      0.38764731
       6937.3292      0.44970099
       6938.2134      0.32389569
       6939.0975      0.54039232
       6939.9817      0.50948512
       6940.8659     -0.41324527
       6941.7500     -0.25527473
       6942.6342     -0.16528056
       6943.5184      0.11514381
       6944.4025      0.28277180
       6945.2867      0.22633130
       6946.1709      0.14235846
       6947.0550      0.11883266
       6947.9392      0.36275922
       6948.8234      0.27754926
       6949.7075      0.20475971
       6950.5917      0.16698620
       6951.4759      0.24793036
       6952.3600      0.24206622
       6953.2442     0.079110752
       6954.1284      0.18826917
       6955.0125      0.14320159
       6955.8967      0.30588012
       6956.7809      0.35005176
       6957.6650      0.13265954
       6958.5492      0.24385086
       6959.4334      0.28565262
       6960.3175      0.18774240
       6961.2017      0.21409111
       6962.0859      0.20405880
       6962.9700      0.25943221
       6963.8542      0.16856644
       6964.7384      0.16309425
       6965.6225      0.30274080
       6966.5067      0.24714652
       6967.3909      0.26327063
       6968.2750      0.24647407
       6969.1592      0.26019780
       6970.0434      0.11127047
       6970.9275      0.21867941
       6971.8117      0.32119118
       6972.6959     0.056333437
       6973.5800     0.018217942
       6974.4642     0.055973816
       6975.3484     0.042783301
       6976.2325      0.25517119
       6977.1167      0.17095478
       6978.0009      0.22296604
       6978.8850      0.10651835
       6979.7692      0.26446066
       6980.6534      0.20872646
       6981.5375      0.12093996
       6982.4217      0.27342011
       6983.3059      0.26976092
       6984.1900     0.046805854
       6985.0742     0.057021823
       6985.9584      0.18592260
       6986.8425      0.24933671
       6987.7267     -0.19517191
       6988.6109     -0.13856381
       6989.4950     0.035952307
       6990.3792     0.087136546
       6991.2634      0.11241160
       6992.1475      0.28252379
       6993.0317      0.25290289
       6993.9159      0.12312215
       6994.8000      0.25248027
       6995.6842     0.067434770
       6996.5684      0.16647202
       6997.4525      0.40329023
       6998.3367      0.20151631
       6999.2209      0.24468649
       7000.1050      0.39248839
       7000.9892      0.21222126
       7001.8734      0.18576208
       7002.7575     -0.17673553
       7003.6417      0.15474129
       7004.5259      0.22052723
       7005.4100      0.24063976
       7006.2942      0.20365163
       7007.1784      0.24936552
       7008.0625     0.095743115
       7008.9467      0.31350760
       7009.8309      0.20312751
       7010.7150      0.56414843
       7011.5992      0.58832819
       7012.4834      0.61481574
       7013.3675      0.17638754
       7014.2517      0.22757126
       7015.1359     0.064359547
       7016.0201     -0.35558497
       7016.9042     -0.16247834
       7017.7884      0.15151790
       7018.6726      0.16128174
       7019.5567      0.27524989
       7020.4409      0.28019334
       7021.3251      0.25990530
       7022.2092      0.18366591
       7023.0934      0.24640262
       7023.9776      0.26867878
       7024.8617      0.18728674
       7025.7459      0.18960388
       7026.6301      0.34297156
       7027.5142      0.25321244
       7028.3984      0.31177970
       7029.2826      0.32944752
       7030.1667      0.46221933
       7031.0509      0.55824004
       7031.9351      0.21427595
       7032.8192      0.43539212
       7033.7034      0.28614645
       7034.5876      0.53613718
       7035.4717      0.19228325
       7036.3559      0.27789173
       7037.2401      0.35179200
       7038.1242      0.25057837
       7039.0084      0.17534779
       7039.8926      0.22844313
       7040.7767      0.18165218
       7041.6609      0.17730833
       7042.5451      0.33040154
       7043.4292     0.071405473
       7044.3134      0.57406132
       7045.1976     0.030000242
       7046.0817      0.34151488
       7046.9659     -0.14375571
       7047.8501     -0.10561846
       7048.7342     0.029457112
       7049.6184     0.043737012
       7050.5026      0.38482428
       7051.3867      0.29562860
       7052.2709      0.14627259
       7053.1551      0.27711295
       7054.0392      0.27159751
       7054.9234      0.37175551
       7055.8076      0.30989874
       7056.6917      0.29455174
       7057.5759     0.078757118
       7058.4601      0.27815905
       7059.3442      0.28036918
       7060.2284      0.18989995
       7061.1126      0.23996987
       7061.9967      0.36129717
       7062.8809      0.37016614
       7063.7651      0.25714818
       7064.6492      0.33012196
       7065.5334      0.21895912
       7066.4176      0.30521019
       7067.3017      0.30082499
       7068.1859      0.31816033
       7069.0701      0.45488712
       7069.9542      0.26177618
       7070.8384      0.35792121
       7071.7226      0.23574751
       7072.6067      0.24458779
       7073.4909      0.35784900
       7074.3751      0.29652040
       7075.2592      0.22657795
       7076.1434      0.19595265
       7077.0276      0.28192439
       7077.9117      0.50239479
       7078.7959      0.56500419
       7079.6801      0.67698581
       7080.5642      0.69370519
       7081.4484      0.48062005
       7082.3326      0.18844734
       7083.2167      0.10152198
       7084.1009      0.13705876
       7084.9851      0.32564645
       7085.8692      0.22798113
       7086.7534      0.12526614
       7087.6376      0.36195041
       7088.5217      0.25392287
       7089.4059      0.23462822
       7090.2901      0.27997512
       7091.1742      0.20429245
       7092.0584      0.24076440
       7092.9426      0.24858141
       7093.8267      0.22485181
       7094.7109      0.13328929
       7095.5951      0.26741648
       7096.4792      0.28315798
       7097.3634      0.27769756
       7098.2476      0.12072307
       7099.1317      0.15252417
       7100.0159     0.079601615
       7100.9001      0.17934797
       7101.7842      0.18040831
       7102.6684      0.20852579
       7103.5526      0.22579569
       7104.4367      0.22815559
       7105.3209      0.34868457
       7106.2051      0.26120400
       7107.0892      0.20430275
       7107.9734      0.36881366
       7108.8576      0.18202903
       7109.7417      0.36679345
       7110.6259      0.16257827
       7111.5101      0.26888782
       7112.3942      0.17134844
       7113.2784      0.14527469
       7114.1626      0.18224068
       7115.0467      0.31456931
       7115.9309      0.33693240
       7116.8151      0.35319122
       7117.6992      0.32619695
       7118.5834      0.25758742
       7119.4676      0.26748342
       7120.3517      0.26467802
       7121.2359      0.27633236
       7122.1201     0.050444910
       7123.0042      0.21447791
       7123.8884     0.031963985
       7124.7726      0.19846998
       7125.6567      0.29795586
       7126.5409      0.23101767
       7127.4251      0.17895544
       7128.3092      0.29958205
       7129.1934      0.18443157
       7130.0776      0.17120574
       7130.9617      0.29339672
       7131.8459      0.29588222
       7132.7301      0.25491365
       7133.6142      0.22184830
       7134.4984      0.15904512
       7135.3826      0.20654965
       7136.2667      0.22504375
       7137.1509      0.25774775
       7138.0351      0.24616845
       7138.9192      0.12490670
       7139.8034      0.15663470
       7140.6876      0.26085858
       7141.5717      0.24451257
       7142.4559      0.25858984
       7143.3401      0.32657290
       7144.2242      0.20572202
       7145.1084      0.18403109
       7145.9926      0.22474405
       7146.8767      0.31639106
       7147.7609      0.36072773
       7148.6451      0.31377871
       7149.5292      0.40769166
       7150.4134      0.11643086
       7151.2976      0.29396344
       7152.1817      0.33100727
       7153.0659      0.17210832
       7153.9501      0.14065433
       7154.8342      0.17481905
       7155.7184      0.30317522
       7156.6026      0.19762700
       7157.4867     0.078518677
       7158.3709      0.21287804
       7159.2551     0.081842137
       7160.1393      0.11553461
       7161.0234      0.22746866
       7161.9076      0.17530321
       7162.7918      0.18910218
       7163.6759      0.27974762
       7164.5601      0.43594045
       7165.4443      0.28625932
       7166.3284     0.061980608
       7167.2126      0.11229890
       7168.0968      0.24232529
       7168.9809      0.31045853
       7169.8651      0.32063265
       7170.7493      0.31999651
       7171.6334      0.51217154
       7172.5176      0.24487872
       7173.4018      0.22802069
       7174.2859      0.27194263
       7175.1701      0.48185215
       7176.0543      0.14117680
       7176.9384      0.28229573
       7177.8226      0.20090949
       7178.7068      0.56765936
       7179.5909      0.67136907
       7180.4751      0.23058649
       7181.3593      0.27098591
       7182.2434      0.28246138
       7183.1276      0.33413958
       7184.0118      0.38153240
       7184.8959      0.39700035
       7185.7801      0.10209884
       7186.6643      0.31061549
       7187.5484      0.39088160
       7188.4326      0.25796153
       7189.3168     0.090142887
       7190.2009      0.42156359
       7191.0851      0.28689713
       7191.9693      0.27569534
       7192.8534      0.40369395
       7193.7376     0.062311744
       7194.6218      0.60671175
       7195.5059      0.43674872
       7196.3901      0.25042188
       7197.2743      0.39149262
       7198.1584      0.35012590
       7199.0426      0.30608107
       7199.9268      0.35763262
       7200.8109      0.18734214
       7201.6951      0.28372028
       7202.5793      0.37457386
       7203.4634      0.46589031
       7204.3476      0.26545844
       7205.2318      0.15390593
       7206.1159      0.26214736
       7207.0001    -0.083971039
       7207.8843      0.26192369
       7208.7684      0.22092825
       7209.6526      0.33908252
       7210.5368      0.26613103
       7211.4209      0.34068928
       7212.3051      0.19815588
       7213.1893     0.030725939
       7214.0734      0.15258836
       7214.9576     0.067086247
       7215.8418      0.20680184
       7216.7259      0.29215594
       7217.6101      0.19559584
       7218.4943      0.19745819
       7219.3784      0.21245540
       7220.2626      0.18090300
       7221.1468      0.29983110
       7222.0309      0.11845825
       7222.9151      0.19532949
       7223.7993      0.13081995
       7224.6834      0.24599836
       7225.5676      0.22149194
       7226.4518      0.25892032
       7227.3359      0.17700392
       7228.2201      0.26816481
       7229.1043      0.20638346
       7229.9884      0.34484975
       7230.8726      0.12712253
       7231.7568      0.17858462
       7232.6409      0.17819095
       7233.5251      0.26121369
       7234.4093      0.21067466
       7235.2934      0.29061631
       7236.1776      0.30891205
       7237.0618      0.23252226
       7237.9459      0.12148966
       7238.8301      0.19538155
       7239.7143      0.11705916
       7240.5984      0.17425040
       7241.4826      0.19507705
       7242.3668      0.60362109
       7243.2509      0.38489500
       7244.1351      0.12507172
       7245.0193      0.22680389
       7245.9034     0.071803228
       7246.7876    -0.044947228
       7247.6718    -0.027631462
       7248.5559     -0.14906506
       7249.4401      0.23469052
       7250.3243     0.019966884
       7251.2084      0.18378135
       7252.0926      0.24576663
       7252.9768      0.10092618
       7253.8609    -0.079384844
       7254.7451      0.20970029
       7255.6293      0.12093033
       7256.5134      0.22461860
       7257.3976      0.21954437
       7258.2818      0.33256415
       7259.1659      0.15330055
       7260.0501      0.37196646
       7260.9343      0.14255403
       7261.8184     0.094257996
       7262.7026      0.18689787
       7263.5868      0.18159669
       7264.4709      0.24110267
       7265.3551      0.33639078
       7266.2393      0.26027457
       7267.1234      0.19375293
       7268.0076      0.29736281
       7268.8918      0.25538110
       7269.7759      0.26292561
       7270.6601      0.17251552
       7271.5443      0.28085776
       7272.4284      0.17311573
       7273.3126      0.29996293
       7274.1968      0.15764630
       7275.0809      0.21095850
       7275.9651      0.22516499
       7276.8493      0.26302311
       7277.7334      0.12715371
       7278.6176      0.27597244
       7279.5018      0.22632177
       7280.3859      0.30711787
       7281.2701      0.28734397
       7282.1543      0.27731585
       7283.0384      0.26755406
       7283.9226      0.23602995
       7284.8068      0.42237799
       7285.6909      0.40715523
       7286.5751      0.47712196
       7287.4593      0.32261112
       7288.3434      0.10595006
       7289.2276      0.33914794
       7290.1118     0.046403526
       7290.9959      0.23767020
       7291.8801      0.23267700
       7292.7643      0.13583317
       7293.6484      0.12965879
       7294.5326      0.19184751
       7295.4168      0.25362629
       7296.3009      0.28591449
       7297.1851      0.23413551
       7298.0693      0.18193948
       7298.9534      0.25211693
       7299.8376      0.19032763
       7300.7218      0.19366609
       7301.6059      0.11303851
       7302.4901      0.26852664
       7303.3743     -0.30238769
       7304.2584      0.18623207
       7305.1426     -0.41841812
       7306.0268      0.16122067
       7306.9110     0.083514719
       7307.7951      0.18938679
       7308.6793      0.33569015
       7309.5635      0.29420143
       7310.4476      0.17411589
       7311.3318      0.19134461
       7312.2160      0.19703696
       7313.1001      0.17307831
       7313.9843      0.32948738
       7314.8685      0.18185501
       7315.7526     0.063559360
       7316.6368      0.20517343
       7317.5210      0.12898698
       7318.4051      0.45823835
       7319.2893      0.12525918
       7320.1735      0.31915782
       7321.0576      0.50805055
       7321.9418      0.38448216
       7322.8260      0.14224232
       7323.7101     0.092126105
       7324.5943      0.10673609
       7325.4785      0.14114808
       7326.3626      0.39353512
       7327.2468      0.27082576
       7328.1310      0.39398322
       7329.0151      0.32902241
       7329.8993      0.23528819
       7330.7835      0.13998795
       7331.6676      0.28530105
       7332.5518    -0.021787999
       7333.4360      0.28606711
       7334.3201     -0.44691307
       7335.2043     -0.18616421
       7336.0885      0.13667846
       7336.9726      0.46601029
       7337.8568     0.022180743
       7338.7410      0.24434120
       7339.6251     0.069235233
       7340.5093      0.34567408
       7341.3935      0.19651470
       7342.2776      0.31764889
       7343.1618      0.19764237
       7344.0460      0.29174486
       7344.9301      0.29762556
       7345.8143      0.34545802
       7346.6985      0.29169923
       7347.5826      0.25009660
       7348.4668      0.18725455
       7349.3510      0.21069344
       7350.2351      0.25426401
       7351.1193      0.34728861
       7352.0035      0.23455909
       7352.8876      0.31198227
       7353.7718      0.36699542
       7354.6560      0.26578365
       7355.5401      0.48856942
       7356.4243      0.20760880
       7357.3085     -0.16233744
       7358.1926     -0.28415176
       7359.0768      0.11567462
       7359.9610      0.22282086
       7360.8451    -0.088313560
       7361.7293     -0.15631700
       7362.6135      0.33073177
       7363.4976     -0.14113808
       7364.3818      0.38134067
       7365.2660      0.31606696
       7366.1501     0.048326698
       7367.0343      0.20101343
       7367.9185     -0.17116744
       7368.8026    -0.023021919
       7369.6868    -0.065265991
       7370.5710      0.51180141
       7371.4551      0.52967227
       7372.3393      0.47768171
       7373.2235     0.086710222
       7374.1076    -0.065801830
       7374.9918      0.17429248
       7375.8760      0.29352697
       7376.7601      0.12587600
       7377.6443      0.21345243
       7378.5285     0.094624807
       7379.4126      0.13219357
       7380.2968      0.35389252
       7381.1810      0.33547013
       7382.0651      0.12783655
       7382.9493      0.12019879
       7383.8335      0.19476015
       7384.7176      0.30308489
       7385.6018      0.29907904
       7386.4860      0.18590379
       7387.3701      0.22595287
       7388.2543      0.30462645
       7389.1385     0.070110439
       7390.0226      0.26118280
       7390.9068    -0.024085129
       7391.7910      0.20303540
       7392.6751      0.17073173
       7393.5593      0.26309697
       7394.4435      0.21291951
       7395.3276      0.22737228
       7396.2118      0.33443531
       7397.0960      0.37838648
       7397.9801      0.27681565
       7398.8643     0.053055108
       7399.7485      0.36671226
       7400.6326    -0.081226166
       7401.5168      0.16431037
       7402.4010      0.19138549
       7403.2851      0.13779856
       7404.1693    -0.025128051
       7405.0535      0.19219367
       7405.9376      0.38045644
       7406.8218      0.12801395
       7407.7060      0.42062175
       7408.5901      0.10918527
       7409.4743     0.048916941
       7410.3585     0.012860891
       7411.2426     -0.15445519
       7412.1268     0.028149373
       7413.0110      0.25579797
       7413.8951      0.27521590
       7414.7793      0.19006275
       7415.6635     0.099009488
       7416.5476      0.44110602
       7417.4318      0.22352826
       7418.3160      0.38494615
       7419.2001     0.093330775
       7420.0843      0.13096872
       7420.9685      0.32188085
       7421.8526      0.15356600
       7422.7368      0.18403747
       7423.6210      0.20448274
       7424.5051      0.31195158
       7425.3893     0.082428484
       7426.2735      0.23673688
       7427.1576      0.21572805
       7428.0418      0.19392698
       7428.9260      0.20033948
       7429.8101      0.30765024
       7430.6943      0.14270109
       7431.5785     0.068262933
       7432.4626      0.32636120
       7433.3468      0.43774629
       7434.2310      0.11014253
       7435.1151      0.23455631
       7435.9993      0.14299266
       7436.8835      0.16018908
       7437.7676      0.25115811
       7438.6518      0.18596192
       7439.5360      0.29459359
       7440.4201     0.094382625
       7441.3043     0.096219163
       7442.1885      0.46723462
       7443.0726      0.37566647
       7443.9568      0.41643134
       7444.8410    -0.016260136
       7445.7251     0.066284522
       7446.6093     0.078993980
       7447.4935     0.030748038
       7448.3776      0.18069488
       7449.2618     0.086098565
       7450.1460      0.14754680
       7451.0301      0.21126889
       7451.9143      0.26334069
       7452.7985      0.20877430
       7453.6827      0.13542192
       7454.5668      0.13837228
       7455.4510      0.31470944
       7456.3352      0.57279622
       7457.2193      0.13341756
       7458.1035      0.43033231
       7458.9877     0.074097290
       7459.8718      0.16556064
       7460.7560      0.28760605
       7461.6402      0.45394319
       7462.5243     -0.20511465
       7463.4085      0.10732749
       7464.2927      0.32101233
       7465.1768      0.11960446
       7466.0610      0.17699687
       7466.9452      0.26381212
       7467.8293      0.23270129
       7468.7135   -0.0040848767
       7469.5977      0.25698531
       7470.4818      0.23448446
       7471.3660      0.26152323
       7472.2502    -0.060149614
       7473.1343      0.48564394
       7474.0185      0.59047039
       7474.9027      0.32923245
       7475.7868    -0.033487993
       7476.6710      0.14675197
       7477.5552     -0.20826694
       7478.4393      0.13645616
       7479.3235      0.19878971
       7480.2077      0.22703039
       7481.0918      0.30105676
       7481.9760      0.14964243
       7482.8602      0.15293533
       7483.7443      0.17248045
       7484.6285      0.10788895
       7485.5127      0.31255703
       7486.3968      0.34226277
       7487.2810      0.20303776
       7488.1652      0.34304088
       7489.0493     -0.12896207
       7489.9335      0.77242835
       7490.8177      0.48028184
       7491.7018      0.20659631
       7492.5860     0.071376533
       7493.4702     0.067596139
       7494.3543     0.024371303
       7495.2385      0.31027200
       7496.1227      0.15559988
       7497.0068      0.31286073
       7497.8910      0.26772286
       7498.7752      0.13036940
       7499.6593     0.042174911
       7500.5435      0.13274094
       7501.4277     0.031123277
       7502.3118      0.19283504
       7503.1960      0.30776647
       7504.0802      0.19272443
       7504.9643      0.27279739
       7505.8485     0.038459701
       7506.7327      0.27140663
       7507.6168      0.16757250
       7508.5010      0.31652838
       7509.3852      0.25465243
       7510.2693      0.45188619
       7511.1535      0.10245170
       7512.0377      0.20049145
       7512.9218    -0.018971001
       7513.8060     0.087416553
       7514.6902     0.085997854
       7515.5743     0.065947051
       7516.4585      0.20448029
       7517.3427     -0.11901835
       7518.2268      0.30750336
       7519.1110     0.029367420
       7519.9952      0.28442092
       7520.8793      0.26992165
       7521.7635     0.097651339
       7522.6477      0.46152259
       7523.5318      0.47171387
       7524.4160      0.27456201
       7525.3002     -0.35400302
       7526.1843      0.70543001
       7527.0685     -0.26937152
       7527.9527   -0.0088733565
       7528.8368      0.30805990
       7529.7210      0.15384343
       7530.6052     0.083824045
       7531.4893     0.048936273
       7532.3735      0.28188047
       7533.2577      0.41085591
       7534.1418      0.12953829
       7535.0260      0.26290525
       7535.9102      0.19357548
       7536.7943      0.26200861
       7537.6785     0.097566186
       7538.5627      0.30548257
       7539.4468      0.35062397
       7540.3310      0.45720994
       7541.2152      0.12639069
       7542.0993     0.097559650
       7542.9835   0.00096043485
