# wavelength flux
       2811.3927     0.036424721
       2812.3491   0.00099700429
       2813.3055     0.057093509
       2814.2619     0.098114543
       2815.2183     0.051056180
       2816.1747     0.058163176
       2817.1312     0.056220051
       2818.0876    -0.029180762
       2819.0440    0.0053459618
       2820.0004   -0.0058883832
       2820.9568     0.029989063
       2821.9132     0.035612824
       2822.8697    -0.028007389
       2823.8261    -0.033853462
       2824.7825     0.026438483
       2825.7389     0.060360851
       2826.6953    0.0010788275
       2827.6517     0.031442667
       2828.6082     0.011010314
       2829.5646     0.033032802
       2830.5210    -0.036114259
       2831.4774    -0.020719789
       2832.4338    -0.033563321
       2833.3902    0.0022101434
       2834.3467     0.013296105
       2835.3031    -0.028839498
       2836.2595     0.063767102
       2837.2159    0.0025010397
       2838.1723     0.093902848
       2839.1287    -0.048650933
       2840.0851    -0.019873168
       2841.0416     0.091089487
       2841.9980     0.033467205
       2842.9544      0.10810671
       2843.9108     0.083644087
       2844.8672     0.031554790
       2845.8236     0.037263725
       2846.7801     0.051461562
       2847.7365      0.12561931
       2848.6929     0.051759494
       2849.6493     0.051515667
       2850.6057     0.027093932
       2851.5621     0.077872455
       2852.5186     0.043077640
       2853.4750     0.080769319
       2854.4314     0.014146596
       2855.3878     0.071194217
       2856.3442     0.020923649
       2857.3006     0.029243409
       2858.2571     0.027661673
       2859.2135     0.011869689
       2860.1699     0.051789608
       2861.1263     0.097178102
       2862.0827     0.068294707
       2863.0391     0.080993299
       2863.9955     0.036460295
       2864.9520     0.023317851
       2865.9084    0.0063291433
       2866.8648     0.095722452
       2867.8212     0.079309635
       2868.7776     0.080931380
       2869.7340     0.056658371
       2870.6905     0.083468306
       2871.6469     0.053478412
       2872.6033     0.070863810
       2873.5597     0.035836860
       2874.5161     0.060485978
       2875.4725     0.070950191
       2876.4290     0.080929184
       2877.3854     0.072522663
       2878.3418      0.15906820
       2879.2982     0.037861341
       2880.2546     0.058276304
       2881.2110      0.19715820
       2882.1675     0.074247332
       2883.1239      0.10354137
       2884.0803      0.10870061
       2885.0367      0.15421453
       2885.9931     0.023696498
       2886.9495      0.15954012
       2887.9060      0.12420478
       2888.8624     0.079959987
       2889.8188     0.094771035
       2890.7752     0.021535312
       2891.7316      0.12354778
       2892.6880     0.037835504
       2893.6444      0.14119530
       2894.6009      0.17612025
       2895.5573     0.079935754
       2896.5137      0.17268784
       2897.4701     0.095433701
       2898.4265     0.092365966
       2899.3829      0.11793944
       2900.3394     0.078395011
       2901.2958      0.13353624
       2902.2522      0.14122335
       2903.2086     0.043845346
       2904.1650     0.068753060
       2905.1214     0.075279306
       2906.0779      0.11213880
       2907.0343     0.048764604
       2907.9907      0.13957647
       2908.9471     0.064905883
       2909.9035     0.040913385
       2910.8599      0.13645763
       2911.8164      0.14255342
       2912.7728      0.14004137
       2913.7292      0.16876108
       2914.6856     0.091269419
       2915.6420     0.092270137
       2916.5984      0.13184946
       2917.5548      0.18227278
       2918.5113      0.20271593
       2919.4677      0.10332087
       2920.4241     0.041273071
       2921.3805     0.088306368
       2922.3369      0.22434066
       2923.2933     0.092411134
       2924.2498     0.099278244
       2925.2062     0.077728611
       2926.1626     0.058961535
       2927.1190      0.10981204
       2928.0754      0.14406923
       2929.0318     0.083674736
       2929.9883     0.089763989
       2930.9447     0.053457770
       2931.9011     0.052399182
       2932.8575     0.034261814
       2933.8139     0.099706136
       2934.7703      0.11086243
       2935.7268     0.066199464
       2936.6832      0.10638659
       2937.6396      0.14717321
       2938.5960      0.13548966
       2939.5524      0.18427526
       2940.5088      0.18477592
       2941.4653      0.10715585
       2942.4217      0.12231309
       2943.3781      0.16734960
       2944.3345      0.15022709
       2945.2909      0.11667816
       2946.2473      0.10273167
       2947.2037     0.087193199
       2948.1602      0.10818838
       2949.1166     0.090220067
       2950.0730      0.14082524
       2951.0294      0.11535442
       2951.9858      0.12109475
       2952.9422     0.064584352
       2953.8987     0.093885667
       2954.8551     0.072192554
       2955.8115      0.14260979
       2956.7679      0.10950961
       2957.7243      0.16204391
       2958.6807     0.075505221
       2959.6372     0.098414684
       2960.5936     0.048348667
       2961.5500      0.13335046
       2962.5064      0.10249173
       2963.4628      0.11694301
       2964.4192     0.096153416
       2965.3757     0.071386530
       2966.3321     0.070444321
       2967.2885      0.11017936
       2968.2449     0.087792151
       2969.2013     0.048771872
       2970.1577     0.073232269
       2971.1142      0.13195464
       2972.0706     0.034402163
       2973.0270      0.12408632
       2973.9834      0.12442069
       2974.9398      0.13404965
       2975.8962      0.13908218
       2976.8526      0.14355663
       2977.8091      0.15468737
       2978.7655      0.14072098
       2979.7219      0.12288972
       2980.6783      0.10405152
       2981.6347      0.13824192
       2982.5911     0.082283427
       2983.5476     0.064166543
       2984.5040     0.055947643
       2985.4604      0.10918922
       2986.4168      0.13047670
       2987.3732     0.087006350
       2988.3296      0.12554307
       2989.2861     0.068271777
       2990.2425     0.089276232
       2991.1989      0.13587484
       2992.1553     0.061522300
       2993.1117     0.091932048
       2994.0681     0.051802831
       2995.0246      0.11598177
       2995.9810      0.14785759
       2996.9374      0.11785367
       2997.8938     0.076029388
       2998.8502      0.11220402
       2999.8066      0.13850473
       3000.7630      0.10384433
       3001.7195     0.094509365
       3002.6759      0.14820017
       3003.6323      0.13943158
       3004.5887      0.10694530
       3005.5451      0.10610584
       3006.5015     0.093887477
       3007.4580     0.068916458
       3008.4144      0.11601820
       3009.3708     0.052209145
       3010.3272      0.10467794
       3011.2836     0.079487212
       3012.2400      0.13013747
       3013.1965      0.13325265
       3014.1529      0.15071888
       3015.1093      0.10913490
       3016.0657      0.10962817
       3017.0221      0.12903644
       3017.9785      0.13291567
       3018.9350      0.10200905
       3019.8914      0.14273248
       3020.8478      0.18431865
       3021.8042      0.15882199
       3022.7606      0.17109119
       3023.7170      0.15425958
       3024.6735      0.17251261
       3025.6299      0.11080457
       3026.5863      0.12543428
       3027.5427      0.14860462
       3028.4991      0.12113957
       3029.4555      0.13604800
       3030.4119      0.12493915
       3031.3684      0.21062798
       3032.3248      0.15977419
       3033.2812      0.16337574
       3034.2376      0.16506009
       3035.1940      0.17281161
       3036.1504      0.11238124
       3037.1069      0.20190110
       3038.0633      0.16610240
       3039.0197      0.15686762
       3039.9761      0.18319369
       3040.9325      0.23406173
       3041.8889      0.20382219
       3042.8454      0.18843426
       3043.8018      0.17216791
       3044.7582      0.19855102
       3045.7146      0.15514865
       3046.6710      0.12320289
       3047.6274     0.092635602
       3048.5839      0.12962638
       3049.5403      0.10588846
       3050.4967      0.16072253
       3051.4531      0.14569441
       3052.4095      0.16373659
       3053.3659      0.11514030
       3054.3223      0.15544733
       3055.2788      0.13382882
       3056.2352     0.083294789
       3057.1916      0.11702406
       3058.1480      0.15649552
       3059.1044      0.20846478
       3060.0608      0.20774944
       3061.0173      0.16766254
       3061.9737      0.15198134
       3062.9301      0.19787821
       3063.8865      0.20252192
       3064.8429      0.14299170
       3065.7993      0.13015707
       3066.7558      0.17458351
       3067.7122      0.18432619
       3068.6686      0.18046652
       3069.6250      0.17475173
       3070.5814      0.17953624
       3071.5378      0.17095315
       3072.4943      0.17093714
       3073.4507      0.17892217
       3074.4071      0.15433932
       3075.3635      0.14922877
       3076.3199      0.15725547
       3077.2763      0.17731255
       3078.2328      0.18161369
       3079.1892      0.14099426
       3080.1456      0.16148276
       3081.1020      0.15488315
       3082.0584      0.14178502
       3083.0148      0.11191583
       3083.9712      0.13008771
       3084.9277      0.10396108
       3085.8841      0.12646715
       3086.8405     0.089034135
       3087.7969      0.11464944
       3088.7533     0.065731726
       3089.7097      0.13159790
       3090.6662      0.13826758
       3091.6226      0.11930906
       3092.5790     0.095858692
       3093.5354      0.11968254
       3094.4918      0.20420240
       3095.4482      0.17044245
       3096.4047      0.18575399
       3097.3611      0.19719793
       3098.3175      0.22095794
       3099.2739      0.20871027
       3100.2303      0.19375941
       3101.1867      0.21934557
       3102.1432      0.13843082
       3103.0996      0.18848550
       3104.0560      0.21339134
       3105.0124      0.16953409
       3105.9688      0.21972412
       3106.9252      0.23213095
       3107.8816      0.19317983
       3108.8381      0.16284520
       3109.7945      0.15557613
       3110.7509      0.20124692
       3111.7073      0.19140721
       3112.6637      0.15249385
       3113.6201      0.11207113
       3114.5766      0.18819718
       3115.5330      0.18058779
       3116.4894      0.19154751
       3117.4458      0.16379311
       3118.4022      0.18661149
       3119.3586      0.12671074
       3120.3151      0.19580659
       3121.2715      0.21625834
       3122.2279      0.18697468
       3123.1843      0.23208360
       3124.1407      0.22621446
       3125.0971      0.20247000
       3126.0536      0.22624127
       3127.0100      0.18954781
       3127.9664      0.19593669
       3128.9228      0.19830039
       3129.8792      0.22892395
       3130.8356      0.20525698
       3131.7921      0.23484674
       3132.7485      0.22536554
       3133.7049      0.20453693
       3134.6613      0.21126103
       3135.6177      0.26787069
       3136.5741      0.22412276
       3137.5305      0.15644701
       3138.4870      0.20684568
       3139.4434      0.16173087
       3140.3998      0.21611540
       3141.3562      0.22434232
       3142.3126      0.17254888
       3143.2690      0.27256640
       3144.2255      0.15833602
       3145.1819      0.21707546
       3146.1383      0.19020281
       3147.0947      0.18020549
       3148.0511      0.23581523
       3149.0075      0.20680929
       3149.9640      0.13138411
       3150.9204      0.14932590
       3151.8768      0.20705690
       3152.8332      0.18223406
       3153.7896      0.17301161
       3154.7460      0.15234950
       3155.7025      0.14201811
       3156.6589      0.14462275
       3157.6153      0.12961195
       3158.5717      0.16033585
       3159.5281      0.15773949
       3160.4845      0.22078964
       3161.4409      0.23284988
       3162.3974      0.23235904
       3163.3538      0.25560300
       3164.3102      0.24602671
       3165.2666      0.28410604
       3166.2230      0.20254197
       3167.1794      0.27612986
       3168.1359      0.29415459
       3169.0923      0.25063336
       3170.0487      0.26612327
       3171.0051      0.20165015
       3171.9615      0.20749376
       3172.9179      0.20726333
       3173.8744      0.18779878
       3174.8308      0.19644959
       3175.7872      0.19491958
       3176.7436      0.16677513
       3177.7000      0.16349387
       3178.6564      0.17383065
       3179.6129      0.20466833
       3180.5693      0.21034679
       3181.5257      0.20175732
       3182.4821      0.21124340
       3183.4385      0.25514246
       3184.3949      0.20067287
       3185.3514      0.20274572
       3186.3078      0.18400266
       3187.2642      0.20729535
       3188.2206      0.16469946
       3189.1770      0.20911786
       3190.1334      0.20542409
       3191.0898      0.23010109
       3192.0463      0.16274221
       3193.0027      0.27725736
       3193.9591      0.25429185
       3194.9155      0.24910120
       3195.8719      0.22074171
       3196.8283      0.25928953
       3197.7848      0.29962722
       3198.7412      0.28249032
       3199.6976      0.27742680
       3200.6540      0.25689467
       3201.6104      0.26679343
       3202.5668      0.26859408
       3203.5233      0.19583405
       3204.4797      0.21272086
       3205.4361      0.22889358
       3206.3925      0.20042926
       3207.3489      0.16632183
       3208.3053      0.19179935
       3209.2618      0.17769914
       3210.2182      0.15713186
       3211.1746      0.19038452
       3212.1310      0.21896460
       3213.0874      0.21322795
       3214.0438      0.22324267
       3215.0002      0.22507362
       3215.9567      0.20867358
       3216.9131      0.20081276
       3217.8695      0.22415369
       3218.8259      0.20308137
       3219.7823      0.24417380
       3220.7387      0.23073320
       3221.6952      0.23447802
       3222.6516      0.23300543
       3223.6080      0.24528226
       3224.5644      0.19986262
       3225.5208      0.22302453
       3226.4772      0.24857837
       3227.4337      0.22717469
       3228.3901      0.18526360
       3229.3465      0.20198810
       3230.3029      0.21016950
       3231.2593      0.23137294
       3232.2157      0.22740543
       3233.1722      0.18864044
       3234.1286      0.24951938
       3235.0850      0.23637415
       3236.0414      0.27945156
       3236.9978      0.29136175
       3237.9542      0.22134090
       3238.9107      0.29147051
       3239.8671      0.27287012
       3240.8235      0.29130213
       3241.7799      0.20202338
       3242.7363      0.28044246
       3243.6927      0.27579539
       3244.6491      0.22811386
       3245.6056      0.25512933
       3246.5620      0.25752469
       3247.5184      0.26656757
       3248.4748      0.28277715
       3249.4312      0.29016927
       3250.3876      0.28969324
       3251.3441      0.30219894
       3252.3005      0.35859655
       3253.2569      0.34276379
       3254.2133      0.34374539
       3255.1697      0.30898352
       3256.1261      0.38722633
       3257.0826      0.35030801
       3258.0390      0.34839916
       3258.9954      0.33476524
       3259.9518      0.33524253
       3260.9082      0.28095348
       3261.8646      0.33498282
       3262.8211      0.36316140
       3263.7775      0.33339860
       3264.7339      0.32324618
       3265.6903      0.32140174
       3266.6467      0.33223276
       3267.6031      0.30049041
       3268.5595      0.31428929
       3269.5160      0.37104412
       3270.4724      0.33246023
       3271.4288      0.36341213
       3272.3852      0.32712065
       3273.3416      0.30027680
       3274.2980      0.33224938
       3275.2545      0.30804974
       3276.2109      0.29385193
       3277.1673      0.29675134
       3278.1237      0.32130655
       3279.0801      0.29169265
       3280.0365      0.31779190
       3280.9930      0.30993687
       3281.9494      0.34040986
       3282.9058      0.29290305
       3283.8622      0.31479682
       3284.8186      0.26542490
       3285.7750      0.32005693
       3286.7315      0.33807241
       3287.6879      0.33640285
       3288.6443      0.42594512
       3289.6007      0.39513538
       3290.5571      0.40785052
       3291.5135      0.39442937
       3292.4700      0.41381022
       3293.4264      0.37711387
       3294.3828      0.36489601
       3295.3392      0.40344179
       3296.2956      0.41634257
       3297.2520      0.43607900
       3298.2084      0.41624216
       3299.1649      0.35504530
       3300.1213      0.44909153
       3301.0777      0.35890169
       3302.0341      0.37343309
       3302.9905      0.38089065
       3303.9469      0.35539390
       3304.9034      0.38019517
       3305.8598      0.36823358
       3306.8162      0.37561846
       3307.7726      0.39636556
       3308.7290      0.35251263
       3309.6854      0.37376907
       3310.6419      0.40062161
       3311.5983      0.34694034
       3312.5547      0.33679770
       3313.5111      0.35418609
       3314.4675      0.38108451
       3315.4239      0.37949289
       3316.3804      0.35684326
       3317.3368      0.38268972
       3318.2932      0.36879178
       3319.2496      0.39392733
       3320.2060      0.35295681
       3321.1624      0.39571519
       3322.1188      0.35246157
       3323.0753      0.39332455
       3324.0317      0.41100450
       3324.9881      0.35192769
       3325.9445      0.35747071
       3326.9009      0.39257262
       3327.8573      0.39984251
       3328.8138      0.36160441
       3329.7702      0.34257640
       3330.7266      0.35240159
       3331.6830      0.32923434
       3332.6394      0.35701635
       3333.5958      0.37520174
       3334.5523      0.35516023
       3335.5087      0.34841031
       3336.4651      0.33908260
       3337.4215      0.32300106
       3338.3779      0.30609841
       3339.3343      0.37911803
       3340.2908      0.41347153
       3341.2472      0.40924655
       3342.2036      0.40366694
       3343.1600      0.37438657
       3344.1164      0.39299262
       3345.0728      0.41096228
       3346.0293      0.34440552
       3346.9857      0.37893930
       3347.9421      0.38037081
       3348.8985      0.42107245
       3349.8549      0.34916541
       3350.8113      0.40420085
       3351.7677      0.43303283
       3352.7242      0.39099991
       3353.6806      0.40873016
       3354.6370      0.38535377
       3355.5934      0.41204956
       3356.5498      0.34992242
       3357.5062      0.34302350
       3358.4627      0.33372083
       3359.4191      0.34192466
       3360.3755      0.28832423
       3361.3319      0.31490968
       3362.2883      0.33727828
       3363.2447      0.33907103
       3364.2012      0.33442680
       3365.1576      0.33187125
       3366.1140      0.33059457
       3367.0704      0.32914679
       3368.0268      0.36145850
       3368.9832      0.29393063
       3369.9397      0.31572421
       3370.8961      0.31833071
       3371.8525      0.28888073
       3372.8089      0.29464388
       3373.7653      0.37699450
       3374.7217      0.39837132
       3375.6781      0.36413881
       3376.6346      0.36281408
       3377.5910      0.37332645
       3378.5474      0.37620944
       3379.5038      0.38874112
       3380.4602      0.35562799
       3381.4166      0.38597447
       3382.3731      0.39021972
       3383.3295      0.33919257
       3384.2859      0.39479287
       3385.2423      0.40502345
       3386.1987      0.41427941
       3387.1551      0.39652540
       3388.1116      0.41224195
       3389.0680      0.42222970
       3390.0244      0.36679203
       3390.9808      0.38594826
       3391.9372      0.35614625
       3392.8936      0.36898731
       3393.8501      0.42357820
       3394.8065      0.38849503
       3395.7629      0.41680921
       3396.7193      0.43334191
       3397.6757      0.43130972
       3398.6321      0.45052890
       3399.5886      0.48513699
       3400.5450      0.44165522
       3401.5014      0.45330895
       3402.4578      0.45653519
       3403.4142      0.49053591
       3404.3706      0.43908932
       3405.3270      0.40762731
       3406.2835      0.43185629
       3407.2399      0.45516885
       3408.1963      0.38682337
       3409.1527      0.45551206
       3410.1091      0.43187070
       3411.0655      0.36856780
       3412.0220      0.37488621
       3412.9784      0.38349144
       3413.9348      0.37364188
       3414.8912      0.40366287
       3415.8476      0.41667071
       3416.8040      0.41359270
       3417.7605      0.38928804
       3418.7169      0.43535293
       3419.6733      0.45362112
       3420.6297      0.41132274
       3421.5861      0.42499664
       3422.5425      0.47451361
       3423.4990      0.41303566
       3424.4554      0.45998944
       3425.4118      0.46801242
       3426.3682      0.45538746
       3427.3246      0.43752254
       3428.2810      0.46941558
       3429.2375      0.44814433
       3430.1939      0.45728410
       3431.1503      0.46861955
       3432.1067      0.44835151
       3433.0631      0.42544665
       3434.0195      0.44422974
       3434.9759      0.40661925
       3435.9324      0.43814895
       3436.8888      0.42610271
       3437.8452      0.43894404
       3438.8016      0.37399488
       3439.7580      0.36473128
       3440.7144      0.34716205
       3441.6709      0.31762772
       3442.6273      0.34507390
       3443.5837      0.34474762
       3444.5401      0.31373648
       3445.4965      0.33637594
       3446.4529      0.36987212
       3447.4094      0.38817830
       3448.3658      0.43987574
       3449.3222      0.44128536
       3450.2786      0.44295603
       3451.2350      0.43935140
       3452.1914      0.45929812
       3453.1479      0.42046000
       3454.1043      0.43250005
       3455.0607      0.45235523
       3456.0171      0.46472945
       3456.9735      0.43329984
       3457.9299      0.39720890
       3458.8863      0.37866953
       3459.8428      0.41793925
       3460.7992      0.42234888
       3461.7556      0.35249318
       3462.7120      0.36646730
       3463.6684      0.38284435
       3464.6248      0.42100968
       3465.5813      0.40613840
       3466.5377      0.42886444
       3467.4941      0.44646724
       3468.4505      0.43479003
       3469.4069      0.47314797
       3470.3633      0.44436009
       3471.3198      0.45466891
       3472.2762      0.47171107
       3473.2326      0.41723717
       3474.1890      0.40275002
       3475.1454      0.38141796
       3476.1018      0.39966929
       3477.0583      0.35567945
       3478.0147      0.33590571
       3478.9711      0.45123565
       3479.9275      0.37476030
       3480.8839      0.41083401
       3481.8403      0.43916740
       3482.7968      0.43839577
       3483.7532      0.39143938
       3484.7096      0.45445830
       3485.6660      0.39495087
       3486.6224      0.40723772
       3487.5788      0.39901497
       3488.5352      0.42906344
       3489.4917      0.43753370
       3490.4481      0.40467304
       3491.4045      0.40533492
       3492.3609      0.36913028
       3493.3173      0.41182313
       3494.2737      0.39378555
       3495.2302      0.39919997
       3496.1866      0.40082528
       3497.1430      0.39384907
       3498.0994      0.47382845
       3499.0558      0.44457422
       3500.0122      0.46677752
       3500.9687      0.45343827
       3501.9251      0.49782473
       3502.8815      0.49919422
       3503.8379      0.46885705
       3504.7943      0.53167106
       3505.7507      0.50935808
       3506.7072      0.47424800
       3507.6636      0.48715091
       3508.6200      0.45150377
       3509.5764      0.52410041
       3510.5328      0.44024426
       3511.4892      0.44217418
       3512.4456      0.45073042
       3513.4021      0.46856861
       3514.3585      0.44277927
       3515.3149      0.45790241
       3516.2713      0.48281895
       3517.2277      0.46484239
       3518.1841      0.46523715
       3519.1406      0.51954195
       3520.0970      0.48516869
       3521.0534      0.51127930
       3522.0098      0.44880608
       3522.9662      0.43781412
       3523.9226      0.45108001
       3524.8791      0.40848147
       3525.8355      0.37846826
       3526.7919      0.41821747
       3527.7483      0.40641297
       3528.7047      0.42415073
       3529.6611      0.39748319
       3530.6176      0.46549258
       3531.5740      0.43721463
       3532.5304      0.49306883
       3533.4868      0.47526195
       3534.4432      0.51103663
       3535.3996      0.50249356
       3536.3561      0.49963210
       3537.3125      0.49246007
       3538.2689      0.49219222
       3539.2253      0.55174444
       3540.1817      0.54993772
       3541.1381      0.55742177
       3542.0945      0.53597792
       3543.0510      0.50500655
       3544.0074      0.57425956
       3544.9638      0.55884158
       3545.9202      0.48861034
       3546.8766      0.54730263
       3547.8330      0.51634942
       3548.7895      0.51531250
       3549.7459      0.49011936
       3550.7023      0.53089174
       3551.6587      0.51955874
       3552.6151      0.51012106
       3553.5715      0.48570545
       3554.5280      0.52145171
       3555.4844      0.52835567
       3556.4408      0.48765686
       3557.3972      0.44975616
       3558.3536      0.49004497
       3559.3100      0.51131119
       3560.2665      0.45015785
       3561.2229      0.48988694
       3562.1793      0.49529478
       3563.1357      0.46780195
       3564.0921      0.44858858
       3565.0485      0.45302422
       3566.0049      0.44019202
       3566.9614      0.43118880
       3567.9178      0.41272119
       3568.8742      0.41049448
       3569.8306      0.37880547
       3570.7870      0.41404833
       3571.7434      0.40535426
       3572.6999      0.38685834
       3573.6563      0.40415718
       3574.6127      0.42397944
       3575.5691      0.43313312
       3576.5255      0.42334557
       3577.4819      0.38210342
       3578.4384      0.42377100
       3579.3948      0.40055811
       3580.3512      0.38956141
       3581.3076      0.35934057
       3582.2640      0.35017804
       3583.2204      0.36938531
       3584.1769      0.31669218
       3585.1333      0.31760118
       3586.0897      0.31880065
       3587.0461      0.32169118
       3588.0025      0.35865859
       3588.9589      0.38589431
       3589.9154      0.42061019
       3590.8718      0.41999715
       3591.8282      0.45397820
       3592.7846      0.47996866
       3593.7410      0.48642352
       3594.6974      0.56853563
       3595.6538      0.56895016
       3596.6103      0.57874722
       3597.5667      0.60993900
       3598.5231      0.67748493
       3599.4795      0.67755568
       3600.4359      0.63978767
       3601.3923      0.67546310
       3602.3488      0.63722141
       3603.3052      0.59272426
       3604.2616      0.56551540
       3605.2180      0.53536990
       3606.1744      0.52900675
       3607.1308      0.48200365
       3608.0873      0.51823639
       3609.0437      0.47414392
       3610.0001      0.46696065
       3610.9565      0.48295189
       3611.9129      0.51376277
       3612.8693      0.51464489
       3613.8258      0.49567192
       3614.7822      0.51307716
       3615.7386      0.53333316
       3616.6950      0.54917967
       3617.6514      0.56085988
       3618.6078      0.54113851
       3619.5642      0.53204106
       3620.5207      0.48430709
       3621.4771      0.49737696
       3622.4335      0.53050331
       3623.3899      0.55367112
       3624.3463      0.59167027
       3625.3027      0.65725968
       3626.2592      0.73394249
       3627.2156      0.68694937
       3628.1720      0.67713856
       3629.1284      0.65335497
       3630.0848      0.67464452
       3631.0412      0.62741945
       3631.9977      0.60812299
       3632.9541      0.62258627
       3633.9105      0.54463729
       3634.8669      0.53183554
       3635.8233      0.54391897
       3636.7797      0.58956267
       3637.7362      0.62439168
       3638.6926      0.61833541
       3639.6490      0.65963794
       3640.6054      0.62722619
       3641.5618      0.64787353
       3642.5182      0.68034785
       3643.4747      0.64959763
       3644.4311      0.63647481
       3645.3875      0.61147449
       3646.3439      0.60208461
       3647.3003      0.58881379
       3648.2567      0.57721300
       3649.2131      0.55814517
       3650.1696      0.58250904
       3651.1260      0.62213819
       3652.0824      0.63596847
       3653.0388      0.65450031
       3653.9952      0.75464360
       3654.9516      0.76968164
       3655.9081      0.77912531
       3656.8645      0.78330129
       3657.8209      0.78144500
       3658.7773      0.77320214
       3659.7337      0.80034655
       3660.6901      0.81933294
       3661.6466      0.79439639
       3662.6030      0.86262666
       3663.5594      0.78805492
       3664.5158      0.81643320
       3665.4722      0.78781696
       3666.4286      0.78888456
       3667.3851      0.74440353
       3668.3415      0.76505254
       3669.2979      0.72850563
       3670.2543      0.75785307
       3671.2107      0.76544290
       3672.1671      0.76704494
       3673.1235      0.79883581
       3674.0800      0.75343945
       3675.0364      0.77776692
       3675.9928      0.76341806
       3676.9492      0.74420764
       3677.9056      0.68246397
       3678.8620      0.73463299
       3679.8185      0.70527621
       3680.7749      0.70485675
       3681.7313      0.68595811
       3682.6877      0.70362459
       3683.6441      0.70539796
       3684.6005      0.66437936
       3685.5570      0.67388763
       3686.5134      0.65445461
       3687.4698      0.69924821
       3688.4262      0.66540946
       3689.3826      0.70636937
       3690.3390      0.66633941
       3691.2955      0.73960182
       3692.2519      0.79955145
       3693.2083      0.80087597
       3694.1647      0.86029458
       3695.1211      0.86013740
       3696.0775      0.85832733
       3697.0340      0.81520758
       3697.9904      0.84440876
       3698.9468      0.84580647
       3699.9032      0.91910215
       3700.8596      0.87433466
       3701.8160      0.85595330
       3702.7724      0.81247252
       3703.7289      0.80545987
       3704.6853      0.80037523
       3705.6417      0.69701791
       3706.5981      0.69568173
       3707.5545      0.68108952
       3708.5109      0.68459672
       3709.4674      0.68615947
       3710.4238      0.73337797
       3711.3802      0.74251898
       3712.3366      0.83559832
       3713.2930      0.89004770
       3714.2494      0.88122658
       3715.2059      0.93116438
       3716.1623      0.92127023
       3717.1187      0.95396573
       3718.0751      0.87758358
       3719.0315      0.85003209
       3719.9879      0.86868856
       3720.9444      0.96544843
       3721.9008       1.0664784
       3722.8572       1.3048511
       3723.8136       1.5478226
       3724.7700       1.8676174
       3725.7264       2.2016048
       3726.6828       2.4086690
       3727.6393       2.5899379
       3728.5957       2.5884984
       3729.5521       2.5641723
       3730.5085       2.2037803
       3731.4649       1.9958564
       3732.4213       1.6191932
       3733.3778       1.2922114
       3734.3342       1.0737219
       3735.2906      0.89053968
       3736.2470      0.75139221
       3737.2034      0.67213951
       3738.1598      0.67030022
       3739.1163      0.68321649
       3740.0727      0.67300383
       3741.0291      0.73393564
       3741.9855      0.67894519
       3742.9419      0.67964276
       3743.8983      0.70222015
       3744.8548      0.62617675
       3745.8112      0.60034003
       3746.7676      0.60778838
       3747.7240      0.53679180
       3748.6804      0.52508969
       3749.6368      0.57217584
       3750.5933      0.59482785
       3751.5497      0.67559175
       3752.5061      0.69814102
       3753.4625      0.70104386
       3754.4189      0.78403507
       3755.3753      0.80513509
       3756.3317      0.78667829
       3757.2882      0.78506157
       3758.2446      0.84155239
       3759.2010      0.76703189
       3760.1574      0.70657834
       3761.1138      0.69302990
       3762.0702      0.69387859
       3763.0267      0.69405806
       3763.9831      0.64974260
       3764.9395      0.70344907
       3765.8959      0.77821618
       3766.8523      0.74573187
       3767.8087      0.71510087
       3768.7652      0.79673039
       3769.7216      0.81335124
       3770.6780      0.83089491
       3771.6344      0.85439782
       3772.5908      0.88594851
       3773.5472      0.91534596
       3774.5037      0.91813620
       3775.4601      0.98415381
       3776.4165      0.99803742
       3777.3729      0.89184521
       3778.3293       1.0451136
       3779.2857       1.0406314
       3780.2421       1.0172614
       3781.1986       1.0251511
       3782.1550       1.0760860
       3783.1114       1.0024276
       3784.0678      0.99681403
       3785.0242      0.92375990
       3785.9806      0.94394085
       3786.9371      0.88264644
       3787.8935      0.85713201
       3788.8499      0.84750631
       3789.8063      0.75848741
       3790.7627      0.74732728
       3791.7191      0.78499461
       3792.6756      0.72078772
       3793.6320      0.79685464
       3794.5884      0.74424577
       3795.5448      0.72227021
       3796.5012      0.70849672
       3797.4576      0.71122210
       3798.4141      0.72357015
       3799.3705      0.71819310
       3800.3269      0.72253355
       3801.2833      0.82575562
       3802.2397      0.80953395
       3803.1961      0.83654902
       3804.1526      0.88757882
       3805.1090      0.91019702
       3806.0654      0.89409552
       3807.0218      0.88620717
       3807.9782      0.87982675
       3808.9346      0.91254390
       3809.8910      0.89888190
       3810.8475      0.93839539
       3811.8039      0.85063081
       3812.7603      0.84819332
       3813.7167      0.79679519
       3814.6731      0.75107804
       3815.6295      0.73524485
       3816.5860      0.66216234
       3817.5424      0.69179210
       3818.4988      0.70669064
       3819.4552      0.64885243
       3820.4116      0.64942109
       3821.3680      0.66839175
       3822.3245      0.62811122
       3823.2809      0.61981584
       3824.2373      0.59578762
       3825.1937      0.59378859
       3826.1501      0.53063554
       3827.1065      0.55235805
       3828.0630      0.51567791
       3829.0194      0.55355820
       3829.9758      0.48470608
       3830.9322      0.51117167
       3831.8886      0.55212282
       3832.8450      0.47837267
       3833.8014      0.49703706
       3834.7579      0.49731376
       3835.7143      0.52303063
       3836.6707      0.50315147
       3837.6271      0.56535657
       3838.5835      0.51598389
       3839.5399      0.54686288
       3840.4964      0.58766721
       3841.4528      0.56554470
       3842.4092      0.61559319
       3843.3656      0.68989421
       3844.3220      0.73619214
       3845.2784      0.74175426
       3846.2349      0.78878137
       3847.1913      0.71801127
       3848.1477      0.71287947
       3849.1041      0.73685109
       3850.0605      0.75668949
       3851.0169      0.73227508
       3851.9734      0.75366747
       3852.9298      0.72955840
       3853.8862      0.73576410
       3854.8426      0.75396749
       3855.7990      0.66382786
       3856.7554      0.69358008
       3857.7119      0.72042727
       3858.6683      0.63959067
       3859.6247      0.70370939
       3860.5811      0.70026312
       3861.5375      0.70062382
       3862.4939      0.79738708
       3863.4503      0.84443079
       3864.4068      0.86607854
       3865.3632      0.88576223
       3866.3196      0.92331766
       3867.2760      0.88013681
       3868.2324      0.85927672
       3869.1888      0.85806760
       3870.1453      0.87824544
       3871.1017      0.81086236
       3872.0581      0.78149738
       3873.0145      0.82691546
       3873.9709      0.80699101
       3874.9273      0.78439844
       3875.8838      0.79751532
       3876.8402      0.77587010
       3877.7966      0.78278420
       3878.7530      0.80712471
       3879.7094      0.75969568
       3880.6658      0.80835174
       3881.6223      0.80233978
       3882.5787      0.75436995
       3883.5351      0.80205707
       3884.4915      0.78365675
       3885.4479      0.83884083
       3886.4043      0.81209267
       3887.3608      0.83387676
       3888.3172      0.83907704
       3889.2736      0.85710542
       3890.2300      0.92196595
       3891.1864      0.91006399
       3892.1428       1.0012913
       3893.0992       1.0190769
       3894.0557      0.99693224
       3895.0121       1.0329141
       3895.9685       1.0458548
       3896.9249      0.99870036
       3897.8813      0.97595323
       3898.8377       1.0105668
       3899.7942      0.98970589
       3900.7506       1.0379289
       3901.7070      0.98811714
       3902.6634      0.94275960
       3903.6198      0.96403455
       3904.5762      0.94480875
       3905.5327       1.0472314
       3906.4891       1.0343530
       3907.4455       1.1397597
       3908.4019       1.0854884
       3909.3583       1.1231389
       3910.3147       1.1676130
       3911.2712       1.1753246
       3912.2276       1.1196933
       3913.1840       1.2093727
       3914.1404       1.1739470
       3915.0968       1.1297311
       3916.0532       1.0774718
       3917.0096       1.1020123
       3917.9661       1.0698338
       3918.9225       1.0159923
       3919.8789       1.0157126
       3920.8353      0.98687365
       3921.7917      0.91077486
       3922.7481      0.91802234
       3923.7046      0.85019901
       3924.6610      0.86669294
       3925.6174      0.77306026
       3926.5738      0.71824872
       3927.5302      0.62338998
       3928.4866      0.52913193
       3929.4431      0.47118698
       3930.3995      0.36985019
       3931.3559      0.38161528
       3932.3123      0.38454130
       3933.2687      0.35117568
       3934.2251      0.42763068
       3935.1816      0.43129181
       3936.1380      0.55150763
       3937.0944      0.56747819
       3938.0508      0.66033281
       3939.0072      0.72205812
       3939.9636      0.80702754
       3940.9201      0.85078624
       3941.8765      0.84035277
       3942.8329      0.88254289
       3943.7893      0.87814525
       3944.7457      0.97708468
       3945.7021      0.96835103
       3946.6585       1.1065533
       3947.6150       1.0319859
       3948.5714       1.1541369
       3949.5278       1.1231605
       3950.4842       1.1999004
       3951.4406       1.1661859
       3952.3970       1.1883490
       3953.3535       1.1721346
       3954.3099       1.1765968
       3955.2663       1.1233490
       3956.2227       1.1507451
       3957.1791       1.0770421
       3958.1355       1.0555430
       3959.0920      0.93124602
       3960.0484      0.94468637
       3961.0048      0.78916802
       3961.9612      0.75732814
       3962.9176      0.68335115
       3963.8740      0.65058096
       3964.8305      0.56661064
       3965.7869      0.56220283
       3966.7433      0.54154555
       3967.6997      0.54561904
       3968.6561      0.58607574
       3969.6125      0.63565636
       3970.5689      0.70052535
       3971.5254      0.84458101
       3972.4818      0.87244010
       3973.4382      0.94138279
       3974.3946       1.0096478
       3975.3510       1.1717134
       3976.3074       1.2691763
       3977.2639       1.2717378
       3978.2203       1.2882666
       3979.1767       1.3766791
       3980.1331       1.3270280
       3981.0895       1.3757309
       3982.0459       1.3601681
       3983.0024       1.4747853
       3983.9588       1.4491755
       3984.9152       1.4340688
       3985.8716       1.4764955
       3986.8280       1.4705183
       3987.7844       1.4487339
       3988.7409       1.5258626
       3989.6973       1.5205705
       3990.6537       1.4841058
       3991.6101       1.4782215
       3992.5665       1.5642000
       3993.5229       1.4998160
       3994.4794       1.5679988
       3995.4358       1.5327951
       3996.3922       1.5532568
       3997.3486       1.5820912
       3998.3050       1.6050489
       3999.2614       1.6614809
       4000.2178       1.6857418
       4001.1743       1.6172758
       4002.1307       1.5730243
       4003.0871       1.5047243
       4004.0435       1.6052678
       4004.9999       1.6818346
       4005.9563       1.6734255
       4006.9128       1.6051933
       4007.8692       1.6662558
       4008.8256       1.6651622
       4009.7820       1.7393117
       4010.7384       1.6806311
       4011.6948       1.7357928
       4012.6513       1.8041953
       4013.6077       1.7601569
       4014.5641       1.7670598
       4015.5205       1.7822448
       4016.4769       1.6752645
       4017.4333       1.8022937
       4018.3898       1.8173867
       4019.3462       1.7234991
       4020.3026       1.7433828
       4021.2590       1.6895425
       4022.2154       1.7257218
       4023.1718       1.7818383
       4024.1282       1.6777164
       4025.0847       1.7346679
       4026.0411       1.6535515
       4026.9975       1.6229995
       4027.9539       1.5895745
       4028.9103       1.5539580
       4029.8667       1.4873890
       4030.8232       1.4906109
       4031.7796       1.5562792
       4032.7360       1.5940140
       4033.6924       1.6195489
       4034.6488       1.7239451
       4035.6052       1.7656000
       4036.5617       1.7713060
       4037.5181       1.7692245
       4038.4745       1.6729676
       4039.4309       1.6233448
       4040.3873       1.6024995
       4041.3437       1.5435242
       4042.3002       1.5430629
       4043.2566       1.4904836
       4044.2130       1.5685031
       4045.1694       1.5779883
       4046.1258       1.6812969
       4047.0822       1.7038838
       4048.0387       1.7167685
       4048.9951       1.7681367
       4049.9515       1.7652869
       4050.9079       1.6937427
       4051.8643       1.5943747
       4052.8207       1.5911276
       4053.7771       1.5776475
       4054.7336       1.5704352
       4055.6900       1.5619662
       4056.6464       1.5952624
       4057.6028       1.5395153
       4058.5592       1.5210304
       4059.5156       1.5797241
       4060.4721       1.5557854
       4061.4285       1.5564078
       4062.3849       1.5819250
       4063.3413       1.6471380
       4064.2977       1.7746368
       4065.2541       1.7925960
       4066.2106       1.7525435
       4067.1670       1.6964410
       4068.1234       1.6982929
       4069.0798       1.6539939
       4070.0362       1.6544356
       4070.9926       1.6551474
       4071.9491       1.6126595
       4072.9055       1.6058626
       4073.8619       1.6117247
       4074.8183       1.6733705
       4075.7747       1.7104755
       4076.7311       1.7413254
       4077.6875       1.7457230
       4078.6440       1.7545372
       4079.6004       1.7803889
       4080.5568       1.8399461
       4081.5132       1.9318877
       4082.4696       1.8661750
       4083.4260       1.8968395
       4084.3825       1.9641941
       4085.3389       1.9246187
       4086.2953       2.0507702
       4087.2517       1.9863078
       4088.2081       1.8973324
       4089.1645       1.8360665
       4090.1210       1.7633534
       4091.0774       1.7165874
       4092.0338       1.7150651
       4092.9902       1.6743331
       4093.9466       1.5378224
       4094.9030       1.5384374
       4095.8595       1.5624622
       4096.8159       1.5267731
       4097.7723       1.5319232
       4098.7287       1.6102735
       4099.6851       1.6444533
       4100.6415       1.6868219
       4101.5980       1.7531018
       4102.5544       1.7136279
       4103.5108       1.7410376
       4104.4672       1.8257432
       4105.4236       1.7299109
       4106.3800       1.7291688
       4107.3364       1.7629875
       4108.2929       1.7998529
       4109.2493       1.8108159
       4110.2057       1.8338793
       4111.1621       1.8821655
       4112.1185       1.8341438
       4113.0749       1.9100452
       4114.0314       1.8695286
       4114.9878       1.8176524
       4115.9442       1.8160269
       4116.9006       1.9112968
       4117.8570       1.8222441
       4118.8134       1.8139570
       4119.7699       1.8533807
       4120.7263       1.8369469
       4121.6827       1.7429276
       4122.6391       1.8020352
       4123.5955       1.8373156
       4124.5519       1.7393745
       4125.5084       1.7898624
       4126.4648       1.6985538
       4127.4212       1.7545774
       4128.3776       1.7214748
       4129.3340       1.7921939
       4130.2904       1.7467118
       4131.2468       1.7621557
       4132.2033       1.8850098
       4133.1597       1.8391838
       4134.1161       1.8694575
       4135.0725       1.8201831
       4136.0289       1.8567100
       4136.9853       1.7676175
       4137.9418       1.7770898
       4138.8982       1.6845163
       4139.8546       1.6915266
       4140.8110       1.6769832
       4141.7674       1.7489012
       4142.7238       1.6912385
       4143.6803       1.7659551
       4144.6367       1.7696190
       4145.5931       1.6691502
       4146.5495       1.8417910
       4147.5059       1.6454348
       4148.4623       1.7410132
       4149.4188       1.6330395
       4150.3752       1.7036001
       4151.3316       1.7007290
       4152.2880       1.7528762
       4153.2444       1.8005007
       4154.2008       1.8814129
       4155.1573       1.9087883
       4156.1137       1.9027208
       4157.0701       1.9476031
       4158.0265       1.9086046
       4158.9829       1.8782452
       4159.9393       1.8560718
       4160.8957       1.8781060
       4161.8522       1.7868771
       4162.8086       1.7959410
       4163.7650       1.7985234
       4164.7214       1.7331927
       4165.6778       1.7464114
       4166.6342       1.7051466
       4167.5907       1.6571254
       4168.5471       1.6944032
       4169.5035       1.7243291
       4170.4599       1.7134150
       4171.4163       1.5868385
       4172.3727       1.6631899
       4173.3292       1.7584531
       4174.2856       1.7064731
       4175.2420       1.8193387
       4176.1984       1.7972409
       4177.1548       1.8050544
       4178.1112       1.7632413
       4179.0677       1.8613605
       4180.0241       1.8466630
       4180.9805       1.8130635
       4181.9369       1.8443632
       4182.8933       1.9114587
       4183.8497       1.9022388
       4184.8061       1.9837022
       4185.7626       1.8759251
       4186.7190       1.9490818
       4187.6754       1.8131339
       4188.6318       1.8655918
       4189.5882       1.8751639
       4190.5446       1.7797108
       4191.5011       1.7411979
       4192.4575       1.7602414
       4193.4139       1.7564900
       4194.3703       1.7181846
       4195.3267       1.6776590
       4196.2831       1.7586679
       4197.2396       1.8150476
       4198.1960       1.8153176
       4199.1524       1.8880257
       4200.1088       1.9090413
       4201.0652       2.0048421
       4202.0216       2.0429416
       4202.9781       1.9932141
       4203.9345       2.0295559
       4204.8909       1.9993597
       4205.8473       2.0301699
       4206.8037       1.9621741
       4207.7601       1.9751055
       4208.7166       1.9488430
       4209.6730       1.9898529
       4210.6294       2.0290112
       4211.5858       2.0460571
       4212.5422       2.0792345
       4213.4986       2.1208162
       4214.4550       2.0409205
       4215.4115       2.0214224
       4216.3679       1.9229767
       4217.3243       1.8475448
       4218.2807       1.7279758
       4219.2371       1.6429356
       4220.1935       1.6496629
       4221.1500       1.6932034
       4222.1064       1.6988284
       4223.0628       1.8234492
       4224.0192       1.8825100
       4224.9756       1.9985688
       4225.9320       2.0919921
       4226.8885       2.0623981
       4227.8449       2.0888778
       4228.8013       1.9712158
       4229.7577       1.9591773
       4230.7141       2.0246951
       4231.6705       2.0562964
       4232.6270       2.0863847
       4233.5834       2.0660504
       4234.5398       2.0918482
       4235.4962       2.1717980
       4236.4526       2.2451573
       4237.4090       2.1888311
       4238.3654       2.1799634
       4239.3219       2.1241072
       4240.2783       2.1087219
       4241.2347       2.1108486
       4242.1911       1.9883285
       4243.1475       2.1071929
       4244.1039       2.0161301
       4245.0604       1.9787765
       4246.0168       1.9556729
       4246.9732       2.0260459
       4247.9296       1.9685460
       4248.8860       2.0154124
       4249.8424       2.0462162
       4250.7989       1.9779902
       4251.7553       2.1376222
       4252.7117       2.0440541
       4253.6681       2.0708640
       4254.6245       2.1251730
       4255.5809       2.1893698
       4256.5374       2.1557632
       4257.4938       2.2271368
       4258.4502       2.2422751
       4259.4066       2.2264477
       4260.3630       2.1405004
       4261.3194       2.1200790
       4262.2759       2.0430348
       4263.2323       1.8708618
       4264.1887       1.8687437
       4265.1451       1.8171085
       4266.1015       1.7051173
       4267.0579       1.8797202
       4268.0143       1.8859148
       4268.9708       2.0699909
       4269.9272       1.9726325
       4270.8836       2.0632674
       4271.8400       2.1433197
       4272.7964       2.1368900
       4273.7528       2.2247512
       4274.7093       2.1771438
       4275.6657       2.1404710
       4276.6221       2.0486958
       4277.5785       2.0656757
       4278.5349       2.0044948
       4279.4913       1.9886398
       4280.4478       1.9194961
       4281.4042       1.9353523
       4282.3606       1.9509766
       4283.3170       1.9387079
       4284.2734       1.9341714
       4285.2298       1.8787599
       4286.1863       1.9303419
       4287.1427       1.8600176
       4288.0991       1.8449433
       4289.0555       1.8048129
       4290.0119       1.7426429
       4290.9683       1.6737404
       4291.9247       1.6043141
       4292.8812       1.5788629
       4293.8376       1.5937841
       4294.7940       1.5084883
       4295.7504       1.5153656
       4296.7068       1.5025801
       4297.6632       1.4743754
       4298.6197       1.3997319
       4299.5761       1.5089395
       4300.5325       1.5424960
       4301.4889       1.5623839
       4302.4453       1.6333466
       4303.4017       1.7112944
       4304.3582       1.8193551
       4305.3146       1.9033269
       4306.2710       2.0813763
       4307.2274       2.2271637
       4308.1838       2.3695302
       4309.1402       2.4206376
       4310.0967       2.5579410
       4311.0531       2.4480922
       4312.0095       2.4301901
       4312.9659       2.3100751
       4313.9223       2.2404433
       4314.8787       2.1451732
       4315.8352       2.0198280
       4316.7916       2.0559365
       4317.7480       2.1014515
       4318.7044       2.1779596
       4319.6608       2.1188460
       4320.6172       2.3264113
       4321.5736       2.4652951
       4322.5301       2.4611413
       4323.4865       2.5587079
       4324.4429       2.6032654
       4325.3993       2.5957900
       4326.3557       2.4545294
       4327.3121       2.4965408
       4328.2686       2.4159220
       4329.2250       2.2722666
       4330.1814       2.1218921
       4331.1378       2.0654663
       4332.0942       2.2078550
       4333.0506       2.1958818
       4334.0071       2.4116510
       4334.9635       2.4514480
       4335.9199       2.4039060
       4336.8763       2.4983942
       4337.8327       2.4526560
       4338.7891       2.4863426
       4339.7456       2.5010630
       4340.7020       2.4469625
       4341.6584       2.4400581
       4342.6148       2.4269747
       4343.5712       2.2937416
       4344.5276       2.3021007
       4345.4841       2.3717782
       4346.4405       2.4557639
       4347.3969       2.4091196
       4348.3533       2.4815976
       4349.3097       2.4822144
       4350.2661       2.6352104
       4351.2225       2.5884584
       4352.1790       2.6332206
       4353.1354       2.6584381
       4354.0918       2.6645324
       4355.0482       2.7519047
       4356.0046       2.7681212
       4356.9610       2.7058332
       4357.9175       2.7093661
       4358.8739       2.5533455
       4359.8303       2.6208882
       4360.7867       2.4953972
       4361.7431       2.4666968
       4362.6995       2.4442009
       4363.6560       2.4173663
       4364.6124       2.4380753
       4365.5688       2.3924301
       4366.5252       2.3749330
       4367.4816       2.3410576
       4368.4380       2.3528618
       4369.3945       2.3774276
       4370.3509       2.3531971
       4371.3073       2.2833962
       4372.2637       2.1362527
       4373.2201       2.1121790
       4374.1765       2.0812004
       4375.1329       2.0297872
       4376.0894       2.0857880
       4377.0458       2.1098805
       4378.0022       2.1666404
       4378.9586       2.2603140
       4379.9150       2.2683246
       4380.8714       2.3168249
       4381.8279       2.3947365
       4382.7843       2.4161489
       4383.7407       2.4643917
       4384.6971       2.3806953
       4385.6535       2.4556787
       4386.6099       2.4970251
       4387.5664       2.5477280
       4388.5228       2.5843437
       4389.4792       2.4930941
       4390.4356       2.4372855
       4391.3920       2.4924187
       4392.3484       2.3101696
       4393.3049       2.2626606
       4394.2613       2.2028614
       4395.2177       2.2773342
       4396.1741       2.2826651
       4397.1305       2.3837347
       4398.0869       2.4521026
       4399.0434       2.4812542
       4399.9998       2.5905833
       4400.9562       2.5386885
       4401.9126       2.6706739
       4402.8690       2.5624532
       4403.8254       2.6690046
       4404.7818       2.6420574
       4405.7383       2.6604180
       4406.6947       2.5806123
       4407.6511       2.6549394
       4408.6075       2.7166027
       4409.5639       2.5649688
       4410.5203       2.6026181
       4411.4768       2.7190977
       4412.4332       2.6871489
       4413.3896       2.6268908
       4414.3460       2.7387524
       4415.3024       2.7195128
       4416.2588       2.6985189
       4417.2153       2.6910099
       4418.1717       2.5841852
       4419.1281       2.6374139
       4420.0845       2.7149586
       4421.0409       2.5614178
       4421.9973       2.6160255
       4422.9538       2.6492341
       4423.9102       2.6144296
       4424.8666       2.6978807
       4425.8230       2.6085676
       4426.7794       2.6923661
       4427.7358       2.6903376
       4428.6922       2.7391214
       4429.6487       2.7653135
       4430.6051       2.7531646
       4431.5615       2.7454934
       4432.5179       2.8530896
       4433.4743       2.8525224
       4434.4307       2.8445007
       4435.3872       2.8456259
       4436.3436       2.8809263
       4437.3000       2.8492960
       4438.2564       2.8505329
       4439.2128       2.8197189
       4440.1692       2.8186292
       4441.1257       2.8170642
       4442.0821       2.6925319
       4443.0385       2.5785141
       4443.9949       2.5315128
       4444.9513       2.4989006
       4445.9077       2.4705635
       4446.8642       2.4379213
       4447.8206       2.5125860
       4448.7770       2.4727978
       4449.7334       2.5310398
       4450.6898       2.5353666
       4451.6462       2.6622267
       4452.6027       2.6712646
       4453.5591       2.6134302
       4454.5155       2.8063380
       4455.4719       2.8041803
       4456.4283       2.7437833
       4457.3847       2.7126096
       4458.3411       2.8245586
       4459.2976       2.8501909
       4460.2540       2.9213099
       4461.2104       2.9834184
       4462.1668       2.9404798
       4463.1232       2.9939589
       4464.0796       3.0245824
       4465.0361       3.0441937
       4465.9925       2.9924160
       4466.9489       3.0287432
       4467.9053       2.9410978
       4468.8617       2.9231697
       4469.8181       2.9095780
       4470.7746       2.9366763
       4471.7310       3.0132376
       4472.6874       2.9419706
       4473.6438       2.9462135
       4474.6002       3.0040839
       4475.5566       2.8943266
       4476.5131       2.9612121
       4477.4695       2.8799077
       4478.4259       2.8884589
       4479.3823       2.8569249
       4480.3387       2.9576029
       4481.2951       2.8934192
       4482.2515       2.8131137
       4483.2080       2.8895365
       4484.1644       2.8632200
       4485.1208       2.9521688
       4486.0772       3.0129367
       4487.0336       3.0019449
       4487.9900       3.1089695
       4488.9465       3.0992795
       4489.9029       3.0939855
       4490.8593       3.0813917
       4491.8157       3.2765675
       4492.7721       3.2826308
       4493.7285       3.2414807
       4494.6850       3.2726417
       4495.6414       3.2641661
       4496.5978       3.2607037
       4497.5542       3.2035963
       4498.5106       3.1907408
       4499.4670       3.1279577
       4500.4235       3.1155859
       4501.3799       3.1292374
       4502.3363       3.1456418
       4503.2927       3.0496860
       4504.2491       3.1453562
       4505.2055       3.1877640
       4506.1620       3.0900899
       4507.1184       3.1365780
       4508.0748       3.1046497
       4509.0312       3.0509866
       4509.9876       2.9508822
       4510.9440       2.9374819
       4511.9004       2.9058086
       4512.8569       2.7814038
       4513.8133       2.7472386
       4514.7697       2.7216596
       4515.7261       2.6457722
       4516.6825       2.6832378
       4517.6389       2.6529643
       4518.5954       2.6911534
       4519.5518       2.6885111
       4520.5082       2.8231362
       4521.4646       2.8615290
       4522.4210       2.9227601
       4523.3774       2.9253209
       4524.3339       2.9307408
       4525.2903       2.9798304
       4526.2467       3.0783266
       4527.2031       3.1362475
       4528.1595       3.0697627
       4529.1159       3.0668094
       4530.0724       2.9237638
       4531.0288       3.0202794
       4531.9852       3.0136278
       4532.9416       3.0363031
       4533.8980       3.0062989
       4534.8544       3.0296546
       4535.8108       3.0151195
       4536.7673       3.0298320
       4537.7237       3.0047675
       4538.6801       2.9807129
       4539.6365       2.9804576
       4540.5929       3.0826811
       4541.5493       3.1071947
       4542.5058       3.1238006
       4543.4622       3.1566615
       4544.4186       3.2026572
       4545.3750       3.1976976
       4546.3314       3.2332077
       4547.2878       3.2918530
       4548.2443       3.3311248
       4549.2007       3.2419802
       4550.1571       3.2612119
       4551.1135       3.1873884
       4552.0699       3.2329839
       4553.0263       3.3295685
       4553.9828       3.2515118
       4554.9392       3.2922581
       4555.8956       3.3087926
       4556.8520       3.3457910
       4557.8084       3.2044626
       4558.7648       3.2288291
       4559.7213       3.2455499
       4560.6777       3.3034044
       4561.6341       3.2891270
       4562.5905       3.1930554
       4563.5469       3.1563374
       4564.5033       3.1464291
       4565.4597       3.1159794
       4566.4162       3.1404321
       4567.3726       3.0618492
       4568.3290       3.0764152
       4569.2854       3.0662025
       4570.2418       3.1803635
       4571.1982       3.1449080
       4572.1547       3.1418632
       4573.1111       3.1699096
       4574.0675       3.1504971
       4575.0239       3.2155229
       4575.9803       3.2536250
       4576.9367       3.1290225
       4577.8932       3.1965869
       4578.8496       3.2028892
       4579.8060       3.0755425
       4580.7624       3.0971886
       4581.7188       3.1504215
       4582.6752       3.1793600
       4583.6317       3.1881234
       4584.5881       3.1035145
       4585.5445       3.2803084
       4586.5009       3.1260477
       4587.4573       3.2365750
       4588.4137       3.2010167
       4589.3701       3.2003380
       4590.3266       3.2806207
       4591.2830       3.2499682
       4592.2394       3.3797322
       4593.1958       3.3097385
       4594.1522       3.3569478
       4595.1086       3.4430659
       4596.0651       3.4735226
       4597.0215       3.3429168
       4597.9779       3.4692043
       4598.9343       3.4049891
       4599.8907       3.3455944
       4600.8471       3.4372277
       4601.8036       3.5477926
       4602.7600       3.4675126
       4603.7164       3.4685474
       4604.6728       3.4585289
       4605.6292       3.5016518
       4606.5856       3.4703949
       4607.5421       3.4329099
       4608.4985       3.4143967
       4609.4549       3.4810372
       4610.4113       3.4463515
       4611.3677       3.4807311
       4612.3241       3.3601958
       4613.2806       3.4392357
       4614.2370       3.3424121
       4615.1934       3.4041063
       4616.1498       3.3040806
       4617.1062       3.3684293
       4618.0626       3.3754044
       4619.0190       3.4190603
       4619.9755       3.2055749
       4620.9319       3.2572637
       4621.8883       3.2050657
       4622.8447       3.1664610
       4623.8011       3.1499358
       4624.7575       3.1483727
       4625.7140       3.1388537
       4626.6704       3.1260784
       4627.6268       3.1271807
       4628.5832       3.0866349
       4629.5396       3.1393910
       4630.4960       3.1094513
       4631.4525       3.1259072
       4632.4089       3.1357654
       4633.3653       3.0460441
       4634.3217       3.1551087
       4635.2781       3.2279469
       4636.2345       3.2981742
       4637.1910       3.2080083
       4638.1474       3.1998795
       4639.1038       3.2719962
       4640.0602       3.1731284
       4641.0166       3.2819650
       4641.9730       3.3797143
       4642.9294       3.5299134
       4643.8859       3.4088641
       4644.8423       3.3311467
       4645.7987       3.3837232
       4646.7551       3.3196849
       4647.7115       3.2273779
       4648.6679       3.0756232
       4649.6244       3.0372381
       4650.5808       2.9849200
       4651.5372       3.0383840
       4652.4936       2.9716407
       4653.4500       3.0532634
       4654.4064       3.1384017
       4655.3629       3.2081689
       4656.3193       3.1038127
       4657.2757       3.3077260
       4658.2321       3.2112767
       4659.1885       3.2670142
       4660.1449       3.2958256
       4661.1014       3.1688801
       4662.0578       3.2460849
       4663.0142       3.1837842
       4663.9706       3.2329724
       4664.9270       3.2751922
       4665.8834       3.1885272
       4666.8399       3.2275160
       4667.7963       3.2354281
       4668.7527       3.2132503
       4669.7091       3.1885435
       4670.6655       3.3152042
       4671.6219       3.1391292
       4672.5783       3.2629741
       4673.5348       3.2594826
       4674.4912       3.1941248
       4675.4476       3.2343289
       4676.4040       3.2654317
       4677.3604       3.2199602
       4678.3168       3.2567749
       4679.2733       3.2364280
       4680.2297       3.0789300
       4681.1861       3.1245057
       4682.1425       3.0931486
       4683.0989       3.0831472
       4684.0553       3.0454930
       4685.0118       3.1194224
       4685.9682       2.9837882
       4686.9246       3.1264843
       4687.8810       3.1468850
       4688.8374       3.1053749
       4689.7938       3.1304026
       4690.7503       3.1547659
       4691.7067       3.1569070
       4692.6631       3.1531268
       4693.6195       3.0989477
       4694.5759       3.1479894
       4695.5323       3.2731840
       4696.4887       3.2198078
       4697.4452       3.2920558
       4698.4016       3.2502490
       4699.3580       3.3144410
       4700.3144       3.4638608
       4701.2708       3.4332662
       4702.2272       3.4094525
       4703.1837       3.3864767
       4704.1401       3.4683098
       4705.0965       3.3550175
       4706.0529       3.4742456
       4707.0093       3.3601328
       4707.9657       3.3236007
       4708.9222       3.3404729
       4709.8786       3.3126241
       4710.8350       3.2060864
       4711.7914       3.1155483
       4712.7478       3.1873455
       4713.7042       3.2080120
       4714.6607       3.1812898
       4715.6171       3.1895334
       4716.5735       3.2262206
       4717.5299       3.2778476
       4718.4863       3.3398384
       4719.4427       3.3189837
       4720.3992       3.2800105
       4721.3556       3.3476702
       4722.3120       3.3686128
       4723.2684       3.3900022
       4724.2248       3.4119115
       4725.1812       3.4685335
       4726.1376       3.4543371
       4727.0941       3.4421233
       4728.0505       3.4223195
       4729.0069       3.5895713
       4729.9633       3.5332031
       4730.9197       3.3988707
       4731.8761       3.4838494
       4732.8326       3.4012452
       4733.7890       3.3534207
       4734.7454       3.4207646
       4735.7018       3.3546311
       4736.6582       3.2804833
       4737.6146       3.3136538
       4738.5711       3.3729875
       4739.5275       3.3660238
       4740.4839       3.3564516
       4741.4403       3.3709767
       4742.3967       3.3841963
       4743.3531       3.4835267
       4744.3096       3.2849892
       4745.2660       3.2394708
       4746.2224       3.1315414
       4747.1788       3.1708863
       4748.1352       3.1036873
       4749.0916       3.1645408
       4750.0480       3.1686733
       4751.0045       3.0737142
       4751.9609       3.2759636
       4752.9173       3.2965261
       4753.8737       3.3673223
       4754.8301       3.2959391
       4755.7865       3.4780937
       4756.7430       3.3915626
       4757.6994       3.5335234
       4758.6558       3.4835590
       4759.6122       3.5472031
       4760.5686       3.4557952
       4761.5250       3.4945372
       4762.4815       3.3529858
       4763.4379       3.3805572
       4764.3943       3.2516587
       4765.3507       3.3126614
       4766.3071       3.2685761
       4767.2635       3.3399786
       4768.2200       3.3081174
       4769.1764       3.3330891
       4770.1328       3.3597739
       4771.0892       3.3487274
       4772.0456       3.4004481
       4773.0020       3.4535660
       4773.9585       3.5104838
       4774.9149       3.5534087
       4775.8713       3.6040055
       4776.8277       3.5708474
       4777.7841       3.5998059
       4778.7405       3.5946976
       4779.6969       3.5916232
       4780.6534       3.5109912
       4781.6098       3.4366408
       4782.5662       3.4649192
       4783.5226       3.4761018
       4784.4790       3.5113466
       4785.4354       3.5556150
       4786.3919       3.4397691
       4787.3483       3.4537494
       4788.3047       3.4163886
       4789.2611       3.4237545
       4790.2175       3.3687055
       4791.1739       3.4484771
       4792.1304       3.4812028
       4793.0868       3.4756643
       4794.0432       3.4974923
       4794.9996       3.4603252
       4795.9560       3.5408431
       4796.9124       3.4747918
       4797.8689       3.5715232
       4798.8253       3.5857568
       4799.7817       3.5428908
       4800.7381       3.5927522
       4801.6945       3.5771863
       4802.6509       3.5321529
       4803.6074       3.3938660
       4804.5638       3.4004111
       4805.5202       3.3977981
       4806.4766       3.5177591
       4807.4330       3.4766012
       4808.3894       3.3978902
       4809.3458       3.5387554
       4810.3023       3.4611438
       4811.2587       3.3335138
       4812.2151       3.4346513
       4813.1715       3.4722982
       4814.1279       3.3731519
       4815.0843       3.3737592
       4816.0408       3.3944899
       4816.9972       3.3977638
       4817.9536       3.4132763
       4818.9100       3.3897365
       4819.8664       3.4013359
       4820.8228       3.3685103
       4821.7793       3.3015931
       4822.7357       3.3390196
       4823.6921       3.3678105
       4824.6485       3.4218706
       4825.6049       3.4658761
       4826.5613       3.4445595
       4827.5178       3.4673823
       4828.4742       3.5112317
       4829.4306       3.4270576
       4830.3870       3.4043733
       4831.3434       3.4215245
       4832.2998       3.3730464
       4833.2562       3.3314007
       4834.2127       3.3342760
       4835.1691       3.3115394
       4836.1255       3.2743101
       4837.0819       3.1272990
       4838.0383       3.1976801
       4838.9947       3.1653259
       4839.9512       3.0873839
       4840.9076       2.9646823
       4841.8640       3.0074442
       4842.8204       3.0416059
       4843.7768       3.1100583
       4844.7332       3.2219146
       4845.6897       3.2104694
       4846.6461       3.1483411
       4847.6025       3.1705179
       4848.5589       3.1290929
       4849.5153       3.0503986
       4850.4717       3.1501408
       4851.4282       3.2307507
       4852.3846       3.1716301
       4853.3410       3.2127768
       4854.2974       3.1850450
       4855.2538       3.2296846
       4856.2102       3.3121730
       4857.1667       3.3933268
       4858.1231       3.4700442
       4859.0795       3.3788724
       4860.0359       3.4660771
       4860.9923       3.4462088
       4861.9487       3.3307800
       4862.9051       3.3477415
       4863.8616       3.3316166
       4864.8180       3.1435767
       4865.7744       3.1765623
       4866.7308       3.2609137
       4867.6872       3.2540808
       4868.6436       3.2683557
       4869.6001       3.3770269
       4870.5565       3.4595673
       4871.5129       3.5527034
       4872.4693       3.5317759
       4873.4257       3.5790329
       4874.3821       3.7643248
       4875.3386       3.6835047
       4876.2950       3.7432165
       4877.2514       3.6690487
       4878.2078       3.7061968
       4879.1642       3.6993098
       4880.1206       3.5679496
       4881.0771       3.4683390
       4882.0335       3.4546042
       4882.9899       3.4909124
       4883.9463       3.4414570
       4884.9027       3.4536036
       4885.8591       3.3633228
       4886.8155       3.3908628
       4887.7720       3.3607671
       4888.7284       3.3296899
       4889.6848       3.2520357
       4890.6412       3.1855886
       4891.5976       3.2131488
       4892.5540       3.1890661
       4893.5105       3.1997735
       4894.4669       3.2645735
       4895.4233       3.0855658
       4896.3797       2.9912295
       4897.3361       2.8573973
       4898.2925       2.9394422
       4899.2490       2.9273500
       4900.2054       2.9403137
       4901.1618       3.0005106
       4902.1182       3.0252228
       4903.0746       3.1157238
       4904.0310       3.2085218
       4904.9875       3.2796374
       4905.9439       3.2405955
       4906.9003       3.4193184
       4907.8567       3.3778848
       4908.8131       3.4925494
       4909.7695       3.4661650
       4910.7260       3.4214882
       4911.6824       3.3994207
       4912.6388       3.4105768
       4913.5952       3.3098631
       4914.5516       3.3475438
       4915.5080       3.2279530
       4916.4644       3.2685293
       4917.4209       3.3040325
       4918.3773       3.3472989
       4919.3337       3.3306487
       4920.2901       3.3596339
       4921.2465       3.5180208
       4922.2029       3.5326549
       4923.1594       3.5971927
       4924.1158       3.5348245
       4925.0722       3.5979587
       4926.0286       3.6025629
       4926.9850       3.5924464
       4927.9414       3.5995678
       4928.8979       3.5828056
       4929.8543       3.6016962
       4930.8107       3.5122942
       4931.7671       3.4634110
       4932.7235       3.3573297
       4933.6799       3.4080902
       4934.6364       3.3481752
       4935.5928       3.4133547
       4936.5492       3.4615592
       4937.5056       3.5814971
       4938.4620       3.4288127
       4939.4184       3.2018559
       4940.3748       3.1045044
       4941.3313       3.2714320
       4942.2877       3.2839744
       4943.2441       2.8869918
       4944.2005       3.0601850
       4945.1569       2.9830267
       4946.1133       3.1361165
       4947.0698       3.2950700
       4948.0262       3.2750167
       4948.9826       3.2497268
       4949.9390       3.0169624
       4950.8954       3.0437556
       4951.8518       3.0696233
       4952.8083       3.1089954
       4953.7647       3.0445354
       4954.7211       3.0054878
       4955.6775       2.8640413
       4956.6339       2.8668532
       4957.5903       2.7865792
       4958.5468       2.7823780
       4959.5032       2.6695949
       4960.4596       2.6202266
       4961.4160       2.6345232
       4962.3724       2.7373306
       4963.3288       2.7123070
       4964.2853       2.6767338
       4965.2417       2.8353789
       4966.1981       2.8069167
       4967.1545       2.8577582
       4968.1109       2.7274536
       4969.0673       2.7527258
       4970.0237       2.7383411
       4970.9802       2.8028344
       4971.9366       2.7212479
       4972.8930       2.7056812
       4973.8494       2.6816373
       4974.8058       2.6028827
       4975.7622       2.7064346
       4976.7187       2.6254402
       4977.6751       2.6852696
       4978.6315       2.8372283
       4979.5879       2.8279792
       4980.5443       2.8223671
       4981.5007       2.8632994
       4982.4572       2.7624032
       4983.4136       2.9407207
       4984.3700       2.7881080
       4985.3264       2.8396081
       4986.2828       2.7780402
       4987.2392       2.5594815
       4988.1957       2.4564777
       4989.1521       2.2439879
       4990.1085       2.2350787
       4991.0649       2.2707173
       4992.0213       2.2284004
       4992.9777       2.1596273
       4993.9341       2.0665537
       4994.8906       2.1712621
       4995.8470       2.0266248
       4996.8034       2.1223579
       4997.7598       2.1349290
       4998.7162       2.0380110
       4999.6726       2.1328344
       5000.6291       2.1930237
       5001.5855       2.0830903
       5002.5419       2.0997260
       5003.4983       2.1205597
       5004.4547       2.0823126
       5005.4111       2.1232322
       5006.3676       2.1820519
       5007.3240       2.0588313
       5008.2804       2.0777494
       5009.2368       2.0519428
       5010.1932       1.9175843
       5011.1496       1.8662712
       5012.1061       1.8657697
       5013.0625       1.7486824
       5102.7258    -0.039214700
       5103.7881    -0.068448914
       5104.8504    -0.022661447
       5105.9128      0.18421869
       5106.9751    -0.022240970
       5108.0374     0.092633579
       5109.0997    -0.022574805
       5110.1621     0.011778983
       5111.2244     0.029762161
       5112.2867     0.016440814
       5113.3490    -0.055914155
       5114.4114    -0.049483314
       5115.4737    -0.015256562
       5116.5360      0.13718903
       5117.5983    -0.048911776
       5118.6607    -0.089670952
       5119.7230      0.15846612
       5120.7853      0.13602132
       5121.8476     0.034635457
       5122.9099    -0.038318014
       5123.9723     0.059749737
       5125.0346    0.0099242200
       5126.0969    -0.013960160
       5127.1592      0.14127467
       5128.2216     0.080225316
       5129.2839     0.069380344
       5130.3462     0.069763660
       5131.4085    -0.022582473
       5132.4709    -0.028639705
       5133.5332     0.073332913
       5134.5955     0.025157657
       5135.6578     0.061437367
       5136.7202    0.0044951337
       5137.7825   -0.0085367587
       5138.8448     0.093972861
       5139.9071    -0.014796095
       5140.9695     0.067925874
       5142.0318     0.091163055
       5143.0941    -0.026818405
       5144.1564    -0.024453994
       5145.2187     0.016353302
       5146.2811     0.037399776
       5147.3434    -0.024325125
       5148.4057    0.0047003864
       5149.4680     0.025133248
       5150.5304     0.041365131
       5151.5927    -0.044436717
       5152.6550    -0.041906158
       5153.7173     0.062917900
       5154.7797      0.16514778
       5155.8420     0.054625854
       5156.9043     0.036557608
       5157.9666     0.088134675
       5159.0290     0.033391949
       5160.0913    -0.014230402
       5161.1536    0.0096639492
       5162.2159    -0.097535403
       5163.2782     0.022522140
       5164.3406      0.10061479
       5165.4029     0.097861179
       5166.4652     0.083478387
       5167.5275     0.088500588
       5168.5899     0.097327792
       5169.6522     0.020332316
       5170.7145     0.039768519
       5171.7768    0.0024837152
       5172.8392     0.019741931
       5173.9015     0.060445788
       5174.9638    -0.019829594
       5176.0261     0.047814336
       5177.0885     0.092097112
       5178.1508     0.046268772
       5179.2131   -0.0017880843
       5180.2754    -0.049585629
       5181.3377      0.11116747
       5182.4001     0.030806986
       5183.4624     0.053825011
       5184.5247     0.050513067
       5185.5870   -0.0068577010
       5186.6494      0.10443896
       5187.7117     0.052089255
       5188.7740    -0.025438377
       5189.8363    0.0089252101
       5190.8987    -0.031724496
       5191.9610     0.040701179
       5193.0233    -0.019572972
       5194.0856    0.0083570582
       5195.1480    -0.062970546
       5196.2103     0.012963335
       5197.2726     0.040558587
       5198.3349     0.019198094
       5199.3973    -0.056132863
       5200.4596      0.11970191
       5201.5219   -0.0040920923
       5202.5842     0.027670592
       5203.6465     0.050444342
       5204.7089     0.040209100
       5205.7712    -0.058262292
       5206.8335     0.074275951
       5207.8958     0.021996421
       5208.9582     0.010272643
       5210.0205     0.019148293
       5211.0828     -0.13561764
       5212.1451     0.057557168
       5213.2075      0.11209864
       5214.2698      0.13783240
       5215.3321     0.043801153
       5216.3944     0.020420433
       5217.4568      0.12093640
       5218.5191     0.039519924
       5219.5814     0.035239770
       5220.6437     0.067988585
       5221.7060    0.0056177497
       5222.7684   -0.0074998000
       5223.8307   -0.0076229843
       5224.8930    -0.018630887
       5225.9553     0.026626834
       5227.0177    -0.014273873
       5228.0800     0.048799218
       5229.1423    -0.028454458
       5230.2046     0.034567609
       5231.2670     0.059308158
       5232.3293    -0.036475274
       5233.3916    -0.022935408
       5234.4539   -0.0022363985
       5235.5163    -0.029424413
       5236.5786     0.058428314
       5237.6409    0.0028321731
       5238.7032     0.019703929
       5239.7656    0.0049292437
       5240.8279     0.019635242
       5241.8902   -0.0023315121
       5242.9525     0.020842854
       5244.0148     0.044631326
       5245.0772     0.029006852
       5246.1395     0.046162689
       5247.2018    -0.026062629
       5248.2641    0.0041735869
       5249.3265    -0.024429914
       5250.3888    -0.077139659
       5251.4511     0.023518155
       5252.5134     0.024383428
       5253.5758     0.093239392
       5254.6381     0.049275469
       5255.7004    0.0037537010
       5256.7627    -0.056036546
       5257.8251     0.071129504
       5258.8874     0.078375934
       5259.9497     0.087266356
       5261.0120      0.10009186
       5262.0743     0.014141731
       5263.1367     0.091307356
       5264.1990      0.13238248
       5265.2613     0.017127710
       5266.3236      0.12439818
       5267.3860    0.0053045476
       5268.4483     0.041779870
       5269.5106     0.074490576
       5270.5729    -0.070925308
       5271.6353    -0.029899122
       5272.6976     0.071154842
       5273.7599     0.012052501
       5274.8222    -0.015112885
       5275.8846     0.019472445
       5276.9469    0.0036205669
       5278.0092     0.043190465
       5279.0715     0.041324186
       5280.1338    -0.011744048
       5281.1962     0.054142504
       5282.2585     0.085480032
       5283.3208     0.016231320
       5284.3831     0.012023127
       5285.4455    -0.029610688
       5286.5078     0.073483161
       5287.5701    0.0068993068
       5288.6324    0.0025884054
       5289.6948    -0.024748674
       5290.7571     0.033559882
       5291.8194    -0.027945370
       5292.8817    -0.030820889
       5293.9441    -0.064644722
       5295.0064     0.090323734
       5296.0687     0.076872762
       5297.1310     0.018875769
       5298.1934     0.063784392
       5299.2557     0.073924657
       5300.3180     0.086730612
       5301.3803     0.021293355
       5302.4426     0.031833468
       5303.5050     0.026345462
       5304.5673     0.033993731
       5305.6296     0.054263618
       5306.6919     0.083802200
       5307.7543    -0.024617163
       5308.8166     0.026666675
       5309.8789     0.051002718
       5310.9412     0.045699414
       5312.0036    -0.049713656
       5313.0659  -0.00071523649
       5314.1282    -0.017360397
       5315.1905   -0.0097108729
       5316.2529    0.0038659672
       5317.3152    0.0031698345
       5318.3775     0.020095922
       5319.4398     0.036866949
       5320.5021     0.016725828
       5321.5645     0.059529213
       5322.6268      0.17700354
       5323.6891     0.077562728
       5324.7514     0.072685579
       5325.8138     0.026503533
       5326.8761     0.052589140
       5327.9384     0.016493575
       5329.0007     0.010637014
       5330.0631     0.023339221
       5331.1254     0.013741643
       5332.1877     0.014903102
       5333.2500    -0.041086825
       5334.3124    -0.010739525
       5335.3747     0.090475694
       5336.4370     0.079456407
       5337.4993     0.075085906
       5338.5616     0.023806774
       5339.6240    -0.032024016
       5340.6863     0.016608023
       5341.7486    -0.067634779
       5342.8109     0.099286413
       5343.8733     0.055673249
       5344.9356     0.046441303
       5345.9979     0.048319546
       5347.0602      0.11842784
       5348.1226    -0.017261680
       5349.1849     0.025894463
       5350.2472    -0.010946281
       5351.3095     0.079342747
       5352.3719    0.0011590338
       5353.4342     0.021796212
       5354.4965     0.082234237
       5355.5588     0.059559539
       5356.6212     0.019293055
       5357.6835     0.093304755
       5358.7458   -0.0070340958
       5359.8081    -0.019279163
       5360.8704     0.032887776
       5361.9328     0.045287112
       5362.9951     0.079529757
       5364.0574    -0.020679626
       5365.1197    -0.031255054
       5366.1821     0.020223461
       5367.2444    0.0011400870
       5368.3067    -0.038453822
       5369.3690    -0.017055303
       5370.4314   -0.0014017190
       5371.4937     0.021919193
       5372.5560     0.035419229
       5373.6183     0.050827707
       5374.6807     0.010417307
       5375.7430     0.026036167
       5376.8053   -0.0051716887
       5377.8676    -0.023658606
       5378.9299    0.0034408981
       5379.9923     0.064812831
       5381.0546     0.057447983
       5382.1169    -0.031954586
       5383.1792     0.014552332
       5384.2416     0.053675399
       5385.3039    -0.063635623
       5386.3662     0.043337249
       5387.4285     0.096127501
       5388.4909     0.055727636
       5389.5532     0.013605035
       5390.6155     0.012886319
       5391.6778     0.084949145
       5392.7402     0.091581695
       5393.8025     0.049038260
       5394.8648     0.048064638
       5395.9271      0.12486653
       5396.9895     0.027966667
       5398.0518     0.046976207
       5399.1141     0.038593275
       5400.1764     0.083886542
       5401.2387     0.041355332
       5402.3011     0.031694877
       5403.3634     0.090401502
       5404.4257     0.058475805
       5405.4880     0.078202491
       5406.5504     0.053564493
       5407.6127    -0.018684089
       5408.6750    -0.024070177
       5409.7373     0.063744226
       5410.7997      0.10260627
       5411.8620     0.052498447
       5412.9243     0.060350899
       5413.9866     0.062458703
       5415.0490     0.081708007
       5416.1113     0.086180622
       5417.1736     0.093207315
       5418.2359     0.032217937
       5419.2982     0.040940923
       5420.3606     0.021199125
       5421.4229     0.047536637
       5422.4852    -0.025666264
       5423.5475     0.047736559
       5424.6099     0.015655802
       5425.6722     0.073921788
       5426.7345     0.079541213
       5427.7968     0.031277968
       5428.8592     0.090223658
       5429.9215     0.048279974
       5430.9838     0.050003584
       5432.0461     0.050190871
       5433.1085     0.045349071
       5434.1708      0.11675552
       5435.2331    -0.061127545
       5436.2954     0.067671733
       5437.3577     0.074420850
       5438.4201      0.10627650
       5439.4824   -0.0027967800
       5440.5447    -0.032314096
       5441.6070      0.13149883
       5442.6694     0.087954422
       5443.7317     0.032735261
       5444.7940      0.10673005
       5445.8563     0.078560677
       5446.9187     0.081977135
       5447.9810     0.068960137
       5449.0433    -0.015784084
       5450.1056     0.026191257
       5451.1680     0.050282981
       5452.2303   -0.0047384340
       5453.2926     0.033960957
       5454.3549     0.036412855
       5455.4173     0.029527667
       5456.4796     0.078962707
       5457.5419     0.045010972
       5458.6042     0.074536595
       5459.6665     0.067064482
       5460.7289     0.028623845
       5461.7912    0.0043152971
       5462.8535    0.0042699183
       5463.9158    0.0040802160
       5464.9782     0.030749305
       5466.0405     0.049821257
       5467.1028    -0.018542020
       5468.1651     0.024294017
       5469.2275    -0.012711550
       5470.2898     0.019153224
       5471.3521    -0.018513506
       5472.4144    -0.022666757
       5473.4768     0.028269367
       5474.5391    0.0022106476
       5475.6014     0.043418039
       5476.6637     0.010306956
       5477.7260  -0.00048369957
       5478.7884     0.029341187
       5479.8507     0.046255819
       5480.9130    -0.028847109
       5481.9753     0.027476088
       5483.0377   -0.0077661995
       5484.1000     0.098871191
       5485.1623     0.043551882
       5486.2246    0.0012022531
       5487.2870     0.073313781
       5488.3493     0.028130003
       5489.4116     0.057912468
       5490.4739     0.054754540
       5491.5363   -0.0051667155
       5492.5986    -0.068665484
       5493.6609     0.098687984
       5494.7232     0.040313245
       5495.7856     0.059484611
       5496.8479     0.067525322
       5497.9102     0.017336360
       5498.9725     0.081674355
       5500.0348     0.014361890
       5501.0972    -0.051267134
       5502.1595     0.092812673
       5503.2218     0.092073019
       5504.2841     0.048336464
       5505.3465     0.070782309
       5506.4088     0.065824916
       5507.4711     0.061833760
       5508.5334     0.018784186
       5509.5958     0.028485867
       5510.6581      0.13770034
       5511.7204     0.091259721
       5512.7827     0.020017290
       5513.8451      0.13481290
       5514.9074     0.058382892
       5515.9697     0.029904252
       5517.0320    -0.063223627
       5518.0943    -0.062422354
       5519.1567   -0.0066508370
       5520.2190     0.057242244
       5521.2813     0.047488192
       5522.3436     0.047046845
       5523.4060     0.023347280
       5524.4683   -0.0072768638
       5525.5306    -0.049500081
       5526.5929    -0.069698457
       5527.6553    0.0057247260
       5528.7176   -0.0021520102
       5529.7799      0.10365488
       5530.8422   -0.0024618246
       5531.9046     0.018179644
       5532.9669     0.066015039
       5534.0292      0.11939611
       5535.0915      0.10808418
       5536.1538     0.056459500
       5537.2162   0.00048109044
       5538.2785     0.035097912
       5539.3408     0.040390889
       5540.4031    0.0026765308
       5541.4655     0.010428181
       5542.5278    -0.013246767
       5543.5901    -0.042065310
       5544.6524    -0.039962776
       5545.7148     0.031351037
       5546.7771   -0.0057673632
       5547.8394    -0.021132987
       5548.9017     0.025698272
       5549.9641      0.13134701
       5551.0264     0.050570654
       5552.0887      0.13449529
       5553.1510      0.12806328
       5554.2134     0.092896498
       5555.2757      0.12230699
       5556.3380     0.036804260
       5557.4003    -0.063481111
       5558.4626    -0.045621862
       5559.5250    -0.068432569
       5560.5873    -0.055752591
       5561.6496     0.074719188
       5562.7119     0.043301244
       5563.7743    -0.010467149
       5564.8366    -0.029236750
       5565.8989     0.028408344
       5566.9612    -0.035426436
       5568.0236     0.061000819
       5569.0859   -0.0062149422
       5570.1482    0.0028460006
       5571.2105     0.078054038
       5572.2729    -0.049907671
       5573.3352    -0.025473231
       5574.3975    -0.028978639
       5575.4598     0.055770279
       5576.5221      0.11550674
       5577.5845     0.097849726
       5578.6468      0.10636686
       5579.7091     0.045786580
       5580.7714     0.053241614
       5581.8338     0.050887234
       5582.8961    -0.042413213
       5583.9584    0.0013063182
       5585.0207    -0.012659255
       5586.0831      0.11526220
       5587.1454    -0.041121807
       5588.2077      0.11031505
       5589.2700     -0.13996254
       5590.3324      0.21988587
       5591.3947      0.33822555
       5592.4570     0.069140765
       5593.5193      0.11056847
       5594.5817     0.093472346
       5595.6440      0.10960109
       5596.7063    -0.024257229
       5597.7686     0.048788278
       5598.8309     0.079310134
       5599.8933    0.0068342215
       5600.9556     0.076603297
       5602.0179   0.00064668547
       5603.0802     0.026427130
       5604.1426     0.076473300
       5605.2049   -0.0034792121
       5606.2672     0.034647320
       5607.3295     0.013808321
       5608.3919    -0.066229215
       5609.4542    -0.035812928
       5610.5165     0.026447991
       5611.5788     0.030558812
       5612.6412     0.026463292
       5613.7035    -0.046679623
       5614.7658     0.042900502
       5615.8281     0.025833620
       5616.8904    -0.050237379
       5617.9528    0.0024751713
       5619.0151    -0.083607166
       5620.0774    -0.021767966
       5621.1397     0.045144920
       5622.2021     0.027061229
       5623.2644     0.065621510
       5624.3267   -0.0098520845
       5625.3890      0.10748628
       5626.4514    -0.067212494
       5627.5137    -0.014409774
       5628.5760     0.027094815
       5629.6383     0.088385008
       5630.7007     0.043989277
       5631.7630     0.033797590
       5632.8253     0.029157233
       5633.8876      0.12152562
       5634.9499     -0.10135242
       5636.0123    -0.061411112
       5637.0746    -0.019607139
       5638.1369     0.031848788
       5639.1992   -0.0090228532
       5640.2616     0.048001971
       5641.3239     0.084992817
       5642.3862    -0.019238068
       5643.4485    -0.074888842
       5644.5109    -0.075619521
       5645.5732     -0.13194200
       5646.6355    -0.063684544
       5647.6978    -0.086904736
       5648.7602    -0.038588354
       5649.8225    -0.012384748
       5650.8848     0.096143984
       5651.9471      0.11553254
       5653.0095     0.096027586
       5654.0718   -0.0054942903
       5655.1341    -0.039738576
       5656.1964    -0.050276321
       5657.2587     0.027315129
       5658.3211    -0.076995047
       5659.3834    -0.047082398
       5660.4457    -0.070402065
       5661.5080    -0.035342386
       5662.5704    0.0020968177
       5663.6327     0.038678468
       5664.6950     0.069150501
       5665.7573     0.027540804
       5666.8197    -0.017239730
       5667.8820    0.0021078501
       5668.9443    -0.077711333
       5670.0066     -0.22222264
       5671.0690    -0.064906589
       5672.1313    -0.028383777
       5673.1936   0.00052789710
       5674.2559   -0.0018444470
       5675.3182    -0.019949784
       5676.3806     0.022983364
       5677.4429     0.023724371
       5678.5052    0.0099639419
       5679.5675    -0.015732142
       5680.6299     0.061493693
       5681.6922     0.069581340
       5682.7545     0.021332209
       5683.8168     0.044331858
       5684.8792    0.0059146594
       5685.9415    -0.049694724
       5687.0038     0.066140321
       5688.0661     0.083466181
       5689.1285      0.11070391
       5690.1908     0.080296963
       5691.2531     0.094684704
       5692.3154     0.065733325
       5693.3777     0.058660802
       5694.4401     0.054199275
       5695.5024     0.035062329
       5696.5647     0.076207809
       5697.6270     0.018671581
       5698.6894     0.044628735
       5699.7517    0.0035167808
       5700.8140    0.0023139549
       5701.8763    -0.029893995
       5702.9387     0.042398944
       5704.0010     0.010287518
       5705.0633    -0.033437759
       5706.1256   -0.0024276250
       5707.1880     0.031553967
       5708.2503     0.051135385
       5709.3126     0.048972332
       5710.3749     0.073074354
       5711.4373      0.11119744
       5712.4996     0.017952578
       5713.5619     0.067317238
       5714.6242     0.042096464
       5715.6865     0.035987434
       5716.7489     0.086099901
       5717.8112     0.029746200
       5718.8735    0.0087276049
       5719.9358     0.024491414
       5720.9982  -0.00071617581
       5722.0605     0.025003937
       5723.1228    -0.011848858
       5724.1851     0.041377174
       5725.2475     0.024142260
       5726.3098     0.038646447
       5727.3721      0.15089080
       5728.4344     0.046842157
       5729.4968     0.042079333
       5730.5591     0.033731422
       5731.6214   -0.0022844832
       5732.6837     0.013440879
       5733.7460     0.035877929
       5734.8084    0.0077595433
       5735.8707     0.065188901
       5736.9330     0.037734408
       5737.9953     0.046301428
       5739.0577     0.096560847
       5740.1200     0.016397693
       5741.1823      0.12224677
       5742.2446     0.077735074
       5743.3070    -0.058121414
       5744.3693     0.095086671
       5745.4316      0.12228903
       5746.4939     0.024660450
       5747.5563     0.042058272
       5748.6186     0.058871700
       5749.6809    0.0031966015
       5750.7432     0.033331003
       5751.8056     0.049815481
       5752.8679     0.028870194
       5753.9302     0.034424216
       5754.9925    -0.043563601
       5756.0548     0.056311088
       5757.1172     0.013161746
       5758.1795     0.045688535
       5759.2418     0.036906476
       5760.3041     0.014159434
       5761.3665    0.0067246209
       5762.4288     0.044282506
       5763.4911     0.048189306
       5764.5534    -0.013025824
       5765.6158    -0.053318004
       5766.6781    -0.015705819
       5767.7404    -0.060334658
       5768.8027     0.052604865
       5769.8651    -0.010732709
       5770.9274     0.063183322
       5771.9897     0.042116484
       5773.0520     0.014062755
       5774.1143     0.077166893
       5775.1767     0.043023757
       5776.2390    -0.034804220
       5777.3013    -0.060321059
       5778.3636   -0.0070542435
       5779.4260    -0.075878306
       5780.4883     0.054811821
       5781.5506      0.11719229
       5782.6129      0.13783893
       5783.6753      0.14610214
       5784.7376     0.023820599
       5785.7999     0.046190579
       5786.8622     0.071383414
       5787.9246     0.076299297
       5788.9869      0.11126682
       5790.0492     0.034265013
       5791.1115     0.096801416
       5792.1738    -0.062352117
       5793.2362    -0.027293234
       5794.2985     0.060022027
       5795.3608     0.056682771
       5796.4231    -0.017944730
       5797.4855     0.012917273
       5798.5478    -0.060034131
       5799.6101     0.087609419
       5800.6724     0.054952297
       5801.7348     0.026624582
       5802.7971     0.025236081
       5803.8594    -0.010601781
       5804.9217    0.0084518690
       5805.9841     0.043443289
       5807.0464     0.065485192
       5808.1087    -0.022434104
       5809.1710     0.010976110
       5810.2334   -0.0020915880
       5811.2957    -0.019718625
       5812.3580     0.021432442
       5813.4203      0.13040741
       5814.4826      0.12685541
       5815.5450      0.14494051
       5816.6073     0.053039547
       5817.6696     0.034599896
       5818.7319     0.046264327
       5819.7943   -0.0033197017
       5820.8566    -0.011007746
       5821.9189     0.045052343
       5822.9812    -0.047058715
       5824.0436     0.029135420
       5825.1059     0.057079474
       5826.1682     0.011489309
       5827.2305     0.026000452
       5828.2929     0.055284570
       5829.3552     0.043243945
       5830.4175     0.067602391
       5831.4798     0.073643238
       5832.5421     0.028998848
       5833.6045     0.042026793
       5834.6668     0.087645315
       5835.7291     0.094947766
       5836.7914    0.0034284020
       5837.8538     0.062558426
       5838.9161     0.042924697
       5839.9784     0.028900370
       5841.0407     0.026258892
       5842.1031    -0.073530638
       5843.1654    -0.031732588
       5844.2277     0.041854893
       5845.2900     0.096726786
       5846.3524     0.095244172
       5847.4147     0.017463596
       5848.4770    -0.046987988
       5849.5393    0.0014375838
       5850.6017     0.086570093
       5851.6640     0.079657881
       5852.7263     0.062825175
       5853.7886     0.088836897
       5854.8509     0.052107783
       5855.9133   8.6936575e-05
       5856.9756     0.047326309
       5858.0379     0.040286767
       5859.1002     0.032508688
       5860.1626     0.053658637
       5861.2249     0.040152008
       5862.2872    -0.021233079
       5863.3495     0.015401576
       5864.4119     0.027797960
       5865.4742     0.045442991
       5866.5365     0.028932894
       5867.5988     0.081710096
       5868.6612     0.090656423
       5869.7235     0.041824575
       5870.7858     0.068483949
       5871.8481     0.054335476
       5872.9104     0.022060739
       5873.9728     0.055352183
       5875.0351     0.015730662
       5876.0974     0.039223666
       5877.1597    -0.031452753
       5878.2221    -0.034308356
       5879.2844   -0.0096256596
       5880.3467    -0.053276015
       5881.4090    -0.041204093
       5882.4714    -0.083673687
       5883.5337    -0.026550277
       5884.5960    -0.055673423
       5885.6583     0.039381664
       5886.7207     0.076639703
       5887.7830     0.061251711
       5888.8453      0.15381968
       5889.9076      0.12127460
       5890.9699     0.012026795
       5892.0323    -0.073859893
       5893.0946     0.045679169
       5894.1569    -0.014731621
       5895.2192    -0.022674134
       5896.2816     0.063676710
       5897.3439     0.097740285
       5898.4062     0.094030196
       5899.4685     0.079732483
       5900.5309  -0.00082500457
       5901.5932     0.089744088
       5902.6555     0.043048542
       5903.7178     0.039580208
       5904.7802    0.0094138087
       5905.8425     0.088405015
       5906.9048    -0.019372044
       5907.9671    0.0010018547
       5909.0295    0.0083872946
       5910.0918    -0.032100298
       5911.1541   -0.0083207087
       5912.2164    -0.031627538
       5913.2787     0.037949991
       5914.3411     0.027854022
       5915.4034    0.0056399490
       5916.4657     0.048113038
       5917.5280     0.072710376
       5918.5904      0.10320377
       5919.6527     0.070501945
       5920.7150     0.037993555
       5921.7773     0.016274152
       5922.8397     0.028349161
       5923.9020    -0.017861184
       5924.9643     0.072359328
       5926.0266     0.032343557
       5927.0890   0.00094226254
       5928.1513     0.065139682
       5929.2136     0.045671731
       5930.2759     0.063974016
       5931.3382      0.13405840
       5932.4006     0.052539068
       5933.4629     0.074711296
       5934.5252     0.024360794
       5935.5875     0.054439489
       5936.6499     0.019038510
       5937.7122     0.056676868
       5938.7745    -0.030872126
       5939.8368    -0.035407085
       5940.8992     0.047757409
       5941.9615     0.044643275
       5943.0238     0.039608442
       5944.0861     0.034958477
       5945.1485    -0.012991820
       5946.2108    -0.054536259
       5947.2731     0.099721762
       5948.3354     0.060226965
       5949.3978    -0.017303274
       5950.4601    -0.056093775
       5951.5224     0.047871545
       5952.5847     0.046258298
       5953.6470     0.025280434
       5954.7094     0.027542172
       5955.7717     0.060389735
       5956.8340   -0.0078625674
       5957.8963     0.022974122
       5958.9587   0.00080953922
       5960.0210     0.011457014
       5961.0833     0.024405180
       5962.1456     0.041011756
       5963.2080     0.031737928
       5964.2703    0.0099358585
       5965.3326   -0.0084571100
       5966.3949     0.024098156
       5967.4573    -0.057267027
       5968.5196     0.043726492
       5969.5819    0.0031789731
       5970.6442    -0.030096259
       5971.7065    -0.011539724
       5972.7689     0.010096780
       5973.8312     0.014072932
       5974.8935    -0.036053455
       5975.9558    -0.079550422
       5977.0182  -0.00073353570
       5978.0805    0.0014021230
       5979.1428     0.023562477
       5980.2051     0.046893876
       5981.2675     0.044135729
       5982.3298     0.061273977
       5983.3921     0.061286964
       5984.4544     0.031760036
       5985.5168     0.043024598
       5986.5791    -0.012871343
       5987.6414   -0.0088323051
       5988.7037     0.024088427
       5989.7660     0.072672034
       5990.8284   -0.0052143729
       5991.8907    0.0070781091
       5992.9530    -0.026703702
       5994.0153     0.055272431
       5995.0777     0.073933778
       5996.1400     0.025626711
       5997.2023     0.085069531
       5998.2646     0.028045429
       5999.3270     0.063668003
       6000.3893     0.038158114
       6001.4516      0.12500856
       6002.5139     0.059765650
       6003.5763     0.014541526
       6004.6386     0.062528522
       6005.7009     0.056067881
       6006.7632    -0.024758750
       6007.8256    -0.027547608
       6008.8879     0.040516731
       6009.9502     0.077401433
       6011.0125     0.031119023
       6012.0748     0.043912052
       6013.1372     0.043146100
       6014.1995     0.040251443
       6015.2618    -0.029348895
       6016.3241    0.0043574907
       6017.3865   -0.0010174411
       6018.4488     0.024795168
       6019.5111     0.012008273
       6020.5734     0.042879703
       6021.6358     0.026041571
       6022.6981     0.050507734
       6023.7604     0.056880727
       6024.8227    0.0086218615
       6025.8851     0.031110033
       6026.9474     0.047579603
       6028.0097     0.046247756
       6029.0720     0.082679068
       6030.1343     0.044638044
       6031.1967     0.087895034
       6032.2590     0.010350302
       6033.3213     0.070593505
       6034.3836     0.065384352
       6035.4460     0.019401222
       6036.5083     0.042051480
       6037.5706     0.028732165
       6038.6329     0.040515598
       6039.6953     0.052060195
       6040.7576     0.040753765
       6041.8199     0.048666886
       6042.8822     0.038711974
       6043.9446   0.00011149949
       6045.0069   -0.0048009827
       6046.0692     0.014506592
       6047.1315   -0.0031601496
       6048.1938     0.034068923
       6049.2562     0.073954997
       6050.3185     0.037550650
       6051.3808   0.00061257527
       6052.4431    -0.011286589
       6053.5055     0.015013684
       6054.5678     0.011042961
       6055.6301     0.057311482
       6056.6924    -0.012729341
       6057.7548   -0.0064008807
       6058.8171    0.0019570609
       6059.8794    -0.020112926
       6060.9417     0.033167426
       6062.0041     0.022895524
       6063.0664    0.0022327407
       6064.1287     0.059788721
       6065.1910     0.022105816
       6066.2534    -0.045269350
       6067.3157    -0.084546670
       6068.3780   -0.0052741298
       6069.4403      0.11679420
       6070.5026     0.046725756
       6071.5650      0.11437403
       6072.6273      0.11674101
       6073.6896      0.10130793
       6074.7519     0.042521206
       6075.8143    -0.014195744
       6076.8766    -0.020816510
       6077.9389     0.040905183
       6079.0012     0.026780792
       6080.0636     0.015270137
       6081.1259     0.059171812
       6082.1882     0.029734637
       6083.2505     0.050834718
       6084.3129     0.074736635
       6085.3752     0.057946755
       6086.4375      0.11380115
       6087.4998     0.060133031
       6088.5621     0.061071914
       6089.6245    -0.024067036
       6090.6868     0.018991585
       6091.7491     0.060945372
       6092.8114    -0.020589583
       6093.8738    0.0062899369
       6094.9361     0.090141644
       6095.9984    0.0093786163
       6097.0607    -0.027528608
       6098.1231     0.088716571
       6099.1854     0.067215626
       6100.2477    -0.065195549
       6101.3100    -0.023609180
       6102.3724     0.044153955
       6103.4347     0.011278461
       6104.4970    -0.018338352
       6105.5593    -0.016224454
       6106.6217    -0.055542804
       6107.6840     0.044386060
       6108.7463    -0.029244878
       6109.8086     0.016923266
       6110.8709     0.072624719
       6111.9333    -0.015466612
       6112.9956    -0.055734771
       6114.0579    0.0051370267
       6115.1202     0.038491967
       6116.1826    0.0084622664
       6117.2449     0.014320608
       6118.3072    0.0038898598
       6119.3695     0.028634689
       6120.4319     0.015337867
       6121.4942     0.044175064
       6122.5565     0.038653230
       6123.6188    -0.021561673
       6124.6812    -0.047108265
       6125.7435    0.0053973587
       6126.8058     0.045854131
       6127.8681     0.018510846
       6128.9304     0.012965793
       6129.9928     0.072242170
       6131.0551     0.061733285
       6132.1174     0.064783363
       6133.1797     0.073941346
       6134.2421     0.024773047
       6135.3044    -0.032441474
       6136.3667      0.11384404
       6137.4290     0.084010286
       6138.4914     0.012032084
       6139.5537     0.084918574
       6140.6160     0.034995067
       6141.6783    0.0085309103
       6142.7407   -0.0083283552
       6143.8030    0.0033360395
       6144.8653    0.0034835404
       6145.9276     0.053811958
       6146.9899     0.023003565
       6148.0523     0.065351668
       6149.1146    0.0086009025
       6150.1769   -0.0081425967
       6151.2392    0.0098691127
       6152.3016   -0.0050998181
       6153.3639     0.025430764
       6154.4262     0.068232820
       6155.4885     0.092926663
       6156.5509      0.11595319
       6157.6132     0.058857311
       6158.6755     0.056065950
       6159.7378     0.058369231
       6160.8002     0.053147752
       6161.8625     0.031067337
       6162.9248    -0.026115330
       6163.9871     0.010452429
       6165.0495     0.043208551
       6166.1118     0.010455224
       6167.1741   -0.0020120305
       6168.2364    -0.013113309
       6169.2987     0.010391326
       6170.3611     0.029711668
       6171.4234    -0.024229508
       6172.4857     0.013319986
       6173.5480     0.054578918
       6174.6104  -0.00062580119
       6175.6727     0.014010016
       6176.7350     0.041232126
       6177.7973     0.093417546
       6178.8597    0.0024532743
       6179.9220     0.037892483
       6180.9843     0.047925506
       6182.0466   -0.0011202487
       6183.1090    0.0027265283
       6184.1713     0.016378229
       6185.2336     0.084970260
       6186.2959     0.032015078
       6187.3582     0.016102826
       6188.4206     0.052108094
       6189.4829     0.041417275
       6190.5452    -0.017344707
       6191.6075     0.022550441
       6192.6699    -0.033725527
       6193.7322     0.046791857
       6194.7945    0.0078866316
       6195.8568    -0.035526885
       6196.9192    -0.027391118
       6197.9815    -0.046225296
       6199.0438    -0.060435270
       6200.1061   -0.0025384011
       6201.1685    -0.029715320
       6202.2308    -0.022240471
       6203.2931    -0.062354089
       6204.3554     0.086263417
       6205.4178     0.065673674
       6206.4801     0.034252761
       6207.5424    -0.012000433
       6208.6047     0.052424237
       6209.6670     0.041741403
       6210.7294     0.016088513
       6211.7917     0.036261869
       6212.8540     0.096614983
       6213.9163      0.11028776
       6214.9787     0.069994943
       6216.0410     0.034030654
       6217.1033     0.021910481
       6218.1656     0.070527638
       6219.2280     0.093422595
       6220.2903     0.067824041
       6221.3526     0.076076359
       6222.4149     0.030123481
       6223.4773     0.027507408
       6224.5396     0.061185345
       6225.6019   -0.0071657551
       6226.6642    -0.038373815
       6227.7265     0.065210657
       6228.7889     0.012208114
       6229.8512    0.0032680262
       6230.9135     0.036560117
       6231.9758     0.015751260
       6233.0382     0.014239342
       6234.1005     0.044957129
       6235.1628     0.060871794
       6236.2251     0.034059316
       6237.2875   0.00014796477
       6238.3498    -0.022613750
       6239.4121    -0.012122873
       6240.4744     0.057555810
       6241.5368     0.019504316
       6242.5991    0.0063569720
       6243.6614     0.030790005
       6244.7237     0.028305825
       6245.7860     0.065084525
       6246.8484    0.0045950540
       6247.9107     0.024127106
       6248.9730     0.038085954
       6250.0353     0.094154292
       6251.0977     0.058261185
       6252.1600     0.020895397
       6253.2223     0.052479570
       6254.2846     0.062035796
       6255.3470     0.024137571
       6256.4093     0.039378352
       6257.4716     0.053766664
       6258.5339     0.034349219
       6259.5963     0.076403905
       6260.6586     0.020176922
       6261.7209     0.034277731
       6262.7832     0.047646125
       6263.8456    0.0012159527
       6264.9079     0.015463839
       6265.9702     0.014333900
       6267.0325     0.069522211
       6268.0948     0.023962223
       6269.1572     0.075853725
       6270.2195      0.11569248
       6271.2818     0.027779009
       6272.3441     0.099282630
       6273.4065     0.097873744
       6274.4688     0.049654244
       6275.5311     0.050634194
       6276.5934     0.057265038
       6277.6558     0.024489994
       6278.7181     0.031725717
       6279.7804     0.041594227
       6280.8427    0.0016828359
       6281.9051     0.018449169
       6282.9674    0.0034789465
       6284.0297   -0.0011782185
       6285.0920     0.029876528
       6286.1543     0.053966068
       6287.2167     0.015327917
       6288.2790    -0.027448140
       6289.3413    -0.023608045
       6290.4036  -0.00031282957
       6291.4660     0.015199182
       6292.5283     0.041189288
       6293.5906     0.078840164
       6294.6529     0.045260407
       6295.7153     0.023534152
       6296.7776     0.032402843
       6297.8399     0.083082921
       6298.9022   -0.0048864725
       6299.9646     0.013214348
       6301.0269     0.073316948
       6302.0892   -0.0044091122
       6303.1515     0.096477221
       6304.2138     0.070255411
       6305.2762     0.046142113
       6306.3385     0.036212978
       6307.4008     0.039897089
       6308.4631     0.039480691
       6309.5255     0.027339261
       6310.5878     0.018181978
       6311.6501     0.093413002
       6312.7124     0.045859468
       6313.7748     0.067170006
       6314.8371     0.019744019
       6315.8994     0.023057752
       6316.9617    0.0037927899
       6318.0241    0.0074705337
       6319.0864     0.031187861
       6320.1487     0.068332560
       6321.2110     0.034553703
       6322.2734     0.041306586
       6323.3357     0.023279974
       6324.3980   0.00082858233
       6325.4603     0.041569970
       6326.5226     0.035486473
       6327.5850     0.033161735
       6328.6473   -0.0026318950
       6329.7096     0.059880973
       6330.7719     0.060495978
       6331.8343     0.071214700
       6332.8966     0.098182466
       6333.9589   -0.0017118416
       6335.0212  -0.00062188654
       6336.0836     0.029804373
       6337.1459     0.018126957
       6338.2082     0.023291259
       6339.2705   -0.0053078926
       6340.3329     0.032782284
       6341.3952     0.033901372
       6342.4575     0.045807096
       6343.5198    -0.011629554
       6344.5821    -0.015627239
       6345.6445     0.040984572
       6346.7068     0.041719296
       6347.7691     0.045857506
       6348.8314     0.091891192
       6349.8938     0.084847632
       6350.9561     0.076834819
       6352.0184     0.030058881
       6353.0807     0.035978297
       6354.1431    -0.011106404
       6355.2054     0.048858631
       6356.2677     0.016901220
       6357.3300     0.058592415
       6358.3924     0.027000991
       6359.4547     0.036488947
       6360.5170    0.0061994707
       6361.5793   0.00022901710
       6362.6417    -0.020579455
       6363.7040     0.047714270
       6364.7663     0.038185187
       6365.8286    0.0090079825
       6366.8909     0.029055976
       6367.9533     0.021611714
       6369.0156    -0.047730428
       6370.0779     0.014959056
       6371.1402    -0.037082181
       6372.2026     0.064984607
       6373.2649     0.061541049
       6374.3272  -5.7411297e-05
       6375.3895     0.050806717
       6376.4519     0.071510837
       6377.5142      0.15755058
       6378.5765     0.076656757
       6379.6388     0.019780668
       6380.7012   -0.0078695626
       6381.7635     0.091714773
       6382.8258    0.0061414303
       6383.8881     0.020667734
       6384.9504     0.077846662
       6386.0128     0.076141990
       6387.0751     0.029357350
       6388.1374     0.065045877
       6389.1997     0.048198928
       6390.2621     0.081095062
       6391.3244     0.029164544
       6392.3867     0.054511857
       6393.4490     0.047131413
       6394.5114   -0.0086339786
       6395.5737    0.0091337628
       6396.6360    -0.058519612
       6397.6983     0.067580507
       6398.7607    0.0043790986
       6399.8230     0.023865743
       6400.8853     0.011132325
       6401.9476   -0.0018591519
       6403.0099   -0.0025755356
       6404.0723      0.12837340
       6405.1346     0.038334777
       6406.1969     0.014646209
       6407.2592     0.042300418
       6408.3216     0.023858457
       6409.3839    0.0027786344
       6410.4462     0.035808094
       6411.5085     0.044214603
       6412.5709    -0.036509656
       6413.6332   -0.0085080170
       6414.6955   -0.0053250616
       6415.7578    0.0025351489
       6416.8202     0.022035976
       6417.8825    0.0041423637
       6418.9448    0.0069286074
       6420.0071     0.059775677
       6421.0695     0.024610836
       6422.1318     0.046128313
       6423.1941    -0.023891988
       6424.2564     0.040245119
       6425.3187     0.047771535
       6426.3811     0.071036248
       6427.4434     0.056631013
       6428.5057      0.12753982
       6429.5680     0.093452291
       6430.6304    0.0042476214
       6431.6927     0.030961667
       6432.7550  -0.00030582842
       6433.8173    -0.034173732
       6434.8797     0.037279073
       6435.9420    -0.042176336
       6437.0043    -0.024706448
       6438.0666    -0.041237951
       6439.1290    0.0076104787
       6440.1913      0.12823813
       6441.2536     0.095792198
       6442.3159     0.028254358
       6443.3782     0.087486390
       6444.4406     0.034810495
       6445.5029     0.064512508
       6446.5652     0.099649985
       6447.6275     0.042661442
       6448.6899      0.11057275
       6449.7522      0.11669500
       6450.8145      0.13278176
       6451.8768     0.053472533
       6452.9392      0.12585320
       6454.0015     0.071755307
       6455.0638     0.043398960
       6456.1261     0.023035231
       6457.1885   -0.0046382114
       6458.2508     0.017787113
       6459.3131   -0.0051845374
       6460.3754    0.0021819963
       6461.4378     0.037358026
       6462.5001    0.0092399224
       6463.5624     0.052196499
       6464.6247     0.053165498
       6465.6870     0.080475328
       6466.7494    -0.098937788
       6467.8117     -0.14806648
       6468.8740    -0.045001448
       6469.9363      0.12680331
       6470.9987     0.049538106
       6472.0610     0.068596056
       6473.1233      0.15423407
       6474.1856     0.087873562
       6475.2480    -0.017180552
       6476.3103     0.019173225
       6477.3726     0.041612673
       6478.4349     0.061079216
       6479.4973     0.032920467
       6480.5596     0.045275264
       6481.6219     0.061863590
       6482.6842     0.059476773
       6483.7465     0.070062769
       6484.8089     0.046457384
       6485.8712      0.11434825
       6486.9335     0.030546825
       6487.9958     0.099207602
       6489.0582     0.042502960
       6490.1205     0.079616534
       6491.1828      0.12775684
       6492.2451     0.011634169
       6493.3075     0.018851889
       6494.3698    0.0027455241
       6495.4321     0.044997140
       6496.4944     0.072834292
       6497.5568     0.082430135
       6498.6191     0.047970358
       6499.6814    -0.016224161
       6500.7437     0.028553131
       6501.8060     0.031909668
       6502.8684    -0.029237783
       6503.9307    -0.029474943
       6504.9930    -0.058310330
       6506.0553     0.017037956
       6507.1177      0.10933555
       6508.1800     0.045462202
       6509.2423     0.055885176
       6510.3046     0.047197846
       6511.3670    -0.031701622
       6512.4293    -0.017307332
       6513.4916   -0.0025524820
       6514.5539    0.0017537094
       6515.6163     0.056096440
       6516.6786  -0.00018107923
       6517.7409     -0.11691063
       6518.8032    0.0086575597
       6519.8656      0.16528456
       6520.9279     0.082004646
       6521.9902     0.029900086
       6523.0525     0.054293873
       6524.1148    -0.056528043
       6525.1772    -0.053041979
       6526.2395     0.048049988
       6527.3018     -0.20071084
       6528.3641    -0.053479545
       6529.4265      0.10029959
       6530.4888     0.067283845
       6531.5511     0.084513735
       6532.6134     0.050990525
       6533.6758     0.046390457
       6534.7381   -0.0035778140
       6535.8004    -0.028053709
       6536.8627     0.052065232
       6537.9251     0.063772633
       6538.9874     0.027573170
       6540.0497     0.023907770
       6541.1120    -0.025965550
       6542.1743     0.072875345
       6543.2367   -0.0085994036
       6544.2990     0.063871578
       6545.3613     0.064559453
       6546.4236     0.027761772
       6547.4860     0.054433711
       6548.5483     0.038073284
       6549.6106     0.095933057
       6550.6729    0.0037700177
       6551.7353   -0.0043735208
       6552.7976     -0.10124222
       6553.8599    -0.038573629
       6554.9222    0.0042042651
       6555.9846     0.027152488
       6557.0469     0.093491843
       6558.1092     0.085544964
       6559.1715     0.010754688
       6560.2339   -0.0086935110
       6561.2962   -0.0077955727
       6562.3585    0.0070938644
       6563.4208    -0.057134639
       6564.4831     0.070996452
       6565.5455      0.10793543
       6566.6078    0.0098273692
       6567.6701    0.0038016562
       6568.7324     0.031668277
       6569.7948   -0.0036146755
       6570.8571    -0.032096581
       6571.9194     0.047958297
       6572.9817     0.069282914
       6574.0441   -0.0034557472
       6575.1064     0.071398153
       6576.1687     0.045173703
       6577.2310     0.035043033
       6578.2934      0.10917961
       6579.3557     0.077221669
       6580.4180     0.069287228
       6581.4803    -0.032822195
       6582.5426    0.0021525340
       6583.6050    0.0014694391
       6584.6673    -0.024976555
       6585.7296  -9.4618306e-05
       6586.7919     0.095438430
       6587.8543     0.031429939
       6588.9166     0.055695031
       6589.9789     0.029735995
       6591.0412     0.042693079
       6592.1036    0.0084628719
       6593.1659     0.060837455
       6594.2282     0.026711008
       6595.2905     0.050383472
       6596.3529     0.057149774
       6597.4152    -0.016671120
       6598.4775     0.025901205
       6599.5398    -0.065378978
       6600.6021     0.015641955
       6601.6645     0.029094763
       6602.7268     0.071827756
       6603.7891     0.037298268
       6604.8514     0.067110322
       6605.9138     0.056402284
       6606.9761    -0.011299198
       6608.0384    -0.017050927
       6609.1007     0.043301067
       6610.1631     0.060616641
       6611.2254    0.0098062737
       6612.2877     0.065382732
       6613.3500      0.11061477
       6614.4124    -0.044375539
       6615.4747    -0.085875555
       6616.5370     0.015268161
       6617.5993     0.016277291
       6618.6617    -0.015931612
       6619.7240     0.075755992
       6620.7863     0.058494584
       6621.8486     0.015333728
       6622.9109     0.070232559
       6623.9733     0.040669212
       6625.0356   -0.0038562913
       6626.0979     0.023077957
       6627.1602     0.016748893
       6628.2226     0.053171006
       6629.2849    -0.039136356
       6630.3472     0.034672998
       6631.4095     0.028276187
       6632.4719     0.010416403
       6633.5342     0.051644780
       6634.5965     0.029492725
       6635.6588     0.059706717
       6636.7212     0.016899238
       6637.7835     0.019716215
       6638.8458     0.030149390
       6639.9081    -0.044779453
       6640.9704     0.026011544
       6642.0328     0.037974147
       6643.0951    -0.046848362
       6644.1574     0.054237788
       6645.2197     0.031373825
       6646.2821     0.079832464
       6647.3444      0.12671386
       6648.4067    0.0066928091
       6649.4690     0.011122882
       6650.5314     0.043342269
       6651.5937    -0.010238063
       6652.6560     0.062020811
       6653.7183     0.090953648
       6654.7807     0.048208634
       6655.8430    0.0042877407
       6656.9053      0.13241145
       6657.9676     0.028391933
       6659.0299    0.0048885410
       6660.0923     0.039740002
       6661.1546     0.051989284
       6662.2169     0.070334104
       6663.2792      0.17010635
       6664.3416      0.10608114
       6665.4039      0.14691199
       6666.4662     0.068594355
       6667.5285    -0.021434387
       6668.5909     0.032836381
       6669.6532     0.025254722
       6670.7155     0.064753261
       6671.7778     0.055350257
       6672.8402     0.019304061
       6673.9025    -0.019524804
       6674.9648    0.0051206103
       6676.0271     0.017630831
       6677.0895     0.027406400
       6678.1518     0.020520128
       6679.2141     0.025045457
       6680.2764    0.0056538248
       6681.3387     0.069137194
       6682.4011    -0.026579701
       6683.4634    0.0044112172
       6684.5257   -0.0047753349
       6685.5880     0.051869107
       6686.6504     0.074149374
       6687.7127    -0.018672579
       6688.7750     0.076328358
       6689.8373     0.061281209
       6690.8997      0.15503566
       6691.9620      0.10634301
       6693.0243     0.084121387
       6694.0866      0.12450370
       6695.1490    -0.067320010
       6696.2113     0.055046894
       6697.2736     0.012671300
       6698.3359     0.011335659
       6699.3982      0.10983673
       6700.4606     0.083803097
       6701.5229      0.11380526
       6702.5852     0.013980744
       6703.6475     0.054752027
       6704.7099     0.070547578
       6705.7722     0.021605820
       6706.8345   -0.0051212379
       6707.8968     0.029246327
       6708.9592     0.073725203
       6710.0215     0.036150458
       6711.0838     0.061149002
       6712.1461     0.038060651
       6713.2085     0.044216341
       6714.2708     0.063532645
       6715.3331     0.038459756
       6716.3954     0.045418790
       6717.4578     0.026245035
       6718.5201     0.044959337
       6719.5824     0.014539995
       6720.6447    -0.026701954
       6721.7070     0.029125497
       6722.7694    0.0065316848
       6723.8317     0.028999408
       6724.8940     0.051605062
       6725.9563     0.083212023
       6727.0187   0.00025880548
       6728.0810     0.029255579
       6729.1433     0.018741337
       6730.2056     0.014526983
       6731.2680    -0.053411042
       6732.3303    0.0011398686
       6733.3926    0.0024253301
       6734.4549    -0.050179096
       6735.5173    0.0017628977
       6736.5796     0.079381646
       6737.6419    -0.011393825
       6738.7042    -0.032215647
       6739.7665    -0.018137974
       6740.8289     0.028971617
       6741.8912     0.090149550
       6742.9535     0.019776429
       6744.0158    -0.019438837
       6745.0782    -0.022825965
       6746.1405    -0.015982468
       6747.2028      0.10836165
       6748.2651     0.077231414
       6749.3275      0.10121477
       6750.3898      0.17704722
       6751.4521      0.15026651
       6752.5144   -0.0068895874
       6753.5768   -0.0017138915
       6754.6391    -0.023510222
       6755.7014     0.021055313
       6756.7637     0.029046270
       6757.8260             NaN
       6758.8884             NaN
       6759.9507             NaN
       6761.0130             NaN
       6762.0753             NaN
       6763.1377             NaN
       6764.2000             NaN
       6765.2623             NaN
       6766.3246             NaN
       6767.3870             NaN
       6768.4493             NaN
       6769.5116             NaN
       6770.5739             NaN
       6771.6363             NaN
       6772.6986             NaN
       6773.7609             NaN
       6774.8232             NaN
       6775.8856             NaN
       6776.9479             NaN
       6778.0102             NaN
       6779.0725             NaN
       6780.1348             NaN
       6781.1972             NaN
       6782.2595             NaN
       6783.3218             NaN
       6784.3841             NaN
       6785.4465             NaN
       6786.5088             NaN
       6787.5711             NaN
       6788.6334             NaN
       6789.6958             NaN
       6790.7581             NaN
       6791.8204             NaN
       6792.8827             NaN
       6793.9451             NaN
       6795.0074             NaN
       6796.0697             NaN
       6797.1320             NaN
       6798.1943             NaN
       6799.2567             NaN
       6800.3190             NaN
       6801.3813             NaN
       6802.4436             NaN
       6803.5060             NaN
       6804.5683             NaN
       6805.6306             NaN
       6806.6929             NaN
       6807.7553             NaN
       6808.8176             NaN
       6809.8799             NaN
       6810.9422             NaN
       6812.0046             NaN
       6813.0669             NaN
       6814.1292             NaN
       6815.1915             NaN
       6816.2539             NaN
       6817.3162             NaN
       6818.3785             NaN
       6819.4408             NaN
       6820.5031             NaN
       6821.5655             NaN
       6822.6278             NaN
       6823.6901             NaN
       6824.7524             NaN
       6825.8148             NaN
       6826.8771             NaN
       6827.9394             NaN
       6829.0017             NaN
       6830.0641             NaN
       6831.1264             NaN
       6832.1887             NaN
       6833.2510             NaN
       6834.3134             NaN
       6835.3757             NaN
       6836.4380             NaN
       6837.5003             NaN
       6838.5626             NaN
       6839.6250             NaN
       6840.6873             NaN
       6841.7496             NaN
       6842.8119             NaN
       6843.8743             NaN
       6844.9366             NaN
       6845.9989             NaN
       6847.0612             NaN
       6848.1236             NaN
       6849.1859             NaN
       6850.2482             NaN
       6851.3105             NaN
       6852.3729     0.037516926
       6853.4352     0.021822737
       6854.4975     0.060769376
       6855.5598    -0.058940993
       6856.6221    -0.010567360
       6857.6845     0.066006511
       6858.7468     0.053792978
       6859.8091     0.017088090
       6860.8714     0.066557054
       6861.9338     0.099856123
       6862.9961     0.094164662
       6864.0584     0.064488844
       6865.1207     0.045543568
       6866.1831     0.091409524
       6867.2454     0.031845801
       6868.3077     0.028880739
       6869.3700      0.11559144
       6870.4324     0.058621382
       6871.4947     0.057963066
       6872.5570     0.090401928
       6873.6193      0.11130998
       6874.6817     0.040434885
       6875.7440    -0.060960238
       6876.8063     0.036479585
       6877.8686     0.041366956
       6878.9309     0.024305447
       6879.9933     0.077334883
       6881.0556     0.035416682
       6882.1179     0.033264782
       6883.1802   -0.0072425097
       6884.2426     0.077553235
       6885.3049    0.0023157866
       6886.3672     0.011917753
       6887.4295      0.10419532
       6888.4919     0.073460933
       6889.5542    -0.084581357
       6890.6165    -0.092358052
       6891.6788    -0.051613626
       6892.7412     0.078738713
       6893.8035    -0.027290976
       6894.8658     0.064442600
       6895.9281     0.086703056
       6896.9904     0.013903295
       6898.0528     0.098844213
       6899.1151     0.048791752
       6900.1774    -0.036363081
       6901.2397    -0.027445881
       6902.3021    0.0047071495
       6903.3644      0.10122010
       6904.4267     0.067544920
       6905.4890     0.010434902
       6906.5514     0.064407991
       6907.6137     0.044799090
       6908.6760     0.029751829
       6909.7383    -0.039136165
       6910.8007    0.0097958297
       6911.8630    -0.044848205
       6912.9253    -0.051280948
       6913.9876     0.027135484
       6915.0500    -0.080189795
       6916.1123     -0.69379701
       6917.1746     -0.36978161
       6918.2369    0.0046032893
       6919.2992    -0.013080310
       6920.3616    -0.040366852
       6921.4239    0.0027399558
       6922.4862     0.029725117
       6923.5485     0.045376307
       6924.6109     0.054432936
       6925.6732      0.14694214
       6926.7355     0.079489961
       6927.7978     0.083572570
       6928.8602     0.040285201
       6929.9225   -0.0064494069
       6930.9848      0.12230244
       6932.0471     0.034166886
       6933.1095      0.10343850
       6934.1718     0.077328923
       6935.2341     0.045568651
       6936.2964     0.041483643
       6937.3587   -0.0074648653
       6938.4211     0.072906235
       6939.4834    -0.091798759
       6940.5457    -0.025328034
       6941.6080    -0.028299133
       6942.6704     0.014343162
       6943.7327      0.12706151
       6944.7950     0.032884626
       6945.8573     0.085526718
       6946.9197     0.063130790
       6947.9820     0.034707954
       6949.0443     0.079601883
       6950.1066     0.023326628
       6951.1690      0.10368128
       6952.2313     0.034316591
       6953.2936    -0.010688700
       6954.3559     0.015618943
       6955.4182    -0.090410633
       6956.4806    -0.022325320
       6957.5429     0.046913518
       6958.6052      0.17673524
       6959.6675     0.090457770
       6960.7299    -0.029559583
       6961.7922   -0.0019998034
       6962.8545     0.042349369
       6963.9168     0.074181937
       6964.9792      0.10263938
       6966.0415      0.13426423
       6967.1038    -0.011181028
       6968.1661     0.023646475
       6969.2285     0.065425125
       6970.2908     0.089156209
       6971.3531    -0.031067387
       6972.4154     0.050905329
       6973.4778      0.14122531
       6974.5401     0.045502151
       6975.6024     0.043751130
       6976.6647     0.044684200
       6977.7270    -0.036586109
       6978.7894     0.027114389
       6979.8517   -0.0030977776
       6980.9140    0.0066335743
       6981.9763      0.11305756
       6983.0387     -0.15229157
       6984.1010     -0.11005845
       6985.1633    -0.015523368
       6986.2256     0.046970178
       6987.2880     0.025414605
       6988.3503     0.083181241
       6989.4126   -0.0079222016
       6990.4749     0.095828758
       6991.5373     0.025175231
       6992.5996     -0.18034017
       6993.6619      -1.4303848
       6994.7242      -2.7530970
       6995.7865     -0.79337481
       6996.8489    -0.096948487
       6997.9112     -0.10459144
       6998.9735    -0.042316183
       7000.0358    -0.014899421
       7001.0982     0.053340815
       7002.1605   -0.0077046015
       7003.2228    -0.018238702
       7004.2851    -0.065509928
       7005.3475    0.0035434190
       7006.4098    -0.011487773
       7007.4721    -0.057064488
       7008.5344      0.13319456
       7009.5968     0.067437743
       7010.6591      0.10008482
       7011.7214   -0.0097342475
       7012.7837    0.0077131960
       7013.8460      0.10551301
       7014.9084     0.013089914
       7015.9707    -0.040912182
       7017.0330      0.12023084
       7018.0953     0.076950819
       7019.1577   -0.0010624266
       7020.2200    0.0059504738
       7021.2823     0.067544721
       7022.3446     0.072791808
       7023.4070     0.053566277
       7024.4693     0.021354698
       7025.5316     0.029993346
       7026.5939     0.032791728
       7027.6563      0.10580754
       7028.7186    -0.021888963
       7029.7809    -0.036493358
       7030.8432   -0.0012914932
       7031.9056    -0.066531883
       7032.9679     0.016745733
       7034.0302    -0.070126559
       7035.0925     -0.10915999
       7036.1548     -0.12005488
       7037.2172     -0.22523016
       7038.2795     -0.24228796
       7039.3418    -0.060390310
       7040.4041    -0.048834893
       7041.4665    -0.045950315
       7042.5288    0.0018088913
       7043.5911  -0.00022539393
       7044.6534    -0.068917474
       7045.7158    -0.065334197
       7046.7781    -0.017032112
       7047.8404     0.058311012
       7048.9027     0.049462806
       7049.9651     0.047236627
       7051.0274     0.027825269
       7052.0897    -0.031557748
       7053.1520    -0.088139631
       7054.2143    0.0099856278
       7055.2767     0.057724549
       7056.3390     0.069637019
       7057.4013      0.10404257
       7058.4636      0.11613839
       7059.5260     0.084844409
       7060.5883     0.088148823
       7061.6506      0.11075900
       7062.7129     0.045855419
       7063.7753      0.10860591
       7064.8376     0.091231475
       7065.8999      0.11409389
       7066.9622     0.037328915
       7068.0246    -0.020383028
       7069.0869   -0.0078361237
       7070.1492     0.028647466
       7071.2115     0.080239333
       7072.2739     0.063904853
       7073.3362     0.083141034
       7074.3985      0.10027713
       7075.4608     0.040137528
       7076.5231    0.0061109547
       7077.5855    -0.034090504
       7078.6478     -0.10163731
       7079.7101     0.034664792
       7080.7724    -0.063455901
       7081.8348    -0.094852250
       7082.8971     0.033907454
       7083.9594     0.075799963
       7085.0217    -0.087763523
       7086.0841     -0.11864479
       7087.1464     0.037234577
       7088.2087     0.031642700
       7089.2710    -0.038725312
       7090.3334    -0.016178627
       7091.3957    0.0072484770
       7092.4580   -0.0069796878
       7093.5203    -0.081454593
       7094.5826     0.040668485
       7095.6450     0.072588717
       7096.7073     0.024454340
       7097.7696     0.020643609
       7098.8319      0.11464924
       7099.8943      0.14022436
       7100.9566     0.092762034
       7102.0189     0.059235149
       7103.0812    -0.048995636
       7104.1436     0.025552622
       7105.2059    -0.056175088
       7106.2682    -0.051401339
       7107.3305    -0.039519753
       7108.3929    -0.026724269
       7109.4552    -0.081267417
       7110.5175    0.0037465611
       7111.5798     0.064140309
       7112.6421      0.10517811
       7113.7045     0.041298217
       7114.7668     0.026426651
       7115.8291   -0.0041961117
       7116.8914     0.077867913
       7117.9538     0.044002232
       7119.0161     0.024604223
       7120.0784     0.025621431
       7121.1407     0.029162584
       7122.2031    0.0082431692
       7123.2654     0.019652867
       7124.3277     0.091377275
       7125.3900   -0.0043098838
       7126.4524     0.030506815
       7127.5147     0.028549131
       7128.5770     0.087123334
       7129.6393    0.0074789674
       7130.7017     0.010342165
       7131.7640     0.058644672
       7132.8263   -0.0013938364
       7133.8886    -0.048992014
       7134.9509     0.037371989
       7136.0133     -0.10977724
       7137.0756    -0.032608112
       7138.1379     0.048804728
       7139.2002      0.10069049
       7140.2626     0.088644381
       7141.3249      0.12288813
       7142.3872      0.14635208
       7143.4495     0.074757794
       7144.5119    -0.013566597
       7145.5742     0.016162737
       7146.6365     0.049965275
       7147.6988    -0.013946768
       7148.7612     0.068585055
       7149.8235     0.095704823
       7150.8858     0.054362611
       7151.9481     0.075469203
       7153.0104   -0.0076057966
       7154.0728     0.095372050
       7155.1351     0.071521318
       7156.1974     0.032460399
       7157.2597     0.071802559
       7158.3221    -0.022507945
       7159.3844     0.081122715
       7160.4467     0.085622424
       7161.5090      0.13394503
       7162.5714    -0.014663879
       7163.6337      0.13478722
       7164.6960     0.069239729
       7165.7583     0.022222456
       7166.8207    -0.051132546
       7167.8830    -0.077543707
       7168.9453     0.010226746
       7170.0076   -0.0020899397
       7171.0700    0.0042507848
       7172.1323  -0.00057876131
       7173.1946     0.070857364
       7174.2569     0.021868351
       7175.3192    0.0057696436
       7176.3816    -0.018587253
       7177.4439     0.017664411
       7178.5062     0.083293716
       7179.5685     0.036628547
       7180.6309    -0.021544386
       7181.6932     0.048129572
       7182.7555      0.13113089
       7183.8178     0.018798944
       7184.8802    -0.017524804
       7185.9425   4.4091742e-05
       7187.0048     0.061275466
       7188.0671     0.014479870
       7189.1295    -0.021532752
       7190.1918    0.0024039080
       7191.2541     0.048051890
       7192.3164     0.050623579
       7193.3787   -0.0026105807
       7194.4411     0.036492895
       7195.5034     0.044131015
       7196.5657     0.020042655
       7197.6280     0.061982305
       7198.6904     0.056481166
       7199.7527     0.065188956
       7200.8150    -0.013590452
       7201.8773     0.042840733
       7202.9397     0.083701104
       7204.0020     0.059454354
       7205.0643     0.031372198
       7206.1266     0.058574338
       7207.1890     0.051827720
       7208.2513      0.10907092
       7209.3136     0.039255796
       7210.3759     0.051522825
       7211.4382   -0.0085874393
       7212.5006   -0.0026938674
       7213.5629     0.051095538
       7214.6252      0.13430867
       7215.6875      0.10854633
       7216.7499     0.035337909
       7217.8122     0.075976141
       7218.8745    -0.016290110
       7219.9368     0.046567677
       7220.9992    0.0058688045
       7222.0615     0.026769527
       7223.1238     0.067734039
       7224.1861     0.022184351
       7225.2485     0.042152047
       7226.3108    -0.015291971
       7227.3731    -0.014459064
       7228.4354    -0.028134195
       7229.4978     0.046244763
       7230.5601    0.0059507224
       7231.6224    0.0042368628
       7232.6847     0.046581844
       7233.7470     0.065540503
       7234.8094     0.057648475
       7235.8717     0.023210553
       7236.9340    0.0055945919
       7237.9963     0.059361892
       7239.0587     0.084232460
       7240.1210      0.10004422
       7241.1833     0.077591322
       7242.2456    -0.022205327
       7243.3080     0.042302876
       7244.3703     0.056693305
       7245.4326     0.075819220
       7246.4949     0.069305882
       7247.5573     0.026051170
       7248.6196     0.010121539
       7249.6819     0.026968115
       7250.7442    -0.041526098
       7251.8065     0.024510523
       7252.8689     0.068026456
       7253.9312     0.034207102
       7254.9935     0.076500307
       7256.0558     0.053536836
       7257.1182     0.022288935
       7258.1805     0.051123210
       7259.2428     0.087998726
       7260.3051     0.039492316
       7261.3675   -0.0080974807
       7262.4298     0.026624920
       7263.4921     0.055330245
       7264.5544    -0.015649785
       7265.6168    0.0019079822
       7266.6791    -0.065832566
       7267.7414     0.014123695
       7268.8037    -0.018975042
       7269.8660     0.048450590
       7270.9284     0.097356259
       7271.9907     0.073628180
       7273.0530      0.14471181
       7274.1153      0.17580265
       7275.1777     0.079650944
       7276.2400     0.069595724
       7277.3023     0.013354717
       7278.3646     0.055721607
       7279.4270     0.014555496
       7280.4893     0.073566980
       7281.5516     0.029153022
       7282.6139   -0.0078923615
       7283.6763     0.039551903
       7284.7386     0.061250143
       7285.8009    -0.023702224
       7286.8632    0.0090090511
       7287.9256     0.022367808
       7288.9879    -0.069653693
       7290.0502     0.026851750
       7291.1125     0.059189907
       7292.1748    -0.011691521
       7293.2372    0.0034467962
       7294.2995    -0.028401187
       7295.3618     0.019967841
       7296.4241     0.053514743
       7297.4865     0.039059157
       7298.5488     0.022452010
       7299.6111   -0.0044358848
       7300.6734    -0.044555040
       7301.7358     0.030913329
       7302.7981     0.030808487
       7303.8604   -0.0088492696
       7304.9227    0.0076900082
       7305.9851     0.028981431
       7307.0474     0.052106572
       7308.1097    0.0027602628
       7309.1720     0.024106096
       7310.2343     0.054117816
       7311.2967    0.0038837783
       7312.3590     0.019617104
       7313.4213     0.027213162
       7314.4836     0.030190981
       7315.5460     0.048827879
       7316.6083     0.025176164
       7317.6706     0.090672953
       7318.7329     0.091769625
       7319.7953     0.080911909
       7320.8576    0.0091398350
       7321.9199     0.039283592
       7322.9822     0.031210490
       7324.0446    0.0010573242
       7325.1069    -0.034354815
       7326.1692     0.053127843
       7327.2315      0.11033743
       7328.2939     0.081316848
       7329.3562     0.092103221
       7330.4185      0.13260291
       7331.4808      0.12582654
       7332.5431      0.10029070
       7333.6055     0.092274408
       7334.6678     0.032376884
       7335.7301     0.081455623
       7336.7924      0.10421915
       7337.8548    0.0070674300
       7338.9171     0.021576606
       7339.9794    0.0056593103
       7341.0417     0.016655610
       7342.1041     0.016725964
       7343.1664     0.026276965
       7344.2287    -0.055719358
       7345.2910    -0.019432157
       7346.3534   -0.0062090136
       7347.4157     0.099454359
       7348.4780    -0.016952827
       7349.5403     0.015771212
       7350.6026    -0.065240427
       7351.6650     0.038508948
       7352.7273     0.019139894
       7353.7896    0.0081398610
       7354.8519    0.0055813856
       7355.9143    0.0098073261
       7356.9766    -0.028215242
       7358.0389     0.092093839
       7359.1012      0.10288154
       7360.1636      0.10916380
       7361.2259   -0.0016574395
       7362.2882     -0.13255545
       7363.3505    0.0034818931
       7364.4129     0.033573754
       7365.4752      0.14056415
       7366.5375      0.21901198
       7367.5998      0.19103253
       7368.6621     0.024048259
       7369.7245     0.066638926
       7370.7868   -0.0031924705
       7371.8491     0.085160763
       7372.9114      0.10630348
       7373.9738     0.033267311
       7375.0361     0.021953263
       7376.0984     0.096165204
       7377.1607     -0.16165413
       7378.2231     -0.20147563
       7379.2854    -0.038002212
       7380.3477    0.0048737250
       7381.4100    0.0090446491
       7382.4724     0.016761130
       7383.5347     0.027084560
       7384.5970     0.090497363
       7385.6593     0.040934892
       7386.7217     0.095429389
       7387.7840    0.0071823299
       7388.8463     0.025082121
       7389.9086     0.053649486
       7390.9709    -0.043802415
       7392.0333     0.064296734
       7393.0956      0.16515388
       7394.1579      0.10755248
       7395.2202     0.060932184
       7396.2826     0.073483298
       7397.3449     0.022492768
       7398.4072     0.036877742
       7399.4695    0.0057566510
       7400.5319     0.037333214
       7401.5942     0.055100474
       7402.6565     0.033409094
       7403.7188     0.021520795
       7404.7812     0.013400921
       7405.8435     0.043106032
       7406.9058     0.023676456
       7407.9681     0.054955190
       7409.0304    -0.021054115
       7410.0928     0.031591661
       7411.1551     0.051964460
       7412.2174    0.0043412974
       7413.2797    -0.021782278
       7414.3421    -0.025203459
       7415.4044    -0.089715458
       7416.4667    -0.040401646
       7417.5290    -0.063273214
       7418.5914     -0.11501879
       7419.6537     0.053033401
       7420.7160     0.090465689
       7421.7783      0.18421729
       7422.8407      0.19751509
       7423.9030      0.24186228
       7424.9653      0.10748127
       7426.0276     0.032797264
       7427.0900     0.053982929
       7428.1523     0.024618770
       7429.2146   -0.0096472808
       7430.2769     0.085762882
       7431.3392      0.10155956
       7432.4016    0.0044735218
       7433.4639    -0.035583009
       7434.5262    -0.058990135
       7435.5885    -0.014890386
       7436.6509    -0.011687503
       7437.7132     0.028944406
       7438.7755     0.081024026
       7439.8378     0.044087481
       7440.9002     0.084671932
       7441.9625     0.072688755
       7443.0248    0.0061083570
       7444.0871   -0.0090572342
       7445.1495     0.053421460
       7446.2118     0.065169525
       7447.2741     0.068229702
       7448.3364      0.10282331
       7449.3987     0.026060144
       7450.4611    -0.015421841
       7451.5234     0.014136603
       7452.5857      0.13436971
       7453.6480      0.11653045
       7454.7104     0.068626487
       7455.7727      0.13538898
       7456.8350     0.086679987
       7457.8973     0.082172460
       7458.9597     0.076833108
       7460.0220    -0.026671367
       7461.0843    0.0016820214
       7462.1466    -0.019368501
       7463.2090     0.037743320
       7464.2713     -0.21305963
       7465.3336     -0.14539564
       7466.3959    -0.081843301
       7467.4582    -0.011986341
       7468.5206     0.047573955
       7469.5829      0.19306921
       7470.6452      0.35355999
       7471.7075      0.12488777
       7472.7699     0.082558572
       7473.8322     0.069873644
       7474.8945    -0.038383096
       7475.9568     0.022684642
       7477.0192     0.039639140
       7478.0815    -0.044792955
       7479.1438    -0.030985021
       7480.2061    -0.032271507
       7481.2685    -0.060087321
       7482.3308    0.0015106995
       7483.3931     0.036901178
       7484.4554    -0.011054936
       7485.5178     0.092547511
       7486.5801     0.057970474
       7487.6424      0.10540911
       7488.7047     0.078102408
       7489.7670     0.022241876
       7490.8294     0.062135994
       7491.8917      0.10731344
       7492.9540     0.072106302
       7494.0163    -0.082806188
       7495.0787     0.048139758
       7496.1410      0.18974621
       7497.2033      0.14976933
       7498.2656      0.14324136
       7499.3280     0.095727120
       7500.3903    -0.039005901
       7501.4526     0.031516905
       7502.5149     0.010519403
       7503.5773     0.056981599
       7504.6396     0.048500041
       7505.7019    -0.010296514
       7506.7642    0.0070177479
       7507.8265   -0.0096027562
       7508.8889     0.029229898
       7509.9512    -0.060327448
       7511.0135    -0.060213615
       7512.0758    -0.035522500
       7513.1382      0.15062537
       7514.2005    -0.032580710
       7515.2628     0.088855372
       7516.3251     0.070031556
       7517.3875     0.073822225
       7518.4498     0.085912111
       7519.5121     0.024979101
       7520.5744     0.057300819
       7521.6368    -0.080879960
       7522.6991    -0.020150746
       7523.7614    -0.060552132
       7524.8237     0.035991255
       7525.8861      0.15157641
       7526.9484      0.11446817
       7528.0107      0.21430977
       7529.0730     0.095241503
       7530.1353      0.12385931
       7531.1977     0.043458550
       7532.2600     0.049165819
       7533.3223     0.056780397
       7534.3846     0.064062902
       7535.4470     0.048789881
       7536.5093      0.15692433
       7537.5716    -0.042012917
       7538.6339     0.032200561
       7539.6963     0.015000446
       7540.7586    -0.057128133
       7541.8209    -0.022060728
       7542.8832     0.026080512
       7543.9456      0.13909115
       7545.0079   -0.0049924151
       7546.0702    -0.024440595
       7547.1325     0.010452884
       7548.1948     0.039507016
       7549.2572     0.073261601
       7550.3195     0.042723286
       7551.3818   -0.0037344649
       7552.4441     0.042685837
       7553.5065    -0.020690044
       7554.5688     0.039029651
       7555.6311     0.075547090
       7556.6934      0.10726431
       7557.7558     0.020990433
       7558.8181     -0.10465238
       7559.8804      0.17900800
       7560.9427     0.047506575
       7562.0051    -0.033649850
       7563.0674    -0.016883812
       7564.1297      0.12793800
       7565.1920     0.059162917
       7566.2543     0.040898791
       7567.3167    0.0034188448
       7568.3790    -0.021100222
       7569.4413     0.026884849
       7570.5036     0.029241360
       7571.5660   -0.0011422475
       7572.6283     0.032165097
       7573.6906     0.080682560
       7574.7529     0.079759556
       7575.8153     0.041469876
       7576.8776     0.022232732
       7577.9399     0.047324450
       7579.0022   -0.0063618104
       7580.0646     0.039542096
       7581.1269     0.038001431
       7582.1892     0.074477280
       7583.2515    0.0061668799
       7584.3139     0.055156906
       7585.3762     0.053042220
       7586.4385     0.051684532
       7587.5008   -0.0066074416
       7588.5631    0.0051765465
       7589.6255     0.024760987
       7590.6878     0.025273236
       7591.7501     0.065611541
       7592.8124     0.074701756
       7593.8748     0.035354713
       7594.9371     0.041864316
       7595.9994    -0.041480937
       7597.0617    -0.031900366
       7598.1241     0.019566753
       7599.1864    -0.014995882
       7600.2487     0.028861832
       7601.3110     0.040266417
       7602.3734     0.052229367
       7603.4357     0.044206605
       7604.4980     0.066806144
       7605.5603    -0.022293617
       7606.6226    -0.014064612
       7607.6850     0.014111975
       7608.7473     0.059985154
       7609.8096     0.038557080
       7610.8719     0.033832083
       7611.9343    -0.014901193
       7612.9966    0.0082197601
       7614.0589     0.022740128
       7615.1212     0.048006852
       7616.1836     0.027314894
       7617.2459     0.022226662
       7618.3082     0.040187840
       7619.3705     0.069503916
       7620.4329      0.10400784
       7621.4952     0.038571464
       7622.5575     0.099653818
       7623.6198     0.087440650
       7624.6821     0.069028787
       7625.7445      0.12432880
       7626.8068     0.046434211
       7627.8691    -0.020470912
       7628.9314   0.00074879072
       7629.9938     0.037665174
       7631.0561     0.033049752
       7632.1184    -0.035876836
       7633.1807     0.050014839
       7634.2431     0.086358010
       7635.3054     0.021039094
       7636.3677     0.054242847
       7637.4300     0.011778235
       7638.4924     0.064153654
       7639.5547     0.029925377
       7640.6170    0.0068384651
       7641.6793    0.0080443935
       7642.7417     0.067593749
       7643.8040     0.063069949
       7644.8663     0.058117695
       7645.9286      0.13270310
       7646.9909    -0.019962069
       7648.0533     0.050018883
       7649.1156     0.041427164
       7650.1779   -0.0074094994
       7651.2402    -0.035570995
       7652.3026     0.033158435
       7653.3649     0.033211221
       7654.4272     0.022065340
       7655.4895     -0.11193335
       7656.5519   -0.0022152474
       7657.6142     0.057048288
       7658.6765     0.085059206
       7659.7388    -0.035980220
       7660.8012    -0.011591270
       7661.8635     0.042248900
       7662.9258     0.088408705
       7663.9881   -0.0061280076
       7665.0504    -0.010889207
       7666.1128    -0.080122527
       7667.1751     0.021017485
       7668.2374      0.11808687
       7669.2997      0.19816478
       7670.3621     0.013182380
       7671.4244     0.030285225
       7672.4867    -0.018940947
       7673.5490     0.028138866
       7674.6114    -0.063114264
       7675.6737      0.11493109
       7676.7360     0.017755733
       7677.7983    -0.055002963
       7678.8607     0.044826438
       7679.9230    0.0016302539
       7680.9853    -0.011866951
       7682.0476     0.050073517
       7683.1100    0.0059714706
       7684.1723     0.076639531
       7685.2346     0.024621142
       7686.2969     -0.13507813
       7687.3592      0.12944464
       7688.4216     0.080009349
       7689.4839     0.084986869
       7690.5462     0.019805843
       7691.6085    -0.097938962
       7692.6709     0.020586898
       7693.7332     -0.21412082
       7694.7955     -0.26004864
       7695.8578     -0.17115953
       7696.9202   -0.0076253098
       7697.9825     -0.11906603
       7699.0448    -0.067873221
       7700.1071     0.022597016
       7701.1695     -0.11515689
       7702.2318    -0.071480485
       7703.2941      0.10394238
       7704.3564     0.035440319
       7705.4187     0.080329753
       7706.4811     0.049569343
       7707.5434      0.23881357
       7708.6057      0.33176752
       7709.6680      0.29581361
       7710.7304      0.32022406
       7711.7927      0.33516327
       7712.8550      0.33624990
       7713.9173      0.34918790
       7714.9797      0.24282738
       7716.0420      0.11456342
       7717.1043    -0.038151687
       7718.1666     0.010028833
       7719.2290     0.078835209
       7720.2913      0.11643273
       7721.3536    -0.029168397
       7722.4159    -0.065856881
       7723.4782     0.085736367
       7724.5406      0.10428694
       7725.6029     0.091868123
       7726.6652     0.054280165
       7727.7275     0.027773405
       7728.7899    -0.014413417
       7729.8522   -0.0045803360
       7730.9145    -0.029400013
       7731.9768   -0.0078997858
       7733.0392     0.040389526
       7734.1015     0.093495673
       7735.1638    -0.012729613
       7736.2261     0.066097624
       7737.2885    -0.031010117
       7738.3508     0.030341456
       7739.4131     0.032947228
       7740.4754     0.033498219
       7741.5378     0.068895005
       7742.6001      0.10780256
       7743.6624     0.023645320
       7744.7247     0.043276764
       7745.7870     0.031130681
       7746.8494     0.093372581
       7747.9117     0.044541826
       7748.9740     0.059061793
       7750.0363     0.068624202
       7751.0987     0.020036453
       7752.1610     0.077680367
       7753.2233     0.010237982
       7754.2856     0.048738902
       7755.3480    0.0064428896
       7756.4103    -0.059403757
       7757.4726    -0.017385383
       7758.5349    -0.093781718
       7759.5973    -0.023346554
       7760.6596    0.0061111039
       7761.7219     0.051454570
       7762.7842    -0.012405236
       7763.8465    -0.020492682
       7764.9089    -0.020309722
       7765.9712      0.11223821
       7767.0335    0.0027336173
       7768.0958     0.015364547
       7769.1582     0.056708914
       7770.2205     0.079613921
       7771.2828     0.097935529
       7772.3451     0.045028864
       7773.4075     0.077077104
       7774.4698     0.043902493
       7775.5321    0.0061456213
       7776.5944    0.0036027996
       7777.6568      0.13283048
       7778.7191     0.054683703
       7779.7814     0.098070957
       7780.8437     0.085686996
       7781.9061   -0.0011770724
       7782.9684     0.030851301
       7784.0307    0.0034422063
       7785.0930    -0.012203804
       7786.1553     0.023418743
       7787.2177    -0.067915027
       7788.2800    -0.017084835
       7789.3423     0.051317452
       7790.4046      0.17826643
       7791.4670      0.11818075
       7792.5293     0.012385066
       7793.5916      0.10420986
       7794.6539     0.075616145
       7795.7163   -0.0034655230
       7796.7786     0.024017661
       7797.8409    -0.039143702
       7798.9032     0.024565185
       7799.9656     -0.12105630
       7801.0279     -0.14601364
       7802.0902    -0.067654670
       7803.1525      0.19629832
       7804.2148     0.069015590
       7805.2772      0.22570828
       7806.3395     0.039174006
       7807.4018     0.055361563
       7808.4641     0.047558107
       7809.5265     0.058878246
       7810.5888     0.043626956
       7811.6511    -0.081610799
       7812.7134    0.0057745594
       7813.7758     0.026522023
       7814.8381   -0.0015670046
       7815.9004     0.011562788
       7816.9627     0.097290694
       7818.0251     0.030723638
       7819.0874     0.038590760
       7820.1497     0.015085843
       7821.2120     0.022612720
       7822.2743    -0.026248993
       7823.3367     0.062688831
       7824.3990     0.056244721
       7825.4613    -0.022815627
       7826.5236    -0.023259248
       7827.5860    -0.017571987
       7828.6483     0.024264587
       7829.7106     0.028203397
       7830.7729    -0.075059888
       7831.8353    0.0089542411
       7832.8976     0.053129922
       7833.9599     0.032269780
       7835.0222    -0.065453607
       7836.0846  -0.00017120952
       7837.1469     0.025861102
       7838.2092     0.042901793
       7839.2715   0.00018237815
       7840.3339    -0.022543626
       7841.3962     -0.13006622
       7842.4585     -0.22472650
       7843.5208    -0.011861767
       7844.5831    -0.084614833
       7845.6455     -0.39885068
       7846.7078      0.17629077
       7847.7701      0.87794335
       7848.8324      0.29831733
       7849.8948      0.33826706
       7850.9571    -0.094708311
       7852.0194     -0.11604063
       7853.0817      0.10162007
       7854.1441     0.031082200
       7855.2064      0.11013680
       7856.2687      0.24214431
       7857.3310      0.11335178
       7858.3934     0.091583112
       7859.4557     0.071245937
       7860.5180    -0.025433267
       7861.5803     0.017909436
       7862.6426   -0.0085922169
       7863.7050     0.021378681
       7864.7673    -0.070637544
       7865.8296     0.035818947
       7866.8919     0.046341428
       7867.9543     0.090863262
       7869.0166      0.11174672
       7870.0789     0.085170757
       7871.1412    0.0094652184
       7872.2036    -0.011970252
       7873.2659     0.038215052
       7874.3282     0.063512222
       7875.3905     0.051556220
       7876.4529     0.090243670
       7877.5152     0.017099408
       7878.5775    0.0036703573
       7879.6398     0.027797686
       7880.7022    0.0032971788
       7881.7645    -0.015814979
       7882.8268    -0.077142670
       7883.8891      0.16078538
       7884.9514      0.13371261
       7886.0138    -0.020930892
       7887.0761    -0.039676046
       7888.1384     0.059323317
       7889.2007     0.036610766
       7890.2631    0.0056166425
       7891.3254     0.023465363
       7892.3877     0.046538833
       7893.4500     0.098504177
       7894.5124     -0.16005354
       7895.5747     0.046600786
       7896.6370     0.076244635
       7897.6993     0.018621088
       7898.7617    -0.078518140
       7899.8240      0.28438641
       7900.8863      0.22069029
       7901.9486      0.10671304
       7903.0109   -0.0077802176
       7904.0733     0.044517709
       7905.1356    -0.022539183
       7906.1979     0.037321879
       7907.2602     0.019124588
       7908.3226     0.091143672
       7909.3849      0.14819840
       7910.4472     -0.13231311
       7911.5095    0.0017402422
       7912.5719    -0.082428746
       7913.6342     -0.10544492
       7914.6965     0.080546256
       7915.7588     0.053376061
       7916.8212     0.063873717
       7917.8835     0.034258833
       7918.9458     0.085949889
       7920.0081     0.037458558
       7921.0704     0.028907473
       7922.1328     0.022250594
       7923.1951     -0.19301431
       7924.2574     -0.33748035
       7925.3197     -0.17284671
       7926.3821     -0.21658491
       7927.4444     0.024368250
       7928.5067     -0.13117730
       7929.5690      0.32320365
       7930.6314      0.35616270
       7931.6937     0.058594935
       7932.7560     0.056595608
       7933.8183   -0.0058511672
       7934.8807     0.033449999
       7935.9430     0.055341333
       7937.0053     0.078004235
       7938.0676     0.047269393
       7939.1300     0.033797210
       7940.1923     0.054797811
       7941.2546      0.12301989
       7942.3169     0.018120831
       7943.3792     0.071870553
       7944.4416     -0.13761306
       7945.5039    -0.077385071
       7946.5662     0.047706440
       7947.6285     0.018670629
       7948.6909     0.025646043
       7949.7532     0.043774510
       7950.8155      0.15211351
       7951.8778     0.081485281
       7952.9402     0.012461364
       7954.0025    -0.014540806
       7955.0648     0.030833044
       7956.1271     0.084193078
       7957.1895     -0.13009157
       7958.2518    -0.013978421
       7959.3141     -0.12507118
       7960.3764     -0.36082121
       7961.4387     -0.19930313
       7962.5011     0.031220842
       7963.5634      0.27591512
       7964.6257      0.27168847
       7965.6880      0.15130865
       7966.7504     0.041848292
       7967.8127    -0.017307105
       7968.8750     0.048298661
       7969.9373     0.070892479
       7970.9997     0.039408153
       7972.0620    -0.033110753
       7973.1243    -0.062290240
       7974.1866    -0.057027003
       7975.2490     0.037426915
       7976.3113     0.040422676
       7977.3736     0.060049778
       7978.4359     0.051120477
       7979.4982     0.064186215
       7980.5606     0.025111217
       7981.6229     0.059518266
       7982.6852     0.083903401
       7983.7475     0.035355067
       7984.8099     0.016421102
       7985.8722    0.0029222101
       7986.9345    -0.013093525
       7987.9968    -0.046980725
       7989.0592    -0.069077216
       7990.1215     0.029670479
       7991.1838     0.053409193
       7992.2461     0.093322864
       7993.3085     0.023643843
       7994.3708     0.044819846
       7995.4331    -0.040558120
       7996.4954     0.078395501
       7997.5578     -0.24117874
       7998.6201     -0.23402060
       7999.6824    -0.067879700
       8000.7447    -0.030793608
       8001.8070      0.16243244
       8002.8694     0.051858712
       8003.9317   -0.0051709852
       8004.9940     0.017630649
       8006.0563     0.055308385
       8007.1187     0.031467510
       8008.1810     0.041521111
       8009.2433     0.032296899
       8010.3056   -0.0055108188
       8011.3680   -0.0022977093
       8012.4303    -0.056953597
       8013.4926     0.060112486
       8014.5549    0.0077817108
       8015.6173    -0.031144894
       8016.6796     0.012814906
       8017.7419     0.097682262
       8018.8042     0.094160598
       8019.8665     0.038882488
       8020.9289     0.023916110
       8021.9912     0.083070428
       8023.0535     0.051320821
       8024.1158     0.087717830
       8025.1782   -0.0053708824
       8026.2405     0.031781958
       8027.3028     0.038832415
       8028.3651    -0.075275382
       8029.4275     0.094594158
       8030.4898     0.099562627
       8031.5521     0.056904463
       8032.6144      0.11763588
       8033.6768      0.11986302
       8034.7391     0.092078401
       8035.8014      0.12521965
       8036.8637     0.038262604
       8037.9261    0.0057572296
       8038.9884     0.022801346
       8040.0507     0.034285874
       8041.1130    -0.017453705
       8042.1753    -0.041161162
       8043.2377     0.050171709
       8044.3000     0.091622065
       8045.3623     0.046166225
       8046.4246     0.053281722
       8047.4870     0.058600665
       8048.5493    -0.051729739
       8049.6116     0.037781508
       8050.6739     0.056193610
       8051.7363     0.090062809
       8052.7986     0.074625590
       8053.8609    0.0078950766
       8054.9232      0.10387953
       8055.9856     0.043535873
       8057.0479     0.076310478
       8058.1102     0.066961384
       8059.1725  -0.00065235085
       8060.2348     0.020013548
       8061.2972     0.017186653
       8062.3595     0.052770785
       8063.4218     0.022868210
       8064.4841     0.092277513
       8065.5465    -0.010434717
       8066.6088    0.0096680064
       8067.6711     0.025415747
       8068.7334    0.0017596760
       8069.7958     0.013462415
       8070.8581    -0.026663202
       8071.9204    -0.020293778
       8072.9827    -0.016185158
       8074.0451     0.028649702
       8075.1074    0.0054856972
       8076.1697    0.0052761335
       8077.2320    -0.071483530
       8078.2943     0.056057284
       8079.3567     0.012868285
       8080.4190    0.0026566099
       8081.4813     0.023833922
       8082.5436     0.032589568
       8083.6060     0.063457779
       8084.6683     0.028412491
       8085.7306     0.061043695
       8086.7929    -0.081347771
       8087.8553    -0.015803532
       8088.9176    -0.018014215
       8089.9799     0.042849187
       8091.0422      0.10051704
       8092.1046     0.057367384
       8093.1669    -0.046053343
       8094.2292      0.17663543
       8095.2915     0.057642060
       8096.3539    -0.018989870
       8097.4162     0.011173704
       8098.4785     0.012463009
       8099.5408     0.053154327
       8100.6031     0.038777436
       8101.6655     0.010597220
       8102.7278     0.052309893
       8103.7901    -0.019395306
       8104.8524    -0.025079152
       8105.9148     0.070808172
       8106.9771     0.047124169
       8108.0394     0.053611528
       8109.1017     0.015934470
       8110.1641     0.052547897
       8111.2264     0.015942725
       8112.2887     0.017502190
       8113.3510     0.026713812
       8114.4134    -0.026623487
       8115.4757     0.040795086
       8116.5380     0.018843418
       8117.6003    0.0057820665
       8118.6626     0.072781688
       8119.7250     0.029904953
       8120.7873     0.061170094
       8121.8496    0.0083820944
       8122.9119     0.022148082
       8123.9743     0.019931453
       8125.0366     0.081882470
       8126.0989     0.048216631
       8127.1612   -0.0035556670
       8128.2236     0.054855429
       8129.2859    0.0014382980
       8130.3482     0.024199951
       8131.4105     0.042868453
       8132.4729     0.020148259
       8133.5352    -0.061499909
       8134.5975     0.085586696
       8135.6598     0.046132758
       8136.7222   -0.0060816485
       8137.7845     0.011598414
       8138.8468     0.033236208
       8139.9091    -0.014224450
       8140.9714     0.022039411
       8142.0338   0.00099687895
       8143.0961      0.12094856
       8144.1584      0.10164555
       8145.2207     0.071167113
       8146.2831    -0.046446951
       8147.3454     0.038899476
       8148.4077   -0.0027565805
       8149.4700    0.0047210501
       8150.5324    -0.023268201
       8151.5947   -0.0070277747
       8152.6570     0.024122498
       8153.7193     0.037157523
       8154.7817     0.045546784
       8155.8440    0.0031431417
       8156.9063    -0.017101238
       8157.9686     0.076061063
       8159.0309     0.053295580
       8160.0933     0.072138350
       8161.1556    -0.036842354
       8162.2179    -0.032650845
       8163.2802     0.014077872
       8164.3426     0.032225973
       8165.4049     0.014439200
       8166.4672     0.051731354
       8167.5295    -0.036688909
       8168.5919     0.064164926
       8169.6542     0.070563780
       8170.7165     0.061812469
       8171.7788    -0.048907905
       8172.8412     0.031080283
       8173.9035     0.039903310
       8174.9658     0.033393980
       8176.0281   -0.0062829931
       8177.0904     0.033222118
       8178.1528     0.025040268
       8179.2151     0.024273458
       8180.2774     0.067896799
       8181.3397      0.12700679
       8182.4021   -0.0065728294
       8183.4644    0.0084834801
       8184.5267     0.088631285
       8185.5890      0.16332650
       8186.6514     0.017040362
       8187.7137     0.019420756
       8188.7760      0.12155445
       8189.8383     0.045318212
       8190.9007     0.067722641
       8191.9630     0.096007715
       8193.0253      0.15711690
       8194.0876      0.11138378
       8195.1500     0.083928801
       8196.2123      0.10440931
       8197.2746     0.075394096
       8198.3369     0.058295434
       8199.3992      0.16209543
       8200.4616     0.072347355
       8201.5239     0.053403303
       8202.5862     0.056189481
       8203.6485    0.0031483775
       8204.7109     0.039300070
       8205.7732     0.039561716
       8206.8355     0.029958445
       8207.8978     0.072754551
       8208.9602     0.082482189
       8210.0225     0.011131641
       8211.0848   -0.0023275111
       8212.1471     0.056860222
       8213.2095     0.034018827
       8214.2718     0.053517595
       8215.3341     0.030148813
       8216.3964     0.069187368
       8217.4587     0.060765289
       8218.5211     0.036562991
       8219.5834     0.076015685
       8220.6457    0.0074687049
       8221.7080     0.022927718
       8222.7704     0.025386906
       8223.8327    -0.036088041
       8224.8950   -0.0055285951
       8225.9573     0.024908256
       8227.0197     0.032551627
       8228.0820     0.044587739
       8229.1443     0.044235003
       8230.2066    0.0010419303
       8231.2690     0.088068238
       8232.3313     0.041811761
       8233.3936    -0.048392773
       8234.4559    0.0056478274
       8235.5183     0.012688402
       8236.5806    -0.035636647
       8237.6429    -0.036046194
       8238.7052     0.041056033
       8239.7675   -0.0055244277
       8240.8299     0.033834702
       8241.8922     0.051673983
       8242.9545     0.078927848
       8244.0168     0.035471651
       8245.0792     0.065774285
       8246.1415     0.043489451
       8247.2038     0.081121731
       8248.2661    -0.018767577
       8249.3285     0.040993214
       8250.3908    -0.023353353
       8251.4531   -0.0043134566
       8252.5154     0.037827577
       8253.5778     0.035710568
       8254.6401     0.080499076
       8255.7024     0.047567241
       8256.7647   -0.0027135641
       8257.8270     0.035035018
       8258.8894    0.0091883296
       8259.9517    -0.012835205
       8261.0140     0.053516226
       8262.0763     0.063697353
       8263.1387     0.053326661
       8264.2010     0.014469919
       8265.2633     0.052429164
       8266.3256   -0.0060233272
       8267.3880     0.058416621
       8268.4503     -0.37662406
       8269.5126     -0.33505546
       8270.5749     0.077567748
       8271.6373      0.31731969
       8272.6996      0.59819773
       8273.7619     0.053538720
       8274.8242     -0.11761973
       8275.8865     -0.21468178
       8276.9489    0.0037982561
       8278.0112      0.98839278
       8279.0735      0.41574494
       8280.1358    -0.045172621
       8281.1982      0.11364027
       8282.2605    -0.061738025
       8283.3228    -0.042103688
       8284.3851     -0.15446599
       8285.4475     -0.26308068
       8286.5098      0.43925875
       8287.5721      0.42363112
       8288.6344      0.19588614
       8289.6968    -0.025258638
       8290.7591     0.011313086
       8291.8214     0.011461499
       8292.8837   -0.0038691861
       8293.9461     0.062904161
       8295.0084     0.062343175
       8296.0707    -0.057662812
       8297.1330     0.013050497
       8298.1953    -0.059007594
       8299.2577    -0.050946403
       8300.3200     0.089216298
       8301.3823     0.089063801
       8302.4446    -0.061056594
       8303.5070     0.021585258
       8304.5693      0.14040563
       8305.6316      0.11838728
       8306.6939     0.074347311
       8307.7563    -0.041394845
       8308.8186     0.027743986
       8309.8809     0.087225991
       8310.9432      0.14118918
       8312.0056      0.11553116
       8313.0679    -0.030449945
       8314.1302     0.027605370
       8315.1925     0.021404614
       8316.2548     0.069974812
       8317.3172     0.069663936
       8318.3795   -0.0060133296
       8319.4418     0.046881254
       8320.5041     0.011586625
       8321.5665    -0.029898543
       8322.6288     0.018842438
       8323.6911    0.0013552795
       8324.7534     0.038472552
       8325.8158      0.12053357
       8326.8781     0.060205258
       8327.9404     -0.25067327
       8329.0027     -0.51889681
       8330.0651     -0.31928402
       8331.1274     -0.35196199
       8332.1897      0.25915387
       8333.2520       1.0501779
       8334.3143      0.61109625
       8335.3767      0.19203548
       8336.4390     0.054147833
       8337.5013    -0.034874161
       8338.5636     0.085067993
       8339.6260     0.099083642
       8340.6883     0.026484957
       8341.7506    -0.017932740
       8342.8129      0.11657137
       8343.8753     0.093363586
       8344.9376     0.049802418
       8345.9999     0.056758498
       8347.0622     0.011593649
       8348.1246   -0.0027214476
       8349.1869     0.030723603
       8350.2492    -0.092478115
       8351.3115    -0.044438582
       8352.3739    -0.043343370
       8353.4362     0.096053866
       8354.4985      0.10809116
       8355.5608      0.13560865
       8356.6231      0.17860395
       8357.6855     0.081955073
       8358.7478     0.056664675
       8359.8101    -0.027875041
       8360.8724   -0.0079211891
       8361.9348     0.020481756
       8362.9971     0.047378455
       8364.0594   -0.0034126112
       8365.1217    -0.048443787
       8366.1841    -0.031935993
       8367.2464     0.082763483
       8368.3087     0.056542351
       8369.3710    -0.069277073
       8370.4334     -0.10184693
       8371.4957      0.15353160
       8372.5580      0.17142241
       8373.6203      0.12716977
       8374.6826     0.018738167
       8375.7450    -0.028796373
       8376.8073    -0.014166579
       8377.8696     0.043547232
       8378.9319     0.085669961
       8379.9943     0.087912787
       8381.0566    0.0059681292
       8382.1189    0.0052235795
       8383.1812      0.19957639
       8384.2436     -0.37847583
       8385.3059     -0.38472701
       8386.3682    -0.073137915
       8387.4305     0.065610534
       8388.4929     -0.15186374
       8389.5552      0.57745891
       8390.6175      0.44990071
       8391.6798     0.088299831
       8392.7422    -0.051489651
       8393.8045      0.12184101
       8394.8668     0.093652076
       8395.9291      0.22267312
       8396.9914      0.13255039
       8398.0538     0.057253058
       8399.1161      0.15313999
       8400.1784     0.035257871
       8401.2407     -0.14100428
       8402.3031    -0.052593311
       8403.3654     0.077142816
       8404.4277    -0.062163294
       8405.4900      0.25206701
       8406.5524      0.24375191
       8407.6147    -0.081069344
       8408.6770    -0.025279884
       8409.7393    0.0051556980
       8410.8017     0.022200465
       8411.8640    -0.022284990
       8412.9263    -0.036635296
       8413.9886     0.043123289
       8415.0509     0.062522725
       8416.1133     0.033342052
       8417.1756     -0.58253524
       8418.2379     -0.34868430
       8419.3002     -0.45956290
       8420.3626     -0.31617347
       8421.4249    -0.073557301
       8422.4872      0.61435935
       8423.5495      0.38784225
       8424.6119      0.16785933
       8425.6742     0.044136855
       8426.7365      0.12072437
       8427.7988     0.071384203
       8428.8612    -0.018960938
       8429.9235     0.064703434
       8430.9858    -0.049191485
       8432.0481      0.12265645
       8433.1104      0.12293924
       8434.1728     0.064016028
       8435.2351     0.021377416
       8436.2974     0.018188753
       8437.3597     0.050704053
       8438.4221   0.00051605309
       8439.4844    -0.076390348
       8440.5467    -0.091841708
       8441.6090     -0.17294202
       8442.6714     -0.15072575
       8443.7337    -0.054195524
       8444.7960      0.31272332
       8445.8583      0.30188103
       8446.9207      0.30923483
       8447.9830      0.13515366
       8449.0453     0.083234361
       8450.1076      0.10134781
       8451.1700     0.034791782
       8452.2323    -0.061072248
       8453.2946     0.061512441
       8454.3569   -0.0038296462
       8455.4192     -0.15793505
       8456.4816    0.0083519276
       8457.5439     0.057437977
       8458.6062    -0.039652935
       8459.6685      0.26304100
       8460.7309      0.35904534
       8461.7932      0.19562131
       8462.8555     0.010390279
       8463.9178   -0.0021003111
       8464.9802  -0.00098900440
       8466.0425     0.079007013
       8467.1048    -0.016140460
       8468.1671    0.0036878441
       8469.2295      0.10005362
       8470.2918     0.027332120
       8471.3541   -0.0026826368
       8472.4164     0.035189445
       8473.4787     0.036610389
       8474.5411     0.052087217
       8475.6034     0.057625149
       8476.6657    -0.042389139
       8477.7280      0.10830906
       8478.7904     0.042662766
       8479.8527     0.024254535
       8480.9150    -0.076571890
       8481.9773     0.028990842
       8483.0397    -0.011364038
       8484.1020     -0.17367377
       8485.1643     -0.16899587
       8486.2266    -0.085665239
       8487.2890     -0.11224925
       8488.3513    -0.098449076
       8489.4136      0.21636834
       8490.4759     0.098747698
       8491.5383     0.052197281
       8492.6006     0.024539545
       8493.6629    -0.017354219
       8494.7252     0.087168626
       8495.7875     0.089580017
       8496.8499     -0.27419992
       8497.9122    -0.035365111
       8498.9745     0.016089510
       8500.0368     -0.22009949
       8501.0992     0.024291354
       8502.1615      0.16424370
       8503.2238      0.33677849
       8504.2861      0.16690750
       8505.3485    -0.013751134
       8506.4108     0.062376358
       8507.4731     0.068760624
       8508.5354     0.019087089
       8509.5978   -0.0092099133
       8510.6601    -0.044748267
       8511.7224     0.051763576
       8512.7847     0.040634426
       8513.8470     0.058325036
       8514.9094   0.00023965021
       8515.9717   -0.0023072277
       8517.0340     0.083382120
       8518.0963     0.080419640
       8519.1587     0.025886149
       8520.2210      0.10867295
       8521.2833    -0.020702402
       8522.3456     0.048156063
       8523.4080     0.025336078
       8524.4703     0.083358937
       8525.5326     0.016797454
       8526.5949     0.077926934
       8527.6573     0.066821968
       8528.7196     0.048885559
       8529.7819     0.038253816
       8530.8442      0.19476217
       8531.9065    0.0041720744
       8532.9689     0.028936164
       8534.0312    -0.034458886
       8535.0935   -0.0018213460
       8536.1558    0.0069296098
       8537.2182     0.015695885
       8538.2805      0.15489936
       8539.3428      0.21631386
       8540.4051     0.052278944
       8541.4675     0.081246674
       8542.5298     0.083668755
       8543.5921     0.088356559
       8544.6544     0.050699292
       8545.7168    -0.014494200
       8546.7791    -0.038965502
       8547.8414    -0.023512366
       8548.9037     0.031751903
       8549.9661      0.44559243
       8551.0284      0.29706257
       8552.0907      0.11092806
       8553.1530     0.027477406
       8554.2153    -0.031172523
       8555.2777     0.044469481
       8556.3400     0.069646809
       8557.4023     0.049516412
       8558.4646      0.13398159
       8559.5270    -0.034418946
       8560.5893    -0.018738149
       8561.6516    0.0041279478
       8562.7139     0.027846454
       8563.7763     0.078000687
       8564.8386     0.090854108
       8565.9009     0.041888150
       8566.9632      0.10783285
       8568.0256     0.047075060
       8569.0879     0.065508104
       8570.1502     0.087866282
       8571.2125     0.087285743
       8572.2748    -0.022510128
       8573.3372    -0.043410710
       8574.3995  -6.8933269e-05
       8575.4618     0.013967076
       8576.5241     0.044461273
       8577.5865     0.019093654
       8578.6488    0.0055750521
       8579.7111     0.030194500
       8580.7734     0.048802471
       8581.8358     0.034635765
       8582.8981     0.089783025
       8583.9604  -6.5766732e-05
       8585.0227     0.083173479
       8586.0851      0.13714185
       8587.1474      0.15373137
       8588.2097      0.11230981
       8589.2720     -0.10516800
       8590.3343    -0.063542963
       8591.3967     0.046779770
       8592.4590     0.077204622
       8593.5213      0.11858082
       8594.5836     0.038815175
       8595.6460      0.12210933
       8596.7083     0.029072656
       8597.7706      0.24585631
       8598.8329      0.19626369
       8599.8953      0.32054328
       8600.9576      0.46787100
       8602.0199      0.75091751
       8603.0822      0.57304632
       8604.1446      0.42955369
       8605.2069      0.14837852
       8606.2692    -0.026249636
       8607.3315     0.034212218
       8608.3939      0.14967396
       8609.4562      0.15728129
       8610.5185      0.17782560
       8611.5808     0.032181355
       8612.6431     0.026404610
       8613.7055    -0.091683792
       8614.7678    -0.064992354
       8615.8301      0.10789681
       8616.8924     -0.20182729
       8617.9548    -0.085130330
       8619.0171      0.17951256
       8620.0794      0.44932496
       8621.1417      0.19855866
       8622.2041     0.061226125
       8623.2664     0.063131201
       8624.3287      0.12167955
       8625.3910     0.039991262
       8626.4534     -0.11217326
       8627.5157     -0.10288185
       8628.5780     -0.15365370
       8629.6403     0.083287525
       8630.7026    -0.030903883
       8631.7650    -0.049593793
       8632.8273     -0.26595686
       8633.8896    -0.073907648
       8634.9519     -0.25913972
       8636.0143    -0.052693173
       8637.0766      0.14077575
       8638.1389      0.24951871
       8639.2012      0.16159585
       8640.2636     0.046131348
       8641.3259     0.062314896
       8642.3882     0.048379497
       8643.4505     0.046730010
       8644.5129     0.078430634
       8645.5752   -0.0078168726
       8646.6375     0.024630323
       8647.6998    -0.078810848
       8648.7622     0.085968229
       8649.8245    -0.080398851
       8650.8868      0.18864959
       8651.9491      0.22002599
       8653.0114     0.066185239
       8654.0738     0.074101359
       8655.1361      0.19444508
       8656.1984     0.087345933
       8657.2607    -0.048966420
       8658.3231     0.059210899
       8659.3854    -0.061475611
       8660.4477     0.085781621
       8661.5100     0.055990618
       8662.5724     0.012751284
       8663.6347      0.10814158
       8664.6970      0.23367928
       8665.7593      0.21853335
       8666.8217     0.096491652
       8667.8840      0.13311409
       8668.9463      0.14088989
       8670.0086      0.15013327
       8671.0709     0.084328011
       8672.1333     0.036880274
       8673.1956     0.074695492
       8674.2579     0.091655771
       8675.3202      0.13150332
       8676.3826     0.080679624
       8677.4449      0.11021963
       8678.5072     0.082889277
       8679.5695     0.029885515
       8680.6319      0.10748755
       8681.6942    -0.036875037
       8682.7565     0.068484462
       8683.8188     0.014399653
       8684.8812     0.022601422
       8685.9435     0.088619222
       8687.0058     0.010462277
       8688.0681    -0.012880391
       8689.1304    -0.024244374
       8690.1928    -0.084268104
       8691.2551    -0.025024478
       8692.3174     -0.13906533
       8693.3797     -0.19398128
       8694.4421     -0.49707149
       8695.5044     -0.80569184
       8696.5667     -0.75186184
       8697.6290      -1.1199887
       8698.6914     -0.44496308
       8699.7537    -0.032207271
       8700.8160      0.23154873
       8701.8783     -0.17203307
       8702.9407     0.027888932
       8704.0030    -0.029111597
       8705.0653     -0.14359826
       8706.1276     -0.29621593
       8707.1900    -0.049844562
       8708.2523     0.041902764
       8709.3146     0.088777511
       8710.3769    0.0027933609
       8711.4392     0.061276820
       8712.5016    -0.025650279
       8713.5639    -0.042005487
       8714.6262     0.029110796
       8715.6885     0.020047439
       8716.7509      0.10563932
       8717.8132    -0.048663696
       8718.8755    0.0020623878
       8719.9378     0.044549520
       8721.0002    -0.079863092
       8722.0625     0.017139928
       8723.1248     0.096209259
       8724.1871     0.078100626
       8725.2495     0.062260723
       8726.3118      0.11315426
       8727.3741     0.038863755
       8728.4364    0.0048460642
       8729.4987      0.12126701
       8730.5611     0.095290013
       8731.6234     0.087290373
       8732.6857    0.0038941609
       8733.7480     0.058626208
       8734.8104   -0.0082156479
       8735.8727     0.024151330
       8736.9350    -0.061816936
       8737.9973    -0.041122891
       8739.0597     0.092885424
       8740.1220     0.043030859
       8741.1843     0.045851587
       8742.2466     0.087431097
       8743.3090      0.19317369
       8744.3713     0.032942040
       8745.4336    -0.052690632
       8746.4959    -0.042748330
       8747.5583     0.065485759
       8748.6206     -0.28597608
       8749.6829     0.020526748
       8750.7452      0.38820653
       8751.8075      0.24865736
       8752.8699      0.32493179
       8753.9322      0.12084153
       8754.9945      0.13744152
       8756.0568     0.011906023
       8757.1192    -0.060601721
       8758.1815    -0.045294279
       8759.2438     0.046172477
       8760.3061     0.087845784
       8761.3685      0.14945930
       8762.4308      0.20186438
       8763.4931      0.12054715
       8764.5554  -0.00052795960
       8765.6178    -0.020016383
       8766.6801     0.067992774
       8767.7424     -0.76967961
       8768.8047     -0.58566101
       8769.8670     -0.32822908
       8770.9294     -0.28101776
       8771.9917     -0.14903343
       8773.0540      0.68306029
       8774.1163      0.67277076
       8775.1787      0.25255719
       8776.2410     0.078899360
       8777.3033     0.041866032
       8778.3656      0.11648845
       8779.4280      0.21057836
       8780.4903      0.10316646
       8781.5526    -0.026060223
       8782.6149    -0.032696067
       8783.6773   -0.0012114203
       8784.7396   -0.0013194658
       8785.8019     0.032206786
       8786.8642      0.12335316
       8787.9265      0.11956190
       8788.9889    -0.062719296
       8790.0512    -0.030080072
       8791.1135    -0.067311705
       8792.1758    -0.018295396
       8793.2382      0.27586217
       8794.3005      0.60447072
       8795.3628      0.31210812
       8796.4251      0.30592272
       8797.4875      0.40107493
       8798.5498      0.32913792
       8799.6121      0.34581960
       8800.6744      0.39536899
       8801.7368      0.39513593
       8802.7991      0.51544237
       8803.8614      0.44012768
       8804.9237      0.13326405
       8805.9861     -0.28310409
       8807.0484     -0.50607850
       8808.1107     -0.21942236
       8809.1730    -0.049625576
       8810.2353      0.54917549
       8811.2977      0.46645999
       8812.3600      0.28810319
       8813.4223      0.29673564
       8814.4846     0.034309289
       8815.5470     0.041345004
       8816.6093      0.10057416
       8817.6716     0.020752616
       8818.7339     0.034700298
       8819.7963     0.069993049
       8820.8586    -0.012917069
       8821.9209    -0.037012494
       8822.9832      0.14395604
       8824.0456     0.022899441
       8825.1079      0.11722846
       8826.1702      0.14787112
       8827.2325      0.13381152
       8828.2948     -0.20373299
       8829.3572     -0.12422975
       8830.4195      0.25608879
       8831.4818     -0.67453169
       8832.5441     -0.39432785
       8833.6065     -0.22963064
       8834.6688      0.23704809
       8835.7311      0.29408514
       8836.7934      0.26507901
       8837.8558      0.29040745
       8838.9181      0.71264485
       8839.9804      0.62092357
       8841.0427      0.41180318
       8842.1051      0.26156559
       8843.1674     -0.46489679
       8844.2297      0.36997277
       8845.2920      0.47123801
       8846.3544      0.68694114
       8847.4167      0.48837355
       8848.4790     -0.19380105
       8849.5413     -0.11918119
       8850.6036      0.20773025
       8851.6660      0.21875317
       8852.7283     0.071168878
       8853.7906      0.23367020
       8854.8529      0.46030979
       8855.9153     0.040331962
       8856.9776     0.064663379
       8858.0399      0.17172029
       8859.1022     0.059281003
       8860.1646     0.060516360
       8861.2269    -0.085417785
       8862.2892      0.19445391
       8863.3515      0.12718177
       8864.4139      0.12481002
       8865.4762     0.038279836
       8866.5385    0.0076429684
       8867.6008     0.015189656
       8868.6631     0.038559328
       8869.7255    -0.058048414
       8870.7878    -0.036172300
       8871.8501    0.0052541344
       8872.9124      0.12189902
       8873.9748      0.12741535
       8875.0371     0.060064906
       8876.0994     0.038921088
       8877.1617    -0.096395419
       8878.2241    -0.040141802
       8879.2864     0.048213980
       8880.3487     0.051969731
       8881.4110     0.077803655
       8882.4734      0.15539119
       8883.5357      0.18987543
       8884.5980     -0.20233952
       8885.6603     -0.22041154
       8886.7226     0.022303971
       8887.7850      0.20385155
       8888.8473      0.22585665
       8889.9096     0.085681961
       8890.9719    -0.028873119
       8892.0343     -0.15102837
       8893.0966     -0.19426025
       8894.1589     -0.74117078
       8895.2212     -0.65584325
       8896.2836     -0.72428087
       8897.3459     -0.32709920
       8898.4082       1.0829349
       8899.4705      0.30230269
       8900.5329      0.21309119
       8901.5952     0.077305442
       8902.6575    -0.058724668
       8903.7198     0.091072489
       8904.7822     -0.10207367
       8905.8445      0.18226822
       8906.9068     -0.21720901
       8907.9691    -0.081066486
       8909.0314     0.034327392
       8910.0938     0.054126543
       8911.1561      0.18946949
       8912.2184     0.027239480
       8913.2807     0.077639883
       8914.3431     0.085230247
       8915.4054     0.056917426
       8916.4677     0.021243267
       8917.5300     0.013867496
       8918.5924    -0.025201466
       8919.6547      0.22648728
       8920.7170    -0.020713589
       8921.7793     -0.14217470
       8922.8417    -0.083838184
       8923.9040      0.10868521
       8924.9663     0.099000805
       8926.0286      0.24294369
       8927.0909      0.13283803
       8928.1533     0.088390776
       8929.2156     0.021140106
       8930.2779      0.13275688
       8931.3402     0.053168462
       8932.4026    -0.022412729
       8933.4649     0.055704851
       8934.5272     -0.24440685
       8935.5895    -0.054362715
       8936.6519     -0.14181801
       8937.7142    -0.065292467
       8938.7765      0.26635323
       8939.8388     0.080822122
       8940.9012      0.27636252
       8941.9635      0.29446780
       8943.0258     0.061569386
       8944.0881      0.25861400
       8945.1504     0.054074628
       8946.2128     -0.11255668
       8947.2751     -0.13343160
       8948.3374     0.069391979
       8949.3997     0.051104160
       8950.4621      0.10329425
       8951.5244     0.035958854
       8952.5867      0.12953871
       8953.6490     -0.13755237
       8954.7114      0.13406605
       8955.7737     -0.65824717
       8956.8360     -0.38338892
       8957.8983     -0.50720522
       8958.9607     -0.16617484
       8960.0230      0.21174870
       8961.0853     -0.21518222
       8962.1476     -0.11453868
       8963.2100      0.10452084
       8964.2723    -0.048841433
       8965.3346   0.00045191299
       8966.3969   -0.0043824789
       8967.4592      0.14763921
       8968.5216    -0.051030986
       8969.5839     0.027493212
       8970.6462      0.14899300
       8971.7085    0.0026975317
       8972.7709     0.064448048
       8973.8332     0.093673884
       8974.8955     -0.17392941
       8975.9578    -0.095036493
       8977.0202      0.26900170
       8978.0825   -0.0054906632
       8979.1448      0.24489543
       8980.2071    -0.033118170
       8981.2695     0.036912689
       8982.3318    -0.033858363
       8983.3941    -0.023056207
       8984.4564    -0.076118888
       8985.5187     0.096305961
       8986.5811    -0.027708217
