# wavelength flux
       1839.8442   -0.0019008806
       1840.4628    -0.019848908
       1841.0814    0.0050451505
       1841.7000   -0.0099029006
       1842.3186    -0.011318570
       1842.9372    0.0097538640
       1843.5558     0.038405990
       1844.1744     0.025012686
       1844.7931    -0.075834748
       1845.4117    -0.022988578
       1846.0303     0.040184998
       1846.6489    -0.012990221
       1847.2675    -0.032107193
       1847.8861     0.020266027
       1848.5047     0.021265917
       1849.1234    0.0027580914
       1849.7420    -0.035261580
       1850.3606     0.016816692
       1850.9792     0.028810565
       1851.5978     0.010797989
       1852.2164    -0.036175515
       1852.8350   -0.0085074957
       1853.4536     0.030877312
       1854.0723     0.051625958
       1854.6909     0.018021119
       1855.3095    0.0090995879
       1855.9281     0.052628638
       1856.5467    -0.063585156
       1857.1653    -0.025310001
       1857.7839   -0.0074789083
       1858.4026     0.036570542
       1859.0212    -0.035925234
       1859.6398    -0.016624592
       1860.2584    -0.019735306
       1860.8770    0.0021807452
       1861.4956     0.022624298
       1862.1142   -0.0072859885
       1862.7328    0.0038056671
       1863.3515    -0.038508376
       1863.9701    -0.063339542
       1864.5887     0.020867654
       1865.2073    -0.018979705
       1865.8259    -0.029434170
       1866.4445    -0.024371806
       1867.0631    -0.021700048
       1867.6818    0.0034050364
       1868.3004    -0.027107864
       1868.9190     0.010889268
       1869.5376    0.0052091576
       1870.1562    0.0030794464
       1870.7748    -0.018939751
       1871.3934    0.0098348020
       1872.0120   0.00019847533
       1872.6307     0.021162603
       1873.2493     0.019619905
       1873.8679     0.034472285
       1874.4865    -0.014805244
       1875.1051   -0.0015049547
       1875.7237     0.014229553
       1876.3423    -0.019127345
       1876.9610     0.029171776
       1877.5796   -0.0073417152
       1878.1982     0.022216613
       1878.8168    -0.033568740
       1879.4354     0.011333559
       1880.0540    -0.038495444
       1880.6726     0.035030006
       1881.2913     0.028598079
       1881.9099     0.010784418
       1882.5285   -0.0059741804
       1883.1471     0.020001487
       1883.7657   -0.0048746861
       1884.3843    0.0060298164
       1885.0029    0.0013701499
       1885.6215    -0.022437214
       1886.2402     0.050301683
       1886.8588    -0.059620863
       1887.4774    0.0030487691
       1888.0960    0.0039998747
       1888.7146    -0.024084918
       1889.3332  -0.00059674743
       1889.9518    -0.021162204
       1890.5705    -0.032813542
       1891.1891    0.0060484419
       1891.8077     0.019361331
       1892.4263    -0.038171872
       1893.0449    -0.044063168
       1893.6635     0.017270847
       1894.2821    0.0074782502
       1894.9007     0.060382364
       1895.5194   -0.0092113909
       1896.1380    0.0043059086
       1896.7566    -0.049218982
       1897.3752     0.011055090
       1897.9938    -0.024609092
       1898.6124     0.032328115
       1899.2310    -0.029426818
       1899.8497   0.00018274602
       1900.4683     0.021486260
       1901.0869   -0.0023112018
       1901.7055     0.026531301
       1902.3241   -0.0043187643
       1902.9427   -0.0064826354
       1903.5613     0.017637201
       1904.1799    -0.034002209
       1904.7986   -0.0074229539
       1905.4172    -0.054451665
       1906.0358    -0.025294318
       1906.6544     0.025627512
       1907.2730    -0.059370673
       1907.8916   -0.0047773115
       1908.5102    -0.023216440
       1909.1289    0.0082480797
       1909.7475    -0.038110855
       1910.3661    -0.027436539
       1910.9847    -0.015469183
       1911.6033     0.019266180
       1912.2219     0.056476264
       1912.8405   -0.0039911515
       1913.4591    0.0013881234
       1914.0778    0.0036473600
       1914.6964    -0.027614946
       1915.3150    0.0067851440
       1915.9336    -0.015439127
       1916.5522     0.030401972
       1917.1708   -0.0013806070
       1917.7894    -0.027875747
       1918.4081    -0.018555510
       1919.0267    0.0031383028
       1919.6453   -0.0048845254
       1920.2639   -0.0063077817
       1920.8825     0.025818528
       1921.5011     0.028793072
       1922.1197    -0.024517203
       1922.7383    -0.020880748
       1923.3570    0.0038231176
       1923.9756    0.0069673588
       1924.5942   -0.0094485222
       1925.2128   -0.0024446951
       1925.8314    -0.022107063
       1926.4500     0.020984325
       1927.0686    0.0080203665
       1927.6873     0.022584994
       1928.3059    0.0064246835
       1928.9245    -0.012742220
       1929.5431    0.0040563851
       1930.1617     0.018199478
       1930.7803   -0.0040953786
       1931.3989    -0.013645328
       1932.0176  -0.00093758898
       1932.6362     0.020609083
       1933.2548     0.025682554
       1933.8734    -0.031214162
       1934.4920   -0.0076461747
       1935.1106    -0.031176414
       1935.7292     0.030685408
       1936.3478   -0.0057642283
       1936.9665    -0.031028689
       1937.5851    0.0091604658
       1938.2037   -0.0080901842
       1938.8223     0.033301541
       1939.4409    -0.016406797
       1940.0595    -0.020929301
       1940.6781    -0.020368953
       1941.2968    -0.034444564
       1941.9154   0.00073210154
       1942.5340   -0.0093955348
       1943.1526     0.015164325
       1943.7712    -0.010115654
       1944.3898    -0.012768336
       1945.0084    0.0076248589
       1945.6270     0.013086119
       1946.2457    -0.036523448
       1946.8643   -0.0033099273
       1947.4829     0.017039842
       1948.1015    -0.025460765
       1948.7201    -0.029590923
       1949.3387     0.017824533
       1949.9573     0.020553313
       1950.5760    0.0011193320
       1951.1946   -0.0054071826
       1951.8132     0.016096963
       1952.4318     0.019831314
       1953.0504    0.0032928126
       1953.6690    -0.025380137
       1954.2876     0.018797054
       1954.9062   -0.0058878069
       1955.5249   -0.0076654146
       1956.1435     0.014646806
       1956.7621     0.022384273
       1957.3807   -0.0017101885
       1957.9993    0.0097873790
       1958.6179   -0.0049526416
       1959.2365     0.010918296
       1959.8552    -0.022897245
       1960.4738     0.010487078
       1961.0924    -0.026162605
       1961.7110    -0.010456523
       1962.3296   -0.0033000249
       1962.9482  -0.00086422241
       1963.5668   -0.0068606428
       1964.1854    -0.011393208
       1964.8041    -0.028076660
       1965.4227     0.013715749
       1966.0413   -0.0056891793
       1966.6599     0.012853364
       1967.2785     0.041042898
       1967.8971   -0.0046950421
       1968.5157     0.020657388
       1969.1344   -0.0092828019
       1969.7530    -0.017703204
       1970.3716   -0.0012054936
       1970.9902   -0.0044597751
       1971.6088    0.0078083323
       1972.2274     0.020063913
       1972.8460   -0.0085856998
       1973.4647    -0.011682957
       1974.0833     0.011964685
       1974.7019     0.019473748
       1975.3205    0.0097579337
       1975.9391    0.0058843659
       1976.5577    -0.017723910
       1977.1763  -0.00016198845
       1977.7949     0.023796410
       1978.4136     0.010743612
       1979.0322    -0.018415291
       1979.6508    0.0028742355
       1980.2694   -0.0052237525
       1980.8880   0.00069466306
       1981.5066    -0.012148261
       1982.1252    0.0037766824
       1982.7439   -0.0026635069
       1983.3625    -0.015019126
       1983.9811    0.0041364348
       1984.5997    -0.018797306
       1985.2183     0.025825634
       1985.8369  -0.00023404516
       1986.4555  -5.2698686e-05
       1987.0741    -0.020868829
       1987.6928   -0.0063229389
       1988.3114    -0.020990995
       1988.9300    -0.023145791
       1989.5486    -0.018411659
       1990.1672    -0.014799572
       1990.7858    0.0024651153
       1991.4044    -0.021435398
       1992.0231    -0.038580869
       1992.6417    -0.021837935
       1993.2603    0.0048819507
       1993.8789    -0.016065324
       1994.4975     0.012377194
       1995.1161   -0.0060064677
       1995.7347   -0.0028150428
       1996.3533   -0.0034023383
       1996.9720   0.00011006751
       1997.5906    0.0039883545
       1998.2092   -0.0037248844
       1998.8278     0.018411768
       1999.4464     0.021940539
       2000.0650    0.0046822680
       2000.6836     0.014448603
       2001.3023    0.0075665563
       2001.9209   -0.0070747547
       2002.5395    -0.016755063
       2003.1581   -0.0010046619
       2003.7767   0.00083077722
       2004.3953    0.0043633714
       2005.0139     0.011683065
       2005.6325   -0.0031120351
       2006.2512   -0.0035765130
       2006.8698    -0.024567667
       2007.4884   -0.0066534115
       2008.1070    0.0015428374
       2008.7256    -0.016838873
       2009.3442     0.010852785
       2009.9628    0.0097710528
       2010.5815    0.0020664586
       2011.2001     0.014300356
       2011.8187    -0.028923105
       2012.4373    -0.018565867
       2013.0559     0.010568335
       2013.6745   -0.0036536683
       2014.2931    0.0011701197
       2014.9117    0.0099661651
       2015.5304   -0.0026803179
       2016.1490    0.0032840893
       2016.7676    -0.015127140
       2017.3862    -0.023194402
       2018.0048   1.9628959e-06
       2018.6234     0.012015597
       2019.2420   -0.0020743319
       2019.8607    -0.014841293
       2020.4793     0.025002943
       2021.0979     0.011415295
       2021.7165    -0.014546302
       2022.3351    0.0083306972
       2022.9537   -0.0043549238
       2023.5723     0.018117100
       2024.1910    0.0091781329
       2024.8096    0.0022625943
       2025.4282    -0.015301138
       2026.0468    -0.012457488
       2026.6654   -0.0055691535
       2027.2840     0.022840688
       2027.9026    0.0045846559
       2028.5212     0.023555428
       2029.1399    0.0020424838
       2029.7585     0.010140370
       2030.3771    -0.022048164
       2030.9957   -0.0027156143
       2031.6143   -0.0018987556
       2032.2329   -0.0024228479
       2032.8515     0.021936867
       2033.4702     0.011177875
       2034.0888     0.036231494
       2034.7074    0.0032054749
       2035.3260     0.023264749
       2035.9446     0.021109862
       2036.5632     0.033790081
       2037.1818    0.0070747360
       2037.8004     0.016721692
       2038.4191    0.0042088122
       2039.0377    0.0011265487
       2039.6563    0.0013915382
       2040.2749    0.0011957890
       2040.8935     0.026270521
       2041.5121    -0.028231999
       2042.1307    0.0012994336
       2042.7494   -0.0030284066
       2043.3680    -0.012482061
       2043.9866    -0.025117312
       2044.6052   -0.0012437752
       2045.2238   -0.0019060516
       2045.8424    -0.019130499
       2046.4610   -0.0083738932
       2047.0796     0.036691425
       2047.6983   -0.0060501747
       2048.3169   -0.0056692436
       2048.9355    0.0076009329
       2049.5541     0.027563830
       2050.1727     0.016379074
       2050.7913    -0.026241238
       2051.4099    0.0062591212
       2052.0286     0.018609512
       2052.6472    -0.011041459
       2053.2658   -0.0029540612
       2053.8844   -0.0025872519
       2054.5030    0.0019861400
       2055.1216    0.0061349443
       2055.7402    -0.015811026
       2056.3588    -0.012296249
       2056.9775   -0.0031051870
       2057.5961   -0.0048960845
       2058.2147    -0.012054885
       2058.8333   -0.0053069697
       2059.4519    -0.027514785
       2060.0705    -0.010078044
       2060.6891   -0.0050219296
       2061.3078     0.014795130
       2061.9264   -0.0038949367
       2062.5450   -0.0051083521
       2063.1636    0.0047651327
       2063.7822     0.019451294
       2064.4008    0.0010714620
       2065.0194    0.0081933002
       2065.6381    0.0081397567
       2066.2567   -0.0015086084
       2066.8753    -0.011669234
       2067.4939   -0.0027445305
       2068.1125    0.0033716557
       2068.7311    0.0066750512
       2069.3497     0.016209708
       2069.9683   -0.0065077117
       2070.5870  -0.00047039817
       2071.2056   -0.0017367142
       2071.8242    0.0015179354
       2072.4428  -0.00075417571
       2073.0614   -0.0050055098
       2073.6800   -0.0091825316
       2074.2986    0.0054844027
       2074.9173   -0.0071698841
       2075.5359    0.0083471755
       2076.1545    0.0062864555
       2076.7731    0.0034749236
       2077.3917     0.023097190
       2078.0103   -0.0049439392
       2078.6289    0.0072712270
       2079.2475    -0.017121867
       2079.8662    0.0045051973
       2080.4848    0.0013527763
       2081.1034   -0.0027132924
       2081.7220   -0.0066308879
       2082.3406    0.0044478605
       2082.9592   -0.0069496616
       2083.5778    0.0027912283
       2084.1965   -0.0048841817
       2084.8151    -0.010454594
       2085.4337    0.0054500622
       2086.0523   0.00057162488
       2086.6709   -0.0074224781
       2087.2895    0.0064133299
       2087.9081   0.00040986224
       2088.5267    -0.018228003
       2089.1454   -0.0051923415
       2089.7640     0.014541563
       2090.3826     0.014466059
       2091.0012    -0.010408845
       2091.6198    0.0043562830
       2092.2384   -0.0016297762
       2092.8570    -0.012259213
       2093.4757     0.014622323
       2094.0943     0.013870672
       2094.7129   -0.0024730427
       2095.3315    0.0090124080
       2095.9501    0.0014334480
       2096.5687     0.027031943
       2097.1873   -0.0039859864
       2097.8059   -0.0099825301
       2098.4246    0.0028507495
       2099.0432     0.011209612
       2099.6618    -0.025627517
       2100.2804    0.0064111493
       2100.8990   -0.0033755072
       2101.5176     0.028971209
       2102.1362     0.026624836
       2102.7549    0.0081017001
       2103.3735    -0.018266451
       2103.9921   -0.0037824180
       2104.6107   -0.0075716381
       2105.2293    -0.011697280
       2105.8479   -0.0088531881
       2106.4665    0.0076574058
       2107.0851    0.0076999882
       2107.7038     0.013790185
       2108.3224     0.015655303
       2108.9410     0.023457639
       2109.5596     0.025323929
       2110.1782  -0.00021573483
       2110.7968     0.017185201
       2111.4154    0.0032340915
       2112.0341     0.017825897
       2112.6527    0.0049113096
       2113.2713     0.015681807
       2113.8899   -0.0040268011
       2114.5085     0.033590712
       2115.1271     0.016716796
       2115.7457    -0.021451000
       2116.3644     0.021598391
       2116.9830   -0.0053603708
       2117.6016     0.011216035
       2118.2202    0.0056208620
       2118.8388     0.021846879
       2119.4574   -0.0014519211
       2120.0760    -0.010194916
       2120.6946   -0.0016437775
       2121.3133     0.014243403
       2121.9319     0.013767476
       2122.5505    0.0059097923
       2123.1691    0.0012396484
       2123.7877    0.0014252118
       2124.4063   -0.0028252183
       2125.0249    0.0070114059
       2125.6436     0.015161430
       2126.2622    0.0066196703
       2126.8808     0.010818433
       2127.4994   -0.0098573613
       2128.1180  -0.00088975929
       2128.7366    0.0016833507
       2129.3552     0.019031806
       2129.9738     0.013578168
       2130.5925    0.0012789618
       2131.2111   -0.0078654174
       2131.8297   -0.0082259726
       2132.4483    -0.021662623
       2133.0669   -0.0021121372
       2133.6855   -0.0071379132
       2134.3041   -0.0058771589
       2134.9228     0.021791815
       2135.5414     0.010693931
       2136.1600     0.013658854
       2136.7786   -0.0013920151
       2137.3972    0.0093159784
       2138.0158    -0.020980350
       2138.6344     0.018872278
       2139.2530     0.014227733
       2139.8717     0.019696782
       2140.4903   -0.0069408310
       2141.1089    -0.018519025
       2141.7275    0.0037661311
       2142.3461    0.0058452710
       2142.9647   -0.0037427757
       2143.5833   -0.0042871904
       2144.2020    0.0032940685
       2144.8206    0.0034018617
       2145.4392   -0.0051576004
       2146.0578    0.0056805682
       2146.6764   -0.0060061053
       2147.2950  -0.00052434844
       2147.9136  -9.4527606e-05
       2148.5322    0.0031966310
       2149.1509   -0.0049712008
       2149.7695     0.010779118
       2150.3881     0.014051789
       2151.0067    0.0069719364
       2151.6253    -0.012931252
       2152.2439    0.0046336107
       2152.8625   -0.0093939289
       2153.4812    0.0019481489
       2154.0998    0.0046601275
       2154.7184   -0.0071723708
       2155.3370  -0.00084304018
       2155.9556     0.015698209
       2156.5742    0.0074419962
       2157.1928     0.025639288
       2157.8115    0.0090432134
       2158.4301   -0.0016917226
       2159.0487     0.012220389
       2159.6673    -0.011573098
       2160.2859   -0.0074652303
       2160.9045     0.010125241
       2161.5231    0.0075917255
       2162.1417     0.010310898
       2162.7604   -0.0080781198
       2163.3790    0.0019145236
       2163.9976   -0.0091557984
       2164.6162    0.0069632132
       2165.2348    0.0077451460
       2165.8534    -0.025699383
       2166.4720     0.011253699
       2167.0907    -0.022072573
       2167.7093   -0.0048490320
       2168.3279     0.015023456
       2168.9465     0.036830893
       2169.5651     0.031280244
       2170.1837    -0.021085701
       2170.8023   -0.0064262613
       2171.4209    0.0063621397
       2172.0396   -0.0035947393
       2172.6582  -0.00064492546
       2173.2768    -0.011693062
       2173.8954    0.0051673603
       2174.5140   -0.0045598052
       2175.1326   -0.0047102086
       2175.7512    0.0022760285
       2176.3699   -0.0032266309
       2176.9885   -0.0040067901
       2177.6071    0.0037667119
       2178.2257    0.0051838529
       2178.8443     0.013754357
       2179.4629    -0.015163350
       2180.0815     0.015592539
       2180.7001    0.0091838753
       2181.3188    0.0034852712
       2181.9374   -0.0068505396
       2182.5560     0.020959437
       2183.1746  -0.00036904020
       2183.7932    0.0015692101
       2184.4118    -0.014584024
       2185.0304     0.011277444
       2185.6491     0.042735843
       2186.2677     0.017182712
       2186.8863    0.0061803529
       2187.5049    0.0058002163
       2188.1235   -0.0018452287
       2188.7421     0.010344688
       2189.3607    0.0022945643
       2189.9793    0.0097089722
       2190.5980    -0.015349052
       2191.2166    0.0021064817
       2191.8352   -0.0021210805
       2192.4538    0.0039936481
       2193.0724   -0.0099830655
       2193.6910     0.025068113
       2194.3096    0.0045375155
       2194.9283    0.0057749899
       2195.5469    0.0087793309
       2196.1655    0.0038909401
       2196.7841    0.0025433336
       2197.4027    0.0016035350
       2198.0213   -0.0048186604
       2198.6399   -0.0028350899
       2199.2585    -0.011245077
       2199.8772     0.014937158
       2200.4958   -0.0039973740
       2201.1144    0.0039895759
       2201.7330    -0.015516106
       2202.3516    0.0077683290
       2202.9702   -0.0057396068
       2203.5888     0.015909712
       2204.2075    -0.015152742
       2204.8261    0.0052818827
       2205.4447   -0.0082821148
       2206.0633     0.021441591
       2206.6819    0.0067712978
       2207.3005   -0.0013809580
       2207.9191   -0.0052190927
       2208.5378     0.014725955
       2209.1564    0.0077537445
       2209.7750    0.0074101067
       2210.3936    0.0017024124
       2211.0122   -0.0094203146
       2211.6308     0.011952888
       2212.2494     0.037225658
       2212.8680    0.0050968595
       2213.4867  -0.00026973930
       2214.1053   -0.0017383334
       2214.7239     0.015080885
       2215.3425  -5.9642020e-05
       2215.9611    0.0095782172
       2216.5797   -0.0056306004
       2217.1983     0.032566067
       2217.8170   -0.0028340155
       2218.4356    0.0087026512
       2219.0542    0.0028228458
       2219.6728   -0.0054826184
       2220.2914     0.013348744
       2220.9100     0.017763626
       2221.5286     0.023526169
       2222.1472     0.012014736
       2222.7659    0.0030174238
       2223.3845   -0.0045162565
       2224.0031     0.012759939
       2224.6217    -0.012682758
       2225.2403  -0.00059559434
       2225.8589   0.00038783561
       2226.4775    0.0078391765
       2227.0962   0.00033197433
       2227.7148   -0.0035447576
       2228.3334   0.00067688606
       2228.9520   9.7641652e-05
       2229.5706   -0.0028217674
       2230.1892     0.013736995
       2230.8078   -0.0068111620
       2231.4264   -0.0041885590
       2232.0451   0.00046631973
       2232.6637     0.016041492
       2233.2823     0.016983143
       2233.9009   -0.0074055397
       2234.5195   -0.0015287101
       2235.1381    0.0045123054
       2235.7567     0.010239063
       2236.3754   -0.0069957446
       2236.9940     0.013880963
       2237.6126     0.015497231
       2238.2312    0.0020706384
       2238.8498    0.0065676365
       2239.4684    0.0057020268
       2240.0870  -0.00014838948
       2240.7056     0.020511824
       2241.3243    0.0092110153
       2241.9429     0.021832987
       2242.5615     0.024651652
       2243.1801    0.0055257928
       2243.7987     0.019833709
       2244.4173   -0.0024439315
       2245.0359    -0.013695873
       2245.6546    0.0022682221
       2246.2732    -0.014521224
       2246.8918   -0.0029667519
       2247.5104   0.00073327568
       2248.1290     0.019647118
       2248.7476   -0.0033267740
       2249.3662    0.0091243920
       2249.9849    0.0024373158
       2250.6035    0.0053542339
       2251.2221     0.018054425
       2251.8407     0.014834013
       2252.4593    0.0044781780
       2253.0779    -0.015567324
       2253.6965  -0.00036837059
       2254.3151    0.0096628250
       2254.9338    0.0088612851
       2255.5524    0.0083152538
       2256.1710   -0.0014308713
       2256.7896     0.015068637
       2257.4082    0.0027212117
       2258.0268    0.0046769064
       2258.6454   -0.0092802549
       2259.2641     0.021589009
       2259.8827     0.022885764
       2260.5013     0.017494680
       2261.1199    0.0064968736
       2261.7385   -0.0033659030
       2262.3571    0.0065183114
       2262.9757     0.018052609
       2263.5943   -0.0054249150
       2264.2130    -0.020073655
       2264.8316   0.00066047781
       2265.4502    0.0050722541
       2266.0688   0.00050112881
       2266.6874  -0.00062230110
       2267.3060    0.0021576367
       2267.9246    0.0050185214
       2268.5433   0.00081951257
       2269.1619   -0.0077301206
       2269.7805    0.0097067868
       2270.3991     0.012430822
       2271.0177    0.0088661888
       2271.6363     0.019584988
       2272.2549    0.0014204251
       2272.8735     0.014941886
       2273.4922    0.0059660507
       2274.1108    0.0054777978
       2274.7294    0.0023054759
       2275.3480     0.014842547
       2275.9666   -0.0024642437
       2276.5852  -0.00070657551
       2277.2038    0.0014829722
       2277.8225    0.0073840554
       2278.4411  -0.00074444182
       2279.0597   -0.0087680325
       2279.6783   -0.0065789428
       2280.2969     0.011894853
       2280.9155    0.0076855396
       2281.5341   -0.0068875418
       2282.1527    0.0049904805
       2282.7714   -0.0027685192
       2283.3900    0.0039882851
       2284.0086  -0.00012888014
       2284.6272    0.0038799221
       2285.2458     0.015043127
       2285.8644     0.012748888
       2286.4830     0.033684316
       2287.1017     0.011650204
       2287.7203     0.012575494
       2288.3389   -0.0038869270
       2288.9575  -0.00012085700
       2289.5761   -0.0032788394
       2290.1947   -0.0021947950
       2290.8133    0.0080323198
       2291.4319   -0.0051798882
       2292.0506    0.0083438216
       2292.6692   -0.0048982397
       2293.2878    0.0041279373
       2293.9064    0.0039965599
       2294.5250    0.0090470845
       2295.1436     0.010866259
       2295.7622   -0.0054386652
       2296.3809    0.0061862217
       2296.9995    0.0015268573
       2297.6181    0.0048322398
       2298.2367    0.0016431155
       2298.8553    0.0041981193
       2299.4739     0.012984348
       2300.0925    0.0067805286
       2300.7112    0.0021104692
       2301.3298     0.022755232
       2301.9484    0.0079066072
       2302.5670   -0.0057812669
       2303.1856    0.0027363352
       2303.8042    0.0029008090
       2304.4228   -0.0085872982
       2305.0414     0.026807317
       2305.6601   -0.0014268988
       2306.2787    0.0080873011
       2306.8973    0.0043790895
       2307.5159    -0.010186483
       2308.1345     0.011773843
       2308.7531    0.0089988765
       2309.3717    0.0032992602
       2309.9904    0.0061370109
       2310.6090   -0.0065473533
       2311.2276    0.0080887103
       2311.8462     0.011057946
       2312.4648    0.0027599642
       2313.0834     0.010983461
       2313.7020     0.012770921
       2314.3206    0.0071520415
       2314.9393    0.0057856341
       2315.5579    0.0014640806
       2316.1765     0.016383322
       2316.7951    0.0083558960
       2317.4137    0.0058565328
       2318.0323     0.018767948
       2318.6509    0.0097941728
       2319.2696     0.012237149
       2319.8882   -0.0014018974
       2320.5068    0.0041072664
       2321.1254     0.031240068
       2321.7440     0.017741676
       2322.3626     0.019140256
       2322.9812    0.0081066996
       2323.5998   -0.0030033132
       2324.2185    0.0076093675
       2324.8371     0.021588296
       2325.4557     0.011755032
       2326.0743     0.010386690
       2326.6929   -0.0057748111
       2327.3115    0.0074866857
       2327.9301    -0.019205460
       2328.5488     0.012237832
       2329.1674     0.010832646
       2329.7860     0.015840455
       2330.4046     0.016978761
       2331.0232     0.011715954
       2331.6418    0.0050765659
       2332.2604    0.0076662115
       2332.8790     0.019226936
       2333.4977    0.0032018556
       2334.1163    0.0069601860
       2334.7349    0.0013495927
       2335.3535    0.0023456745
       2335.9721  -0.00026267468
       2336.5907     0.020618914
       2337.2093   -0.0035141793
       2337.8280    -0.015613087
       2338.4466   -0.0079831872
       2339.0652     0.013679940
       2339.6838   -0.0034237499
       2340.3024    0.0067647127
       2340.9210   0.00058402799
       2341.5396    0.0023802733
       2342.1583    0.0012873130
       2342.7769    0.0081714915
       2343.3955    0.0042078867
       2344.0141     0.016339482
       2344.6327     0.026153769
       2345.2513     0.037443867
       2345.8699   0.00031561235
       2346.4885   -0.0063892653
       2347.1072   -0.0039753692
       2347.7258     0.031370596
       2348.3444  -0.00059753370
       2348.9630     0.042790122
       2349.5816     0.011567102
       2350.2002    0.0053390393
       2350.8188     0.010204849
       2351.4375    0.0015197475
       2352.0561   -0.0028138522
       2352.6747    -0.016502741
       2353.2933     0.014647055
       2353.9119    0.0036950164
       2354.5305     0.019007166
       2355.1491    0.0013179887
       2355.7677    0.0076493505
       2356.3864     0.019558631
       2357.0050     0.014336705
       2357.6236     0.017676484
       2358.2422     0.015101382
       2358.8608   -0.0032263169
       2359.4794   -0.0025740806
       2360.0980   -0.0046164438
       2360.7167    -0.016892465
       2361.3353    -0.011410527
       2361.9539    0.0045175209
       2362.5725  -0.00098003774
       2363.1911   -0.0099932927
       2363.8097    0.0032043487
       2364.4283   -0.0071344352
       2365.0469     0.011557211
       2365.6656   -0.0036076983
       2366.2842     0.011780920
       2366.9028    0.0030174472
       2367.5214     0.011676756
       2368.1400    -0.013787409
       2368.7586    0.0080577586
       2369.3772     0.013007326
       2369.9959     0.010996172
       2370.6145   -0.0012098502
       2371.2331    -0.020301820
       2371.8517     0.013076328
       2372.4703     0.020143116
       2373.0889    0.0094531174
       2373.7075     0.012266848
       2374.3261    0.0074318102
       2374.9448     0.012869340
       2375.5634    0.0082860200
       2376.1820    0.0038845607
       2376.8006    0.0036786270
       2377.4192     0.016698377
       2378.0378    -0.016639160
       2378.6564   -0.0041203110
       2379.2751   -0.0019276532
       2379.8937   -0.0038929646
       2380.5123   -0.0024856530
       2381.1309     0.017751606
       2381.7495    0.0030435648
       2382.3681     0.013294527
       2382.9867     0.012366854
       2383.6053    0.0089777688
       2384.2240     0.016823034
       2384.8426    0.0073558672
       2385.4612     0.011127600
       2386.0798     0.014575833
       2386.6984     0.017414437
       2387.3170   -0.0088389181
       2387.9356    0.0030968485
       2388.5543   -0.0039745228
       2389.1729  -0.00068849195
       2389.7915    -0.017781085
       2390.4101    0.0015996666
       2391.0287    0.0048358137
       2391.6473    0.0027232444
       2392.2659   -0.0085848431
       2392.8846    0.0019892161
       2393.5032   -0.0070950060
       2394.1218     0.011975964
       2394.7404     0.018710454
       2395.3590    0.0076494986
       2395.9776    0.0019281069
       2396.5962     0.012216533
       2397.2148     0.028523149
       2397.8335     0.021413040
       2398.4521    0.0041153401
       2399.0707     0.022126535
       2399.6893    0.0019576281
       2400.3079    0.0056320929
       2400.9265     0.012990617
       2401.5451    0.0014240302
       2402.1638    0.0051928278
       2402.7824     0.030867696
       2403.4010    0.0029552013
       2404.0196     0.017132569
       2404.6382    0.0028921685
       2405.2568    0.0064103040
       2405.8754  -0.00021905753
       2406.4940   -0.0036958632
       2407.1127     0.022044153
       2407.7313   -0.0024869603
       2408.3499   0.00098197812
       2408.9685    0.0050029401
       2409.5871     0.013549817
       2410.2057   -0.0083743851
       2410.8243     0.016990212
       2411.4430   -0.0021664653
       2412.0616    0.0015102404
       2412.6802    -0.014172064
       2413.2988   -0.0015670026
       2413.9174    -0.012501359
       2414.5360     0.016387345
       2415.1546     0.017695107
       2415.7732   -0.0046762745
       2416.3919     0.017229188
       2417.0105     0.012260375
       2417.6291  -0.00039330161
       2418.2477    0.0056789209
       2418.8663     0.016098796
       2419.4849    0.0024150354
       2420.1035     0.012548854
       2420.7222    0.0054530842
       2421.3408    0.0063653703
       2421.9594     0.013373341
       2422.5780    0.0026370794
       2423.1966     0.017794756
       2423.8152  -0.00019925572
       2424.4338   -0.0057060896
       2425.0524     0.010561052
       2425.6711    0.0096924998
       2426.2897     0.018918610
       2426.9083    0.0038170563
       2427.5269    0.0049658059
       2428.1455     0.015447142
       2428.7641     0.028252209
       2429.3827   -0.0087956929
       2430.0014     0.021161969
       2430.6200     0.013444268
       2431.2386     0.023708344
       2431.8572    -0.017165127
       2432.4758    0.0028392654
       2433.0944    0.0071415427
       2433.7130     0.019589821
       2434.3317    0.0047850123
       2434.9503     0.010239768
       2435.5689     0.016456579
       2436.1875   -0.0048272669
       2436.8061    -0.011643506
       2437.4247     0.010386759
       2438.0433   0.00079974106
       2438.6619     0.024123319
       2439.2806     0.017680592
       2439.8992     0.011577135
       2440.5178     0.013227218
       2441.1364     0.022752396
       2441.7550     0.015243291
       2442.3736    0.0054496253
       2442.9922     0.019094326
       2443.6109    0.0062039743
       2444.2295     0.019094476
       2444.8481     0.015898493
       2445.4667     0.013647143
       2446.0853     0.010099367
       2446.7039    0.0023315512
       2447.3225    0.0016618192
       2447.9411   -0.0030454234
       2448.5598    0.0015005110
       2449.1784    0.0045503450
       2449.7970   -0.0077887568
       2450.4156     0.011883814
       2451.0342     0.014365482
       2451.6528     0.017314351
       2452.2714     0.014993759
       2452.8901    0.0025633950
       2453.5087    0.0017000484
       2454.1273    0.0071479015
       2454.7459     0.022031288
       2455.3645     0.010444035
       2455.9831     0.019033367
       2456.6017    -0.011409308
       2457.2203    0.0046273096
       2457.8390   -0.0026712802
       2458.4576    0.0068577474
       2459.0762     0.023002143
       2459.6948  -0.00033679689
       2460.3134   -0.0032223809
       2460.9320    -0.016294358
       2461.5506   0.00085579487
       2462.1693    0.0021784783
       2462.7879  -0.00048118942
       2463.4065    0.0076027589
       2464.0251   -0.0024061772
       2464.6437    0.0022548269
       2465.2623    0.0018482437
       2465.8809     0.010519006
       2466.4995    0.0085863559
       2467.1182     0.010244154
       2467.7368     0.016137024
       2468.3554   9.8680426e-05
       2468.9740    -0.014166102
       2469.5926   -0.0031020622
       2470.2112     0.017126655
       2470.8298    0.0065976198
       2471.4485    0.0090619245
       2472.0671    0.0048301590
       2472.6857   -0.0019430156
       2473.3043   -0.0015854974
       2473.9229   -0.0064168637
       2474.5415     0.035168984
       2475.1601     0.022618678
       2475.7787    0.0099648396
       2476.3974     0.028325707
       2477.0160    0.0041241001
       2477.6346  -0.00083879798
       2478.2532   -0.0090672666
       2478.8718     0.015040709
       2479.4904    0.0035468093
       2480.1090     0.015167812
       2480.7277     0.017757720
       2481.3463     0.030310978
       2481.9649     0.011125972
       2482.5835     0.018315269
       2483.2021    0.0099739161
       2483.8207     0.025275654
       2484.4393     0.015476001
       2485.0580    0.0061328233
       2485.6766    0.0069250144
       2486.2952     0.014730221
       2486.9138    0.0059213478
       2487.5324     0.013602466
       2488.1510    0.0059484320
       2488.7696   -0.0068751312
       2489.3882    0.0022636438
       2490.0069    0.0078059636
       2490.6255    0.0084328881
       2491.2441   -0.0056915174
       2491.8627  -0.00074252444
       2492.4813     0.012633073
       2493.0999     0.021086079
       2493.7185     0.020848330
       2494.3372    0.0087370035
       2494.9558    0.0042297750
       2495.5744     0.014710251
       2496.1930   0.00083538856
       2496.8116    0.0092472920
       2497.4302   0.00017909132
       2498.0488    -0.011143706
       2498.6674    0.0079932220
       2499.2861     0.023608981
       2499.9047     0.012711269
       2500.5233     0.014083775
       2501.1419    0.0055982009
       2501.7605     0.023388636
       2502.3791     0.018258649
       2502.9977     0.011976068
       2503.6164     0.014290279
       2504.2350    -0.015948722
       2504.8536    -0.013143447
       2505.4722     0.015219708
       2506.0908   -0.0021175320
       2506.7094    0.0070201480
       2507.3280     0.014556763
       2507.9466    0.0026161942
       2508.5653    0.0091539889
       2509.1839     0.025944912
       2509.8025     0.022899529
       2510.4211     0.016094619
       2511.0397    0.0073142354
       2511.6583    0.0039711099
       2512.2769     0.024543591
       2512.8956     0.012376347
       2513.5142     0.013402208
       2514.1328   -0.0080491809
       2514.7514   -0.0070027439
       2515.3700   -0.0084763594
       2515.9886    0.0095747655
       2516.6072     0.012734210
       2517.2258    0.0028162596
       2517.8445    0.0076336331
       2518.4631    -0.012952388
       2519.0817     0.014144366
       2519.7003    0.0069001268
       2520.3189   -0.0015319084
       2520.9375   -0.0093478749
       2521.5561     0.023250699
       2522.1748    0.0083187338
       2522.7934    0.0065362428
       2523.4120   -0.0039447180
       2524.0306    -0.011423083
       2524.6492    0.0078741219
       2525.2678     0.015059083
       2525.8864     0.014093164
       2526.5051     0.016656584
       2527.1237    0.0099487388
       2527.7423     0.010242112
       2528.3609    0.0069565548
       2528.9795     0.012744677
       2529.5981    -0.018728815
       2530.2167  -0.00036590396
       2530.8353    0.0067362858
       2531.4540     0.018733932
       2532.0726     0.017190242
       2532.6912     0.023550711
       2533.3098    0.0087583390
       2533.9284    0.0081398694
       2534.5470     0.011275676
       2535.1656   -0.0022344315
       2535.7843    0.0027124551
       2536.4029   -0.0033664395
       2537.0215     0.010050121
       2537.6401    -0.013132889
       2538.2587   -0.0086778765
       2538.8773    0.0011170922
       2539.4959    -0.014471856
       2540.1145     0.020054732
       2540.7332    0.0075075036
       2541.3518  -0.00075126473
       2541.9704     0.027319802
       2542.5890     0.019488278
       2543.2076    0.0022819625
       2543.8262     0.011241767
       2544.4448    0.0023634602
       2545.0635    -0.014640634
       2545.6821    -0.015619824
       2546.3007     0.030555575
       2546.9193    0.0083340271
       2547.5379     0.017084570
       2548.1565  -0.00051388999
       2548.7751   -0.0027712132
       2549.3937   -0.0075638783
       2550.0124  -6.5975041e-05
       2550.6310    0.0037822651
       2551.2496    0.0093608904
       2551.8682     0.010769649
       2552.4868   -0.0095135937
       2553.1054   -0.0089387670
       2553.7240    0.0048869794
       2554.3427   -0.0027367502
       2554.9613    0.0095837315
       2555.5799     0.010603401
       2556.1985     0.019628883
       2556.8171    0.0047970911
       2557.4357     0.013689164
       2558.0543    0.0065518773
       2558.6729    0.0026716098
       2559.2916   0.00090741417
       2559.9102  -0.00046795053
       2560.5288   -0.0039294108
       2561.1474    0.0043755093
       2561.7660     0.012074043
       2562.3846     0.015912756
       2563.0032    0.0065028226
       2563.6219     0.029936040
       2564.2405     0.047738472
       2564.8591     0.020122293
       2565.4777    0.0059575311
       2566.0963    0.0052406199
       2566.7149   0.00029819451
       2567.3335    0.0070811591
       2567.9521     0.018235356
       2568.5708    -0.013312450
       2569.1894   9.8002712e-05
       2569.8080    0.0087147959
       2570.4266   -0.0021779668
       2571.0452     0.010116135
       2571.6638     0.025867531
       2572.2824     0.030386837
       2572.9011    0.0073378197
       2573.5197     0.017799087
       2574.1383     0.019353828
       2574.7569   -0.0058223300
       2575.3755   0.00012052312
       2575.9941   -0.0035366816
       2576.6127     0.012931833
       2577.2314     0.028192609
       2577.8500     0.011546514
       2578.4686     0.010284788
       2579.0872     0.024924837
       2579.7058    0.0087364054
       2580.3244     0.024740423
       2580.9430     0.019299729
       2581.5616   -0.0072887359
       2582.1803   -0.0015468227
       2582.7989   -0.0053994506
       2583.4175    -0.011219147
       2584.0361     0.018487575
       2584.6547     0.024850869
       2585.2733    0.0069638773
       2585.8919     0.015801966
       2586.5106     0.011378367
       2587.1292    0.0041564858
       2587.7478     0.018729116
       2588.3664     0.010517826
       2588.9850     0.012685786
       2589.6036  -0.00091505984
       2590.2222   -0.0071894808
       2590.8408  -0.00050016954
       2591.4595     0.016948964
       2592.0781     0.024330724
       2592.6967     0.012846287
       2593.3153     0.010417721
       2593.9339    0.0026629128
       2594.5525  -0.00087805302
       2595.1711    -0.017977201
       2595.7898   -0.0080003888
       2596.4084    0.0037101161
       2597.0270     0.012669043
       2597.6456     0.015165591
       2598.2642     0.016300195
       2598.8828    -0.011749465
       2599.5014    0.0018704261
       2600.1200   -0.0017090556
       2600.7387    0.0048274113
       2601.3573     0.023429953
       2601.9759    0.0017441482
       2602.5945    0.0029787874
       2603.2131   -0.0014783928
       2603.8317     0.010483119
       2604.4503  -5.3447099e-05
       2605.0690     0.010809507
       2605.6876  -0.00066863341
       2606.3062     0.030432488
       2606.9248     0.021760516
       2607.5434    0.0057546859
       2608.1620    0.0060808634
       2608.7806     0.033960818
       2609.3992     0.025308091
       2610.0179     0.011648679
       2610.6365     0.012913015
       2611.2551     0.022913720
       2611.8737     0.014571920
       2612.4923    0.0033480568
       2613.1109   -0.0047122469
       2613.7295   2.8489849e-05
       2614.3482    -0.010075105
       2614.9668   -0.0018621252
       2615.5854     0.014262686
       2616.2040     0.012729801
       2616.8226    0.0050678076
       2617.4412   -0.0031035822
       2618.0598     0.023223482
       2618.6785     0.030934119
       2619.2971     0.022795117
       2619.9157    0.0050489247
       2620.5343     0.016180342
       2621.1529    0.0013359947
       2621.7715     0.010333372
       2622.3901     0.020891428
       2623.0087    0.0056466609
       2623.6274   -0.0014198556
       2624.2460     0.011546947
       2624.8646   -0.0059287816
       2625.4832     0.012515228
       2626.1018     0.030142088
       2626.7204     0.020813662
       2627.3390    0.0043814714
       2627.9577     0.025949282
       2628.5763     0.014118710
       2629.1949     0.024974973
       2629.8135     0.031934844
       2630.4321    0.0074669727
       2631.0507     0.035692573
       2631.6693     0.029947146
       2632.2879     0.014468761
       2632.9066   0.00057485996
       2633.5252  -0.00092958677
       2634.1438    -0.021115927
       2634.7624   -0.0019349563
       2635.3810    0.0071800873
       2635.9996     0.022750588
       2636.6182    0.0065716977
       2637.2369     0.016943625
       2637.8555    0.0010865660
       2638.4741    0.0079889958
       2639.0927     0.025985174
       2639.7113    0.0055677665
       2640.3299     0.027141186
       2640.9485    -0.019568976
       2641.5671    0.0084680238
       2642.1858     0.024043603
       2642.8044     0.018443094
       2643.4230    0.0016449369
       2644.0416     0.014419814
       2644.6602    -0.010707934
       2645.2788     0.038094728
       2645.8974     0.036728998
       2646.5161     0.017337677
       2647.1347     0.025116375
       2647.7533     0.030290809
       2648.3719    0.0078682504
       2648.9905    0.0018904006
       2649.6091    -0.011208908
       2650.2277   0.00065818577
       2650.8463     0.015734813
       2651.4650    0.0022384519
       2652.0836     0.019836213
       2652.7022     0.021664839
       2653.3208    0.0067067106
       2653.9394    0.0082157005
       2654.5580     0.012536987
       2655.1766    0.0092224277
       2655.7953  -0.00037444638
       2656.4139     0.032502945
       2657.0325     0.031155494
       2657.6511     0.013154203
       2658.2697     0.011849195
       2658.8883     0.011513070
       2659.5069    0.0093150431
       2660.1255    0.0068183398
       2660.7442    0.0019245715
       2661.3628     0.013978532
       2661.9814    0.0068227609
       2662.6000     0.026617051
       2663.2186    0.0067057141
       2663.8372    -0.012406657
       2664.4558    0.0055215312
       2665.0745     0.022497164
       2665.6931    0.0014949106
       2666.3117    -0.012808672
       2666.9303     0.023462858
       2667.5489    0.0025594420
       2668.1675    0.0075249593
       2668.7861    0.0011192010
       2669.4048     0.049467947
       2670.0234     0.026079431
       2670.6420     0.019197631
       2671.2606   -0.0030189160
       2671.8792    0.0071103319
       2672.4978     0.020801274
       2673.1164    0.0081004867
       2673.7350     0.016674958
       2674.3537   -0.0095463603
       2674.9723     0.011542761
       2675.5909     0.017217535
       2676.2095    0.0064328009
       2676.8281     0.036867467
       2677.4467    0.0078728649
       2678.0653    0.0073798432
       2678.6840    0.0034326413
       2679.3026     0.014558654
       2679.9212     0.017351463
       2680.5398    0.0012547977
       2681.1584    0.0070396612
       2681.7770     0.012374060
       2682.3956   -0.0075291451
       2683.0142     0.020064960
       2683.6329   -0.0080432830
       2684.2515   -0.0086485550
       2684.8701   -0.0099657886
       2685.4887   -0.0023150847
       2686.1073     0.032780338
       2686.7259     0.019422082
       2687.3445    0.0029717602
       2687.9632    0.0033097531
       2688.5818    0.0032089615
       2689.2004   -0.0013179627
       2689.8190    0.0047164325
       2690.4376    0.0092488715
       2691.0562     0.012402475
       2691.6748   -0.0014333598
       2692.2934     0.034278305
       2692.9121     0.019460665
       2693.5307     0.010823429
       2694.1493   0.00040313121
       2694.7679     0.033846719
       2695.3865    0.0057405853
       2696.0051     0.026916239
       2696.6237     0.018483256
       2697.2424     0.015629818
       2697.8610     0.017141208
       2698.4796   -0.0043768468
       2699.0982    0.0056310757
       2699.7168     0.012029562
       2700.3354     0.022078580
       2700.9540     0.016496011
       2701.5726     0.012668157
       2702.1913     0.020302256
       2702.8099    0.0084133597
       2703.4285   -0.0024577475
       2704.0471     0.010115741
       2704.6657   -0.0094466929
       2705.2843    0.0057231853
       2705.9029     0.010512848
       2706.5216   -0.0083436713
       2707.1402    0.0093375177
       2707.7588    0.0021483748
       2708.3774   -0.0062757055
       2708.9960     0.013328725
       2709.6146    0.0065245959
       2710.2332    0.0029609375
       2710.8519   0.00040532129
       2711.4705     0.019395481
       2712.0891    0.0083082342
       2712.7077     0.017505807
       2713.3263     0.023417234
       2713.9449    0.0020698268
       2714.5635    0.0085459295
       2715.1821   0.00069868232
       2715.8008    0.0022168519
       2716.4194     0.010386465
       2717.0380    0.0029144082
       2717.6566    0.0045899648
       2718.2752     0.013561250
       2718.8938     0.021934615
       2719.5124     0.026190755
       2720.1311     0.017149782
       2720.7497     0.012246083
       2721.3683     0.011175450
       2721.9869    0.0060540489
       2722.6055     0.013728943
       2723.2241     0.019132106
       2723.8427     0.039258790
       2724.4613    0.0052810185
       2725.0800     0.018231142
       2725.6986  -0.00051523543
       2726.3172     0.011352925
       2726.9358     0.034003625
       2727.5544   0.00014829764
       2728.1730   0.00020481571
       2728.7916    0.0062660848
       2729.4103     0.020773095
       2730.0289    0.0091001559
       2730.6475   -0.0042574573
       2731.2661     0.011510495
       2731.8847     0.025757869
       2732.5033     0.014864007
       2733.1219     0.011188371
       2733.7405    0.0090658666
       2734.3592     0.013849984
       2734.9778     0.020656184
       2735.5964     0.018143562
       2736.2150    0.0095193437
       2736.8336    0.0069371436
       2737.4522     0.017872971
       2738.0708    -0.010264389
       2738.6895     0.023978131
       2739.3081     0.018183713
       2739.9267   -0.0023723193
       2740.5453   -0.0021854137
       2741.1639   -0.0051791147
       2741.7825   0.00031449033
       2742.4011    0.0076546425
       2743.0197    0.0032576096
       2743.6384     0.017340462
       2744.2570    0.0078507031
       2744.8756     0.021188112
       2745.4942     0.018173127
       2746.1128    0.0070738672
       2746.7314     0.021867284
       2747.3500     0.028915741
       2747.9687   -0.0015854807
       2748.5873     0.011413576
       2749.2059   0.00031291017
       2749.8245     0.026120214
       2750.4431    0.0036898101
       2751.0617    0.0030983848
       2751.6803   -0.0030397749
       2752.2989   -0.0017462375
       2752.9176    -0.011094119
       2753.5362     0.012736242
       2754.1548    0.0056977389
       2754.7734   -0.0078671178
       2755.3920     0.011870764
       2756.0106  -2.2704802e-05
       2756.6292     0.017896670
       2757.2479     0.012004928
       2757.8665    0.0071447951
       2758.4851     0.016839611
       2759.1037     0.031524912
       2759.7223     0.026261797
       2760.3409     0.033295472
       2760.9595  -0.00065084538
       2761.5782    0.0063831013
       2762.1968     0.019476979
       2762.8154     0.022506308
       2763.4340    -0.012230738
       2764.0526    0.0029576504
       2764.6712    0.0081332620
       2765.2898     0.022218496
       2765.9084     0.020132851
       2766.5271   -0.0069153676
       2767.1457  -6.8377254e-05
       2767.7643   -0.0031255592
       2768.3829     0.010840745
       2769.0015   0.00085952582
       2769.6201    0.0089751847
       2770.2387   -0.0042481989
       2770.8574   -0.0056719659
       2771.4760     0.014968929
       2772.0946    0.0064382658
       2772.7132     0.026829090
       2773.3318     0.010276230
       2773.9504    0.0012304160
       2774.5690    -0.010901530
       2775.1876    0.0065334542
       2775.8063   0.00071803540
       2776.4249    0.0069338300
       2777.0435     0.029580616
       2777.6621     0.013997144
       2778.2807    0.0048874273
       2778.8993    0.0081718738
       2779.5179     0.019835107
       2780.1366    -0.016547012
       2780.7552   0.00047140422
       2781.3738     0.025209702
       2781.9924     0.014120587
       2782.6110     0.032510257
       2783.2296     0.021258228
       2783.8482   -0.0025502252
       2784.4668     0.012892569
       2785.0855    0.0091088952
       2785.7041     0.021432872
       2786.3227     0.019588153
       2786.9413     0.027905063
       2787.5599     0.011898485
       2788.1785     0.018781463
       2788.7971   -0.0070839963
       2789.4158    -0.012383414
       2790.0344    -0.020664401
       2790.6530   -0.0047363679
       2791.2716     0.016342209
       2791.8902     0.020347259
       2792.5088     0.013149740
       2793.1274     0.019911093
       2793.7460    0.0084739093
       2794.3647     0.010665594
       2794.9833     0.017265803
       2795.6019    0.0024912207
       2796.2205     0.013668025
       2796.8391   -0.0057536827
       2797.4577    0.0087138799
       2798.0763     0.025671193
       2798.6950    0.0083036888
       2799.3136    0.0044667678
       2799.9322     0.023946644
       2800.5508     0.013351355
       2801.1694   -0.0031063146
       2801.7880     0.016106414
       2802.4066    0.0036296117
       2803.0253    0.0030212122
       2803.6439     0.019275977
       2804.2625    -0.022876932
       2804.8811   -0.0028689052
       2805.4997    0.0042044878
       2806.1183     0.020256401
       2806.7369    0.0026006273
       2807.3555     0.010233623
       2807.9742     0.030825716
       2808.5928     0.013878160
       2809.2114     0.022363250
       2809.8300     0.042493096
       2810.4486    0.0061001630
       2811.0672  -0.00067277731
       2811.6858    -0.011925899
       2812.3045    0.0055554192
       2812.9231     0.019284834
       2813.5417     0.020832068
       2814.1603     0.019236038
       2814.7789    0.0045777534
       2815.3975     0.014680433
       2816.0161    0.0064243509
       2816.6347    0.0070869486
       2817.2534    0.0042652613
       2817.8720     0.020045908
       2818.4906    0.0061878879
       2819.1092     0.028852545
       2819.7278     0.060821865
       2820.3464     0.021913817
       2820.9650    0.0043631820
       2821.5837    0.0049796264
       2822.2023    0.0058563334
       2822.8209     0.015604493
       2823.4395     0.030098947
       2824.0581    0.0048054723
       2824.6767     0.018646084
       2825.2953  -0.00083033239
       2825.9139     0.024877351
       2826.5326    0.0092884120
       2827.1512  -0.00033152661
       2827.7698    0.0080626136
       2828.3884    0.0017397150
       2829.0070   -0.0012636193
       2829.6256     0.019377435
       2830.2442     0.015204760
       2830.8629     0.011000744
       2831.4815     0.025475115
       2832.1001   -0.0050767062
       2832.7187   -0.0046392674
       2833.3373    0.0061979354
       2833.9559     0.010823738
       2834.5745   -0.0040662919
       2835.1931   -0.0025483380
       2835.8118     0.016182342
       2836.4304     0.025354853
       2837.0490    0.0050858924
       2837.6676   -0.0040407498
       2838.2862    0.0088643046
       2838.9048     0.025887179
       2839.5234   -0.0093072409
       2840.1421     0.015600233
       2840.7607     0.010094980
       2841.3793     0.025407107
       2841.9979     0.030731762
       2842.6165     0.027504666
       2843.2351     0.015401951
       2843.8537    -0.017402270
       2844.4723    -0.013975768
       2845.0910     0.012845379
       2845.7096     0.018504493
       2846.3282     0.024902982
       2846.9468     0.019955053
       2847.5654     0.020558008
       2848.1840     0.037326197
       2848.8026     0.020039126
       2849.4213  -0.00080940424
       2850.0399     0.013145831
       2850.6585    0.0064328788
       2851.2771     0.019677360
       2851.8957    0.0083204193
       2852.5143     0.022739962
       2853.1329    0.0066688577
       2853.7516    0.0022204813
       2854.3702     0.013401846
       2854.9888     0.022631955
       2855.6074     0.012698298
       2856.2260    -0.010085963
       2856.8446    -0.012412368
       2857.4632     0.026560763
       2858.0818   -0.0016423827
       2858.7005    0.0013709922
       2859.3191    0.0073035197
       2859.9377     0.012299146
       2860.5563   -0.0036466355
       2861.1749     0.011373896
       2861.7935     0.011345615
       2862.4121     0.016098700
       2863.0308     0.034023020
       2863.6494    0.0046218014
       2864.2680     0.015727036
       2864.8866     0.028051671
       2865.5052     0.023499777
       2866.1238     0.024071402
       2866.7424   0.00063614064
       2867.3610     0.012876861
       2867.9797    0.0077324877
       2868.5983     0.031928126
       2869.2169   -0.0063198761
       2869.8355   -0.0075179829
       2870.4541     0.012478350
       2871.0727     0.023481225
       2871.6913     0.025925499
       2872.3100    0.0076571878
       2872.9286    0.0071876570
       2873.5472     0.020443989
       2874.1658     0.015232718
       2874.7844    0.0055644628
       2875.4030    0.0038430619
       2876.0216     0.011630365
       2876.6402     0.015977267
       2877.2589   -0.0059795212
       2877.8775    -0.012362172
       2878.4961     0.020833462
       2879.1147     0.016417468
       2879.7333     0.017502105
       2880.3519     0.021577688
       2880.9705    0.0090494732
       2881.5892    0.0050158359
       2882.2078     0.010469955
       2882.8264     0.018312887
       2883.4450     0.041487097
       2884.0636     0.028986604
       2884.6822     0.011858320
       2885.3008   -0.0036012196
       2885.9194   0.00087099528
       2886.5381     0.028392221
       2887.1567     0.032221681
       2887.7753    0.0083851613
       2888.3939   -0.0079988360
       2889.0125     0.013901720
       2889.6311     0.042411170
       2890.2497     0.035821971
       2890.8684     0.016766323
       2891.4870     0.022149673
       2892.1056     0.027358135
       2892.7242    0.0065064166
       2893.3428   -0.0096168483
       2893.9614  -6.7225654e-05
       2894.5800     0.026965450
       2895.1987     0.030566181
       2895.8173     0.044022615
       2896.4359     0.034821313
       2897.0545     0.028239590
       2897.6731     0.024184258
       2898.2917     0.016431612
       2898.9103     0.018178861
       2899.5289     0.021186420
       2900.1476     0.019987941
       2900.7662     0.024426129
       2901.3848     0.036515215
       2902.0034  -4.1054021e-05
       2902.6220     0.017908377
       2903.2406     0.032448017
       2903.8592     0.014194548
       2904.4779     0.022354251
       2905.0965     0.020722909
       2905.7151     0.012527064
       2906.3337     0.025383181
       2906.9523     0.022852931
       2907.5709     0.028639769
       2908.1895    0.0067018148
       2908.8081     0.011533100
       2909.4268    0.0037284924
       2910.0454    0.0074037276
       2910.6640     0.011854637
       2911.2826     0.022511969
       2911.9012   -0.0058324960
       2912.5198   -0.0075743957
       2913.1384     0.014294120
       2913.7571    0.0067245015
       2914.3757     0.012382867
       2914.9943    0.0098074553
       2915.6129     0.018667673
       2916.2315    0.0022160373
       2916.8501     0.018147177
       2917.4687    0.0095538898
       2918.0873     0.025512268
       2918.7060     0.011505757
       2919.3246     0.018197481
       2919.9432    0.0069056316
       2920.5618     0.010427008
       2921.1804     0.022620346
       2921.7990     0.014951378
       2922.4176    0.0074769491
       2923.0363    0.0079918167
       2923.6549    0.0011842720
       2924.2735    -0.015061820
       2924.8921   -0.0019052559
       2925.5107   -0.0098034058
       2926.1293     0.013014812
       2926.7479     0.017638158
       2927.3665     0.023033912
       2927.9852     0.011212912
       2928.6038     0.037603573
       2929.2224     0.040037186
       2929.8410     0.033784028
       2930.4596     0.019002507
       2931.0782     0.018494619
       2931.6968     0.020393691
       2932.3155     0.025457669
       2932.9341     0.014727249
       2933.5527     0.020271249
       2934.1713     0.029389673
       2934.7899     0.014090101
       2935.4085     0.016040329
       2936.0271     0.027755616
       2936.6457     0.031621565
       2937.2644     0.042852624
       2937.8830    0.0036550346
       2938.5016     0.027917651
       2939.1202     0.027433919
       2939.7388   -0.0048484032
       2940.3574   -0.0017138619
       2940.9760    0.0039812377
       2941.5947     0.034183175
       2942.2133     0.015710355
       2942.8319     0.031072360
       2943.4505     0.031389746
       2944.0691     0.020691071
       2944.6877     0.023018291
       2945.3063     0.047681929
       2945.9250     0.028640331
       2946.5436     0.039343376
       2947.1622     0.037055398
       2947.7808     0.013440532
       2948.3994     0.020503798
       2949.0180     0.019786744
       2949.6366     0.024577440
       2950.2552     0.022323227
       2950.8739     0.037100498
       2951.4925     0.033688892
       2952.1111    0.0095301129
       2952.7297    0.0071169907
       2953.3483     0.017773570
       2953.9669     0.022225081
       2954.5855     0.031242248
       2955.2042     0.018056524
       2955.8228     0.026362327
       2956.4414     0.023335521
       2957.0600     0.036854604
       2957.6786     0.023737234
       2958.2972     0.018683837
       2958.9158     0.026463979
       2959.5344     0.028566698
       2960.1531     0.022864443
       2960.7717     0.027893699
       2961.3903     0.024804365
       2962.0089     0.016389722
       2962.6275    -0.012710809
       2963.2461    0.0036170014
       2963.8647  -0.00091738693
       2964.4834    -0.011875571
       2965.1020   -0.0051642622
       2965.7206     0.021202684
       2966.3392     0.032217709
       2966.9578     0.029944145
       2967.5764     0.045475123
       2968.1950     0.017584673
       2968.8136     0.021806729
       2969.4323     0.030067842
       2970.0509     0.041950054
       2970.6695     0.013981179
       2971.2881    0.0086156414
       2971.9067     0.011365336
       2972.5253     0.012716713
       2973.1439     0.020638381
       2973.7626     0.011371980
       2974.3812     0.028241142
       2974.9998     0.023389095
       2975.6184    0.0029214605
       2976.2370     0.027708801
       2976.8556     0.016117121
       2977.4742     0.029759807
       2978.0928     0.034641987
       2978.7115     0.012973613
       2979.3301     0.031634057
       2979.9487     0.019843867
       2980.5673     0.015394811
       2981.1859    0.0062481360
       2981.8045     0.023285948
       2982.4231     0.019438779
       2983.0418     0.015887447
       2983.6604  -0.00021838690
       2984.2790    0.0045146136
       2984.8976     0.010402839
       2985.5162    0.0079247059
       2986.1348    0.0073044166
       2986.7534     0.022875071
       2987.3721     0.018578531
       2987.9907     0.023044843
       2988.6093    0.0096504312
       2989.2279     0.036367213
       2989.8465     0.039397938
       2990.4651     0.038533535
       2991.0837     0.023530711
       2991.7023     0.021818553
       2992.3210     0.026375312
       2992.9396     0.023915066
       2993.5582     0.023643890
       2994.1768     0.016982747
       2994.7954     0.021490798
       2995.4140     0.013767962
       2996.0326     0.014313415
       2996.6513    0.0034675859
       2997.2699     0.010073391
       2997.8885    0.0072829720
       2998.5071     0.015047395
       2999.1257  -1.2008956e-05
       2999.7443     0.028208721
       3000.3629     0.020771669
       3000.9815    0.0040039022
       3001.6002    0.0014673206
       3002.2188    0.0093312329
       3002.8374     0.017507023
       3003.4560    0.0021381846
       3004.0746     0.020127464
       3004.6932     0.023618195
       3005.3118     0.012859757
       3005.9305     0.012359546
       3006.5491     0.023070489
       3007.1677     0.013857972
       3007.7863     0.021541989
       3008.4049     0.028789291
       3009.0235     0.034253473
       3009.6421     0.022854838
       3010.2607     0.017181532
       3010.8794     0.014598876
       3011.4980     0.017308256
       3012.1166    0.0095375553
       3012.7352     0.020954009
       3013.3538     0.045358462
       3013.9724     0.030962628
       3014.5910     0.029696072
       3015.2097     0.053383472
       3015.8283     0.028386987
       3016.4469     0.015208561
       3017.0655     0.034840328
       3017.6841     0.018827747
       3018.3027     0.037270786
       3018.9213     0.027511402
       3019.5399     0.015316344
       3020.1586     0.035703876
       3020.7772     0.018109512
       3021.3958    0.0059621533
       3022.0144     0.012738995
       3022.6330     0.037932945
       3023.2516   -0.0036402402
       3023.8702   -0.0073591734
       3024.4889    0.0092242410
       3025.1075     0.025137633
       3025.7261     0.030132669
       3026.3447     0.032011595
       3026.9633     0.028409423
       3027.5819     0.039193297
       3028.2005     0.011057708
       3028.8191    0.0021936926
       3029.4378     0.016854307
       3030.0564     0.015488003
       3030.6750    0.0075584230
       3031.2936     0.029356842
       3031.9122     0.034358912
       3032.5308     0.025495064
       3033.1494    0.0045421636
       3033.7681     0.014573784
       3034.3867     0.025308393
       3035.0053     0.019353052
       3035.6239     0.014354976
       3036.2425     0.032469266
       3036.8611     0.023207857
       3037.4797     0.023767325
       3038.0984     0.016337365
       3038.7170     0.055086623
       3039.3356     0.033928459
       3039.9542     0.032839591
       3040.5728     0.033215808
       3041.1914     0.015435229
       3041.8100     0.017274336
       3042.4286     0.011106598
       3043.0473     0.024561617
       3043.6659     0.040507455
       3044.2845     0.028347987
       3044.9031     0.049320272
       3045.5217     0.020328008
       3046.1403     0.025414204
       3046.7589   -0.0018360322
       3047.3776     0.012492186
       3047.9962    0.0044226867
       3048.6148     0.034496083
       3049.2334     0.034566448
       3049.8520     0.036293932
       3050.4706     0.030834462
       3051.0892     0.043022899
       3051.7078     0.039394532
       3052.3265    0.0075982935
       3052.9451    0.0066919344
       3053.5637     0.025014064
       3054.1823    0.0082238274
       3054.8009     0.026640905
       3055.4195     0.031972471
       3056.0381     0.011451273
       3056.6568     0.031725985
       3057.2754     0.030677407
       3057.8940    0.0070616236
       3058.5126     0.032575834
       3059.1312     0.030751309
       3059.7498     0.019624969
       3060.3684    0.0095351129
       3060.9870     0.036313246
       3061.6057     0.013976422
       3062.2243     0.022870572
       3062.8429     0.034524678
       3063.4615     0.026703284
       3064.0801     0.040399015
       3064.6987     0.046776050
       3065.3173     0.035587103
       3065.9360     0.049645007
       3066.5546     0.026993322
       3067.1732     0.026735786
       3067.7918     0.014482487
       3068.4104     0.030159388
       3069.0290     0.028035450
       3069.6476    0.0085360157
       3070.2662     0.015554723
       3070.8849     0.024986672
       3071.5035     0.028874279
       3072.1221     0.011432817
       3072.7407    0.0063411174
       3073.3593    0.0060974573
       3073.9779    0.0042169268
       3074.5965     0.019017679
       3075.2152     0.029697532
       3075.8338     0.034464086
       3076.4524     0.018723508
       3077.0710     0.021441893
       3077.6896    0.0092160468
       3078.3082     0.028402172
       3078.9268     0.017690479
       3079.5455     0.027567908
       3080.1641     0.017937447
       3080.7827     0.022865094
       3081.4013     0.010574849
       3082.0199     0.039504752
       3082.6385  -0.00046397676
       3083.2571    0.0012033121
       3083.8757     0.031283932
       3084.4944   -0.0086018680
       3085.1130   -0.0046269362
       3085.7316     0.048125588
       3086.3502     0.029067814
       3086.9688     0.032753266
       3087.5874     0.027848387
       3088.2060     0.025710484
       3088.8247     0.018246178
       3089.4433     0.021165243
       3090.0619     0.029256559
       3090.6805     0.029353697
       3091.2991     0.014192694
       3091.9177    0.0027398494
       3092.5363   -0.0031126978
       3093.1549     0.039543744
       3093.7736     0.032999393
       3094.3922     0.016253156
       3095.0108    0.0055691425
       3095.6294     0.013505528
       3096.2480    0.0088898499
       3096.8666     0.031657928
       3097.4852     0.019454205
       3098.1039    0.0061290157
       3098.7225     0.010925537
       3099.3411     0.018653005
       3099.9597     0.032794824
       3100.5783     0.032622093
       3101.1969     0.041449611
       3101.8155    0.0068753836
       3102.4341     0.026919377
       3103.0528     0.038594214
       3103.6714     0.024398239
       3104.2900   -0.0040124925
       3104.9086    0.0086328035
       3105.5272     0.033823901
       3106.1458    0.0011036505
       3106.7644   -0.0050034349
       3107.3831     0.019959448
       3108.0017     0.051978584
       3108.6203     0.050211356
       3109.2389     0.022350169
       3109.8575   -0.0023299915
       3110.4761    0.0067871895
       3111.0947   -0.0064782084
       3111.7133   -0.0027107115
       3112.3320    0.0073300498
       3112.9506     0.020524101
       3113.5692    0.0069105168
       3114.1878     0.016815216
       3114.8064     0.030524581
       3115.4250    0.0081085101
       3116.0436    -0.011240870
       3116.6623     0.031525465
       3117.2809     0.037795868
       3117.8995     0.028057407
       3118.5181     0.018682134
       3119.1367   -0.0092105735
       3119.7553     0.025554862
       3120.3739     0.024100756
       3120.9925     0.029297664
       3121.6112     0.016394879
       3122.2298     0.018240701
       3122.8484     0.028237286
       3123.4670     0.019377823
       3124.0856     0.019350720
       3124.7042     0.040294769
       3125.3228     0.016817146
       3125.9415     0.036243454
       3126.5601     0.040111197
       3127.1787     0.015327128
       3127.7973     0.019419544
       3128.4159     0.035226489
       3129.0345     0.015209972
       3129.6531   0.00052915351
       3130.2718     0.017721452
       3130.8904    -0.010755063
       3131.5090    0.0052588117
       3132.1276    0.0058109581
       3132.7462     0.013321025
       3133.3648     0.059354972
       3133.9834     0.021550526
       3134.6020     0.010828538
       3135.2207     0.013501951
       3135.8393     0.031179964
       3136.4579     0.025519983
       3137.0765    0.0095624646
       3137.6951    0.0083146128
       3138.3137     0.015560245
       3138.9323     0.010912377
       3139.5510     0.052970184
       3140.1696     0.012221768
       3140.7882     0.011883163
       3141.4068    0.0044221472
       3142.0254     0.010930306
       3142.6440     0.015983310
       3143.2626     0.016752226
       3143.8812    0.0043086846
       3144.4999    0.0087078222
       3145.1185     0.012918412
       3145.7371     0.033888242
       3146.3557     0.038565576
       3146.9743     0.041324048
       3147.5929     0.039900818
       3148.2115     0.014198522
       3148.8302     0.012852547
       3149.4488     0.010642687
       3150.0674     0.018942418
       3150.6860     0.037928007
       3151.3046     0.025031216
       3151.9232     0.024344055
       3152.5418     0.011689153
       3153.1604     0.031077598
       3153.7791     0.010854208
       3154.3977    0.0038007932
       3155.0163    0.0069833002
       3155.6349     0.043925366
       3156.2535    0.0092742229
       3156.8721    0.0037124513
       3157.4907    0.0093903968
       3158.1094     0.022093326
       3158.7280     0.037211675
       3159.3466     0.028573062
       3159.9652     0.013159695
       3160.5838     0.022897856
       3161.2024    0.0068450738
       3161.8210     0.028966907
       3162.4396    0.0043650341
       3163.0583     0.022070613
       3163.6769     0.024993887
       3164.2955     0.037781526
       3164.9141    0.0065142956
       3165.5327     0.033683863
       3166.1513     0.014040234
       3166.7699    0.0036849859
       3167.3886     0.025637927
       3168.0072     0.024000213
       3168.6258     0.011114586
       3169.2444  -0.00024774773
       3169.8630     0.027612819
       3170.4816     0.054274094
       3171.1002     0.022740094
       3171.7189     0.042253723
       3172.3375     0.029829073
       3172.9561     0.048184888
       3173.5747     0.035536153
       3174.1933     0.018594053
       3174.8119   -0.0074613558
       3175.4305    0.0072496321
       3176.0491     0.025713267
       3176.6678     0.032053366
       3177.2864     0.038981307
       3177.9050     0.052812825
       3178.5236     0.041078272
       3179.1422     0.029874788
       3179.7608     0.023688609
       3180.3794     0.030919623
       3180.9981     0.047296397
       3181.6167     0.032362905
       3182.2353     0.031024903
       3182.8539     0.018960194
       3396.9819     0.026975387
       3397.6703      0.18081140
       3398.3588      0.19313186
       3399.0472      0.23462291
       3399.7356      0.19844813
       3400.4241      0.11179415
       3401.1125     0.022979196
       3401.8010     0.030682356
       3402.4894      0.20789398
       3403.1779      0.17045680
       3403.8663      0.17067515
       3404.5548      0.20410502
       3405.2432      0.25120607
       3405.9317      0.14747860
       3406.6201      0.12649540
       3407.3085     0.039778525
       3407.9970      0.13152782
       3408.6854     0.083229749
       3409.3739     0.071952580
       3410.0623      0.21661640
       3410.7508      0.26584254
       3411.4392      0.12755547
       3412.1277      0.12786861
       3412.8161      0.22199704
       3413.5046      0.12134572
       3414.1930    -0.062744295
       3414.8814      0.20168887
       3415.5699     0.096838219
       3416.2583      0.14516402
       3416.9468      0.21791700
       3417.6352      0.16415235
       3418.3237     0.095664183
       3419.0121      0.20621098
       3419.7006      0.41109688
       3420.3890      0.20430891
       3421.0775      0.10090303
       3421.7659      0.16065396
       3422.4543      0.29306855
       3423.1428      0.23046609
       3423.8312      0.16081512
       3424.5197      0.28857775
       3425.2081      0.12114390
       3425.8966      0.12356403
       3426.5850     0.077890964
       3427.2735      0.10524420
       3427.9619      0.12003190
       3428.6504      0.19465277
       3429.3388   -0.0053438069
       3430.0272     0.058192828
       3430.7157      0.14345544
       3431.4041      0.19300480
       3432.0926      0.14714311
       3432.7810      0.30250117
       3433.4695      0.21528789
       3434.1579     0.093695479
       3434.8464     0.012110520
       3435.5348     0.061467403
       3436.2233     0.054606931
       3436.9117      0.19377234
       3437.6001     0.093204597
       3438.2886      0.18359643
       3438.9770      0.22328978
       3439.6655      0.15515123
       3440.3539      0.13503817
       3441.0424      0.12734643
       3441.7308      0.10729311
       3442.4193      0.16927651
       3443.1077      0.14752313
       3443.7962      0.21067138
       3444.4846      0.10580302
       3445.1730      0.11328922
       3445.8615      0.23466413
       3446.5499      0.25601458
       3447.2384      0.14696826
       3447.9268      0.17039842
       3448.6153     0.070483381
       3449.3037     0.068181229
       3449.9922      0.24115025
       3450.6806     0.020078540
       3451.3691      0.14245618
       3452.0575      0.20288725
       3452.7459      0.21898358
       3453.4344      0.26428674
       3454.1228      0.18309593
       3454.8113      0.17922729
       3455.4997      0.17515797
       3456.1882      0.21751171
       3456.8766      0.27751294
       3457.5651      0.18513585
       3458.2535      0.12209126
       3458.9420      0.13506580
       3459.6304      0.24413944
       3460.3189      0.14499389
       3461.0073     0.017563351
       3461.6957     0.087471579
       3462.3842      0.27125635
       3463.0726      0.31067978
       3463.7611      0.35736150
       3464.4495      0.18316079
       3465.1380      0.11187936
       3465.8264     0.038915765
       3466.5149      0.11194520
       3467.2033      0.10600428
       3467.8918      0.14423027
       3468.5802      0.26181181
       3469.2686      0.13854312
       3469.9571     0.068570615
       3470.6455      0.17041242
       3471.3340      0.15405420
       3472.0224      0.26221871
       3472.7109    -0.030821170
       3473.3993      0.18339567
       3474.0878      0.16585387
       3474.7762   -0.0030820383
       3475.4647      0.33113361
       3476.1531      0.21971074
       3476.8415      0.25207801
       3477.5300      0.13746010
       3478.2184      0.10677625
       3478.9069      0.20071008
       3479.5953      0.21379606
       3480.2838      0.14542584
       3480.9722     0.096282600
       3481.6607      0.25048885
       3482.3491      0.16249015
       3483.0376      0.24314910
       3483.7260      0.31515920
       3484.4144      0.20283296
       3485.1029      0.10044524
       3485.7913      0.17657985
       3486.4798      0.11945939
       3487.1682     0.088616836
       3487.8567     0.092625754
       3488.5451     0.085434873
       3489.2336      0.14444416
       3489.9220     0.070827920
       3490.6105    -0.053192262
       3491.2989      0.20523518
       3491.9873      0.21078079
       3492.6758      0.28580769
       3493.3642      0.14416392
       3494.0527    0.0067711432
       3494.7411      0.17566782
       3495.4296     0.053256068
       3496.1180     0.066649112
       3496.8065      0.14277418
       3497.4949      0.18448945
       3498.1834     0.084056384
       3498.8718      0.19143434
       3499.5602      0.23287229
       3500.2487      0.18100628
       3500.9371     0.085254925
       3501.6256      0.12766321
       3502.3140     0.068337593
       3503.0025      0.17623767
       3503.6909      0.14462626
       3504.3794      0.13442407
       3505.0678      0.16795189
       3505.7563     0.082266957
       3506.4447      0.16505701
       3507.1331     0.065896686
       3507.8216     0.033349367
       3508.5100     0.091513225
       3509.1985     0.038845791
       3509.8869      0.14878935
       3510.5754      0.15681260
       3511.2638    -0.026226693
       3511.9523      0.29677424
       3512.6407      0.21580303
       3513.3292      0.28158076
       3514.0176      0.20292916
       3514.7060      0.24610104
       3515.3945      0.32680273
       3516.0829      0.15677999
       3516.7714     0.033686958
       3517.4598      0.18168827
       3518.1483      0.26005496
       3518.8367      0.36398548
       3519.5252     0.017286686
       3520.2136      0.22058968
       3520.9021      0.26638581
       3521.5905      0.22646944
       3522.2789      0.29220297
       3522.9674      0.11650116
       3523.6558      0.26250355
       3524.3443      0.17902279
       3525.0327      0.21927778
       3525.7212      0.15747993
       3526.4096      0.20039605
       3527.0981      0.25898399
       3527.7865     0.082681894
       3528.4750      0.25861800
       3529.1634      0.14336767
       3529.8518      0.21138040
       3530.5403      0.30041131
       3531.2287      0.12318911
       3531.9172      0.12860649
       3532.6056      0.23002479
       3533.2941      0.13095018
       3533.9825      0.24941622
       3534.6710      0.12276432
       3535.3594      0.23099858
       3536.0479      0.23726560
       3536.7363      0.22264812
       3537.4247      0.18221765
       3538.1132      0.17543994
       3538.8016     0.090998467
       3539.4901     0.022212259
       3540.1785      0.13988898
       3540.8670      0.17218988
       3541.5554      0.10135189
       3542.2439      0.18814553
       3542.9323     0.089560763
       3543.6208      0.10507928
       3544.3092      0.34596770
       3544.9976      0.34502710
       3545.6861      0.16253550
       3546.3745      0.32502988
       3547.0630      0.17288021
       3547.7514      0.15165947
       3548.4399      0.13793182
       3549.1283      0.14613500
       3549.8168      0.19406200
       3550.5052      0.11919455
       3551.1937      0.12940827
       3551.8821      0.22225940
       3552.5705      0.13148486
       3553.2590     0.071159253
       3553.9474      0.12701173
       3554.6359      0.21092101
       3555.3243      0.10390684
       3556.0128      0.17114680
       3556.7012      0.10384613
       3557.3897      0.21186923
       3558.0781      0.15444004
       3558.7666      0.17187731
       3559.4550      0.14762669
       3560.1434      0.14564224
       3560.8319      0.19180015
       3561.5203      0.18740750
       3562.2088      0.10169951
       3562.8972      0.37927909
       3563.5857      0.18963929
       3564.2741      0.10182819
       3564.9626      0.23202354
       3565.6510     0.048581451
       3566.3395      0.20511623
       3567.0279     0.080845425
       3567.7163     0.064648068
       3568.4048      0.13905336
       3569.0932      0.15313125
       3569.7817      0.16061012
       3570.4701     0.090714342
       3571.1586      0.15917251
       3571.8470      0.20923727
       3572.5355      0.21558837
       3573.2239      0.10958555
       3573.9124      0.17085617
       3574.6008      0.10193447
       3575.2892      0.10658524
       3575.9777      0.20974144
       3576.6661      0.18101731
       3577.3546      0.25720666
       3578.0430      0.17004345
       3578.7315      0.22489471
       3579.4199      0.12104522
       3580.1084      0.21888460
       3580.7968      0.10383700
       3581.4853     0.013763198
       3582.1737      0.14309225
       3582.8621      0.15653572
       3583.5506      0.18525259
       3584.2390      0.13202344
       3584.9275      0.21051958
       3585.6159     0.054613147
       3586.3044    0.0092685759
       3586.9928      0.12049132
       3587.6813      0.12517905
       3588.3697      0.27726863
       3589.0582      0.27675748
       3589.7466      0.21850506
       3590.4351      0.12862096
       3591.1235     0.066648785
       3591.8119     0.075960748
       3592.5004     0.064952921
       3593.1888      0.22208509
       3593.8773     0.055254674
       3594.5657      0.30761016
       3595.2542      0.30820939
       3595.9426      0.29800460
       3596.6311     0.067695544
       3597.3195      0.21414111
       3598.0080    -0.058873500
       3598.6964     0.080325398
       3599.3848    -0.011792641
       3600.0733      0.11790747
       3600.7617      0.13107396
       3601.4502      0.24130249
       3602.1386      0.20560811
       3602.8271      0.11669863
       3603.5155      0.17205511
       3604.2040      0.17640450
       3604.8924      0.33131742
       3605.5809     0.092857857
       3606.2693      0.28305059
       3606.9577      0.21843049
       3607.6462      0.21114090
       3608.3346     0.018084217
       3609.0231      0.21584055
       3609.7115      0.18843852
       3610.4000      0.23391018
       3611.0884      0.39571128
       3611.7769      0.20483971
       3612.4653      0.27961411
       3613.1538      0.22047951
       3613.8422      0.32232957
       3614.5306     0.068575280
       3615.2191      0.28465661
       3615.9075     0.059253851
       3616.5960      0.30320999
       3617.2844      0.28129528
       3617.9729     0.071111801
       3618.6613      0.15003534
       3619.3498      0.34768000
       3620.0382      0.14159274
       3620.7267      0.16755608
       3621.4151      0.23440165
       3622.1035      0.28478092
       3622.7920      0.21696896
       3623.4804      0.20421318
       3624.1689      0.20264926
       3624.8573      0.19561099
       3625.5458      0.30444312
       3626.2342      0.14731582
       3626.9227      0.20786163
       3627.6111      0.15933151
       3628.2996      0.13957688
       3628.9880      0.20927503
       3629.6764      0.17715695
       3630.3649      0.22695172
       3631.0533      0.30371766
       3631.7418      0.31064482
       3632.4302      0.71697516
       3633.1187      0.18689852
       3633.8071      0.23968779
       3634.4956    -0.033947883
       3635.1840      0.24379222
       3635.8725      0.60892162
       3636.5609     -0.24465821
       3637.2493      0.16407782
       3637.9378      0.32100300
       3638.6262      0.18310220
       3639.3147    -0.041547816
       3640.0031      0.32732411
       3640.6916     0.099429352
       3641.3800      0.19357808
       3642.0685      0.35638803
       3642.7569      0.25708844
       3643.4454      0.21216498
       3644.1338      0.28326092
       3644.8222      0.13696407
       3645.5107      0.32175872
       3646.1991      0.31563618
       3646.8876      0.38147796
       3647.5760      0.16038796
       3648.2645      0.30917474
       3648.9529      0.47938888
       3649.6414      0.29753522
       3650.3298      0.25548758
       3651.0183      0.38434476
       3651.7067      0.28204819
       3652.3951      0.23407009
       3653.0836      0.33292775
       3653.7720      0.30158972
       3654.4605      0.29496944
       3655.1489      0.17247350
       3655.8374      0.28385388
       3656.5258      0.22591315
       3657.2143      0.21158316
       3657.9027      0.20180534
       3658.5912      0.11439893
       3659.2796      0.19718238
       3659.9680      0.16297204
       3660.6565      0.37202198
       3661.3449      0.34691586
       3662.0334     0.056462678
       3662.7218      0.29633060
       3663.4103      0.15449624
       3664.0987      0.25688962
       3664.7872      0.22934323
       3665.4756      0.33900213
       3666.1641      0.24322521
       3666.8525      0.11102515
       3667.5409      0.30318286
       3668.2294      0.26694405
       3668.9178      0.33142727
       3669.6063      0.12635523
       3670.2947      0.29104616
       3670.9832      0.12950487
       3671.6716      0.36831853
       3672.3601      0.13588153
       3673.0485      0.10253450
       3673.7370     0.039728799
       3674.4254      0.17285521
       3675.1138     0.026744094
       3675.8023      0.17654867
       3676.4907      0.14896663
       3677.1792      0.27745171
       3677.8676      0.32830235
       3678.5561      0.13536281
       3679.2445      0.24992995
       3679.9330      0.19747427
       3680.6214      0.22669837
       3681.3099      0.13043863
       3681.9983      0.38088848
       3682.6867      0.11029615
       3683.3752      0.17770550
       3684.0636      0.32247823
       3684.7521      0.32493349
       3685.4405      0.27267175
       3686.1290      0.29768490
       3686.8174      0.28016709
       3687.5059      0.21007752
       3688.1943      0.40749551
       3688.8828      0.23681977
       3689.5712      0.19380859
       3690.2596      0.21330132
       3690.9481      0.30780182
       3691.6365      0.10479789
       3692.3250      0.15837822
       3693.0134      0.16336565
       3693.7019      0.27488499
       3694.3903      0.23446251
       3695.0788      0.24044550
       3695.7672      0.30752598
       3696.4557      0.35096116
       3697.1441      0.29443956
       3697.8325      0.23563581
       3698.5210      0.42078169
       3699.2094      0.34594448
       3699.8979      0.25165510
       3700.5863      0.22873841
       3701.2748      0.13041594
       3701.9632      0.19757911
       3702.6517      0.21463976
       3703.3401      0.24390571
       3704.0286      0.23283883
       3704.7170      0.16434521
       3705.4054     0.057495915
       3706.0939      0.31660101
       3706.7823      0.14785602
       3707.4708      0.30796879
       3708.1592      0.19812902
       3708.8477      0.29303360
       3709.5361      0.19897005
       3710.2246      0.13395289
       3710.9130      0.23943830
       3711.6015      0.27694948
       3712.2899      0.28726392
       3712.9784      0.24109435
       3713.6668      0.33662829
       3714.3552      0.32197171
       3715.0437      0.29436151
       3715.7321      0.27843975
       3716.4206      0.27017074
       3717.1090      0.43102484
       3717.7975      0.21521006
       3718.4859      0.34789009
       3719.1744      0.22546190
       3719.8628      0.10236734
       3720.5513      0.12623963
       3721.2397      0.29809438
       3721.9281      0.32321279
       3722.6166      0.38415059
       3723.3050      0.37530549
       3723.9935      0.47382145
       3724.6819      0.62705038
       3725.3704      0.57769619
       3726.0588      0.79589728
       3726.7473      0.75348192
       3727.4357      0.69640276
       3728.1242      0.73316643
       3728.8126      0.69305751
       3729.5010      0.60526755
       3730.1895      0.46063540
       3730.8779      0.65316146
       3731.5664      0.65839667
       3732.2548      0.38951929
       3732.9433      0.27145987
       3733.6317      0.21636715
       3734.3202     0.078192297
       3735.0086      0.13028580
       3735.6971      0.17829253
       3736.3855      0.19221222
       3737.0739      0.16777755
       3737.7624      0.20208335
       3738.4508     0.057210588
       3739.1393      0.29063126
       3739.8277     0.074550349
       3740.5162      0.26872650
       3741.2046      0.18831443
       3741.8931      0.20945113
       3742.5815      0.23656776
       3743.2700      0.34310567
       3743.9584     0.077260202
       3744.6468      0.27322303
       3745.3353      0.18680408
       3746.0237      0.22357418
       3746.7122      0.15440403
       3747.4006      0.24654040
       3748.0891      0.29372231
       3748.7775      0.19276826
       3749.4660      0.15821474
       3750.1544      0.22905342
       3750.8429      0.14035619
       3751.5313      0.15857725
       3752.2197      0.28337867
       3752.9082      0.19994055
       3753.5966      0.17939263
       3754.2851      0.27490922
       3754.9735      0.18018866
       3755.6620      0.29212236
       3756.3504      0.22821751
       3757.0389      0.30966838
       3757.7273      0.23315876
       3758.4158      0.29969113
       3759.1042      0.33195028
       3759.7926      0.21069882
       3760.4811      0.21573177
       3761.1695      0.13353283
       3761.8580      0.15576557
       3762.5464     0.027576075
       3763.2349      0.29531296
       3763.9233      0.28663387
       3764.6118      0.25865530
       3765.3002      0.11619869
       3765.9887      0.27195392
       3766.6771      0.23513805
       3767.3655      0.36306386
       3768.0540      0.12603773
       3768.7424      0.16899414
       3769.4309      0.22678367
       3770.1193      0.15422215
       3770.8078      0.10612399
       3771.4962      0.28167260
       3772.1847      0.17802087
       3772.8731      0.19160624
       3773.5616      0.30637822
       3774.2500      0.30213676
       3774.9384      0.34325508
       3775.6269      0.23888340
       3776.3153      0.28834170
       3777.0038      0.20586227
       3777.6922      0.26640127
       3778.3807      0.31136438
       3779.0691      0.14781933
       3779.7576      0.17406553
       3780.4460      0.29792453
       3781.1345      0.31671659
       3781.8229      0.24908985
       3782.5113      0.30536500
       3783.1998      0.25269547
       3783.8882      0.36186574
       3784.5767      0.28038366
       3785.2651      0.33547217
       3785.9536      0.28605792
       3786.6420      0.31151778
       3787.3305      0.33140034
       3788.0189      0.24316373
       3788.7074      0.24524659
       3789.3958      0.19043112
       3790.0842      0.24318375
       3790.7727      0.29336948
       3791.4611      0.27757851
       3792.1496      0.26658617
       3792.8380      0.17402270
       3793.5265      0.18910897
       3794.2149      0.14825934
       3794.9034      0.15112306
       3795.5918      0.46074710
       3796.2803      0.34490718
       3796.9687      0.16305937
       3797.6571      0.26106186
       3798.3456      0.34381577
       3799.0340      0.16077504
       3799.7225      0.24810919
       3800.4109      0.15909486
       3801.0994      0.19792844
       3801.7878      0.26365477
       3802.4763      0.11388081
       3803.1647      0.25974777
       3803.8532      0.22297745
       3804.5416      0.31064631
       3805.2300      0.18428609
       3805.9185      0.32325896
       3806.6069     0.080961547
       3807.2954      0.23194859
       3807.9838      0.42261176
       3808.6723      0.22366945
       3809.3607      0.15393142
       3810.0492     0.092102931
       3810.7376      0.29398609
       3811.4261      0.24487127
       3812.1145      0.30827147
       3812.8029      0.23055530
       3813.4914      0.28320324
       3814.1798      0.18449410
       3814.8683     0.082790335
       3815.5567      0.25818450
       3816.2452      0.28408522
       3816.9336      0.18990265
       3817.6221      0.24086823
       3818.3105      0.31957110
       3818.9990      0.21366236
       3819.6874      0.21849797
       3820.3758      0.28420566
       3821.0643      0.16460273
       3821.7527      0.20344477
       3822.4412      0.18401410
       3823.1296      0.25322822
       3823.8181      0.21900760
       3824.5065      0.21880010
       3825.1950      0.20044233
       3825.8834      0.15092600
       3826.5719      0.23816302
       3827.2603      0.17970684
       3827.9487      0.18654075
       3828.6372      0.12301440
       3829.3256      0.22335604
       3830.0141      0.17873918
       3830.7025      0.15642590
       3831.3910      0.17791995
       3832.0794      0.16038348
       3832.7679      0.21952385
       3833.4563     0.030469644
       3834.1448      0.17987748
       3834.8332     0.067245391
       3835.5216     0.028999460
       3836.2101     0.031290474
       3836.8985     0.063839493
       3837.5870      0.12349421
       3838.2754      0.15634630
       3838.9639      0.20466806
       3839.6523      0.26645435
       3840.3408      0.14474923
       3841.0292      0.27148902
       3841.7177     0.057741896
       3842.4061     0.053905871
       3843.0946      0.10616252
       3843.7830      0.32888342
       3844.4714      0.17917680
       3845.1599      0.41088112
       3845.8483     0.054508783
       3846.5368      0.21509223
       3847.2252      0.24264279
       3847.9137      0.27824444
       3848.6021      0.31316942
       3849.2906      0.17716463
       3849.9790      0.25150872
       3850.6675      0.29241618
       3851.3559      0.12005602
       3852.0443      0.18889425
       3852.7328      0.24110799
       3853.4212      0.33533887
       3854.1097      0.15168559
       3854.7981      0.34802664
       3855.4866      0.27737245
       3856.1750      0.28692101
       3856.8635      0.22156906
       3857.5519      0.23654855
       3858.2404      0.24573329
       3858.9288      0.20063817
       3859.6172      0.29257177
       3860.3057      0.31283700
       3860.9941      0.18805015
       3861.6826      0.40790635
       3862.3710      0.12447182
       3863.0595      0.28985371
       3863.7479      0.36621018
       3864.4364      0.23254244
       3865.1248      0.38018952
       3865.8133      0.33913493
       3866.5017      0.27501649
       3867.1901      0.37226431
       3867.8786      0.50582354
       3868.5670      0.54333489
       3869.2555      0.49230285
       3869.9439      0.34629335
       3870.6324      0.31623715
       3871.3208      0.34626418
       3872.0093      0.44223677
       3872.6977      0.43611807
       3873.3862      0.26750282
       3874.0746      0.33185386
       3874.7630      0.29442134
       3875.4515      0.36634059
       3876.1399      0.18572700
       3876.8284      0.22749640
       3877.5168      0.27764362
       3878.2053      0.36378933
       3878.8937      0.35236547
       3879.5822      0.24067284
       3880.2706      0.31202531
       3880.9591      0.24540275
       3881.6475      0.38147517
       3882.3359      0.30671700
       3883.0244      0.28876666
       3883.7128      0.23698666
       3884.4013      0.26400048
       3885.0897      0.20163701
       3885.7782      0.26698598
       3886.4666      0.16773302
       3887.1551      0.15501416
       3887.8435      0.32334638
       3888.5320      0.23328804
       3889.2204      0.18098563
       3889.9088      0.21912200
       3890.5973      0.27269147
       3891.2857      0.37303051
       3891.9742      0.31241072
       3892.6626      0.32708405
       3893.3511      0.17473315
       3894.0395      0.16022823
       3894.7280      0.12206008
       3895.4164      0.21693158
       3896.1049      0.23274225
       3896.7933      0.25822776
       3897.4817      0.10294865
       3898.1702      0.35074927
       3898.8586      0.17783133
       3899.5471      0.31189438
       3900.2355      0.32801186
       3900.9240      0.18968057
       3901.6124      0.24536977
       3902.3009      0.25480599
       3902.9893      0.11071328
       3903.6778      0.24373367
       3904.3662      0.22758636
       3905.0546     0.095176245
       3905.7431      0.27744568
       3906.4315      0.14377469
       3907.1200      0.23112747
       3907.8084      0.20778475
       3908.4969      0.28717072
       3909.1853      0.24084653
       3909.8738      0.15079100
       3910.5622      0.28318437
       3911.2507     0.090485115
       3911.9391      0.29391601
       3912.6275      0.38472349
       3913.3160      0.29491491
       3914.0044      0.21903041
       3914.6929      0.32371618
       3915.3813      0.36705649
       3916.0698      0.27326145
       3916.7582      0.27980831
       3917.4467      0.32145403
       3918.1351      0.27323955
       3918.8236      0.43482446
       3919.5120      0.24129312
       3920.2004      0.35436476
       3920.8889      0.31178804
       3921.5773      0.32497415
       3922.2658      0.14750127
       3922.9542      0.18563240
       3923.6427      0.24216713
       3924.3311      0.32689104
       3925.0196      0.24666977
       3925.7080      0.36662374
       3926.3965      0.27000934
       3927.0849      0.27254643
       3927.7733      0.19278522
       3928.4618      0.26777945
       3929.1502      0.24238162
       3929.8387     0.052500672
       3930.5271      0.11788469
       3931.2156      0.29497945
       3931.9040      0.14304402
       3932.5925      0.19865339
       3933.2809      0.18722829
       3933.9694      0.10440902
       3934.6578     0.068593799
       3935.3462     0.080763866
       3936.0347      0.10092571
       3936.7231      0.16100561
       3937.4116      0.13691138
       3938.1000      0.18540933
       3938.7885      0.20609234
       3939.4769      0.30107801
       3940.1654      0.13916749
       3940.8538      0.10389391
       3941.5423      0.17398319
       3942.2307      0.25167625
       3942.9191      0.20586285
       3943.6076      0.26349407
       3944.2960      0.37234748
       3944.9845      0.27016943
       3945.6729      0.32333552
       3946.3614      0.14929970
       3947.0498      0.32593640
       3947.7383      0.42126710
       3948.4267      0.32585454
       3949.1152      0.24854157
       3949.8036      0.36773783
       3950.4920      0.27142362
       3951.1805      0.27685321
       3951.8689      0.34939523
       3952.5574      0.33172559
       3953.2458      0.37603958
       3953.9343      0.30262680
       3954.6227      0.22953220
       3955.3112      0.41307263
       3955.9996      0.36302663
       3956.6881      0.36446378
       3957.3765      0.23732086
       3958.0649      0.27294517
       3958.7534      0.25714510
       3959.4418      0.38611259
       3960.1303      0.33064955
       3960.8187      0.31996115
       3961.5072      0.14989677
       3962.1956      0.26670565
       3962.8841      0.35791778
       3963.5725      0.21864555
       3964.2610      0.21235699
       3964.9494      0.21364435
       3965.6378      0.41012085
       3966.3263      0.22071995
       3967.0147     0.099789456
       3967.7032      0.12700620
       3968.3916      0.27440454
       3969.0801      0.14123720
       3969.7685      0.20874227
       3970.4570      0.19391260
       3971.1454      0.15493383
       3971.8339      0.19757048
       3972.5223      0.20178568
       3973.2108      0.19830321
       3973.8992      0.11621228
       3974.5876      0.10644278
       3975.2761      0.27976489
       3975.9645      0.19750417
       3976.6530      0.14684345
       3977.3414      0.21398206
       3978.0299      0.23771423
       3978.7183      0.37180547
       3979.4068      0.31647015
       3980.0952      0.38246136
       3980.7837      0.22622262
       3981.4721      0.23837656
       3982.1605      0.31587561
       3982.8490      0.15923057
       3983.5374      0.33408116
       3984.2259      0.32197061
       3984.9143      0.29598151
       3985.6028      0.25116913
       3986.2912      0.31343654
       3986.9797      0.35167086
       3987.6681      0.42503924
       3988.3566      0.42909756
       3989.0450      0.41337336
       3989.7334      0.37340540
       3990.4219      0.37036236
       3991.1103      0.38353525
       3991.7988      0.37721085
       3992.4872      0.33437039
       3993.1757      0.44538729
       3993.8641      0.42479234
       3994.5526      0.40076218
       3995.2410      0.30207182
       3995.9295      0.36186515
       3996.6179      0.36840291
       3997.3063      0.37113737
       3997.9948      0.35956014
       3998.6832      0.47687914
       3999.3717      0.37850200
       4000.0601      0.40762502
       4000.7486      0.38323312
       4001.4370      0.20086083
       4002.1255      0.37293503
       4002.8139      0.40308952
       4003.5024      0.34488113
       4004.1908      0.39054588
       4004.8792      0.33864924
       4005.5677      0.38803040
       4006.2561      0.44081624
       4006.9446      0.38534560
       4007.6330      0.43154786
       4008.3215      0.38368691
       4009.0099      0.38866849
       4009.6984      0.37538528
       4010.3868      0.34961309
       4011.0753      0.28764604
       4011.7637      0.39613275
       4012.4521      0.38858392
       4013.1406      0.55991813
       4013.8290      0.33568513
       4014.5175      0.45760404
       4015.2059      0.29420898
       4015.8944      0.31542273
       4016.5828      0.34144926
       4017.2713      0.29794953
       4017.9597      0.35223270
       4018.6482      0.38599850
       4019.3366      0.41776759
       4020.0250      0.40301537
       4020.7135      0.43909559
       4021.4019      0.38090734
       4022.0904      0.36453241
       4022.7788      0.39997036
       4023.4673      0.47689000
       4024.1557      0.38302236
       4024.8442      0.52425472
       4025.5326      0.66113491
       4026.2211      0.52088219
       4026.9095      0.50437337
       4027.5979      0.42348507
       4028.2864      0.46807555
       4028.9748      0.24413568
       4029.6633      0.42159906
       4030.3517      0.39879658
       4031.0402      0.34925278
       4031.7286      0.41737957
       4032.4171      0.45008693
       4033.1055      0.12776881
       4033.7940      0.38407728
       4034.4824      0.36515401
       4035.1708      0.44118679
       4035.8593      0.39950537
       4036.5477      0.34711424
       4037.2362      0.39757985
       4037.9246      0.41499972
       4038.6131      0.53355450
       4039.3015      0.45001617
       4039.9900      0.37993626
       4040.6784      0.28421691
       4041.3669      0.43876694
       4042.0553      0.41030397
       4042.7437      0.37222464
       4043.4322      0.32925611
       4044.1206      0.33565706
       4044.8091      0.29677099
       4045.4975      0.34125411
       4046.1860      0.29624088
       4046.8744      0.34694007
       4047.5629      0.35076660
       4048.2513      0.29077300
       4048.9398      0.44230931
       4049.6282      0.34315140
       4050.3166      0.33492016
       4051.0051      0.34529429
       4051.6935      0.32153308
       4052.3820      0.31719759
       4053.0704      0.31068647
       4053.7589      0.39372675
       4054.4473      0.28112723
       4055.1358      0.36446188
       4055.8242      0.31805864
       4056.5127      0.33141009
       4057.2011      0.39828473
       4057.8895      0.39876320
       4058.5780      0.40780844
       4059.2664      0.40678201
       4059.9549      0.41640961
       4060.6433      0.54831949
       4061.3318      0.38645431
       4062.0202      0.44506741
       4062.7087      0.35174208
       4063.3971      0.39615287
       4064.0856      0.43780045
       4064.7740      0.40352367
       4065.4624      0.30793665
       4066.1509      0.33606184
       4066.8393      0.36741274
       4067.5278      0.41044315
       4068.2162      0.37195082
       4068.9047      0.48898591
       4069.5931      0.49576548
       4070.2816      0.33461153
       4070.9700      0.33746883
       4071.6585      0.46103332
       4072.3469      0.41405647
       4073.0353      0.30595256
       4073.7238      0.35540305
       4074.4122      0.31496559
       4075.1007      0.35228150
       4075.7891      0.52710611
       4076.4776      0.44160395
       4077.1660      0.34523087
       4077.8545      0.31303651
       4078.5429      0.34089849
       4079.2314      0.33991774
       4079.9198      0.40239422
       4080.6082      0.27204255
       4081.2967      0.40659693
       4081.9851      0.35442178
       4082.6736      0.32478156
       4083.3620      0.47729295
       4084.0505      0.48533452
       4084.7389      0.27430492
       4085.4274      0.40227369
       4086.1158      0.33493389
       4086.8043      0.39867813
       4087.4927      0.51044103
       4088.1811      0.44766008
       4088.8696      0.37210305
       4089.5580      0.46357993
       4090.2465      0.29581241
       4090.9349      0.65329146
       4091.6234      0.51384451
       4092.3118      0.45224794
       4093.0003      0.38182546
       4093.6887      0.42903310
       4094.3772      0.42879784
       4095.0656      0.38301250
       4095.7540      0.61434570
       4096.4425      0.44445806
       4097.1309      0.40804778
       4097.8194      0.38517646
       4098.5078      0.32255593
       4099.1963      0.23229474
       4099.8847      0.43075042
       4100.5732      0.34136480
       4101.2616      0.27063034
       4101.9501      0.36589250
       4102.6385      0.37189680
       4103.3270      0.35241443
       4104.0154      0.43689172
       4104.7038      0.41179708
       4105.3923      0.44398628
       4106.0807      0.35830418
       4106.7692      0.38081421
       4107.4576      0.32956753
       4108.1461      0.36354086
       4108.8345      0.32138359
       4109.5230      0.45224409
       4110.2114      0.34343626
       4110.8999      0.55024537
       4111.5883      0.34622371
       4112.2767      0.42313004
       4112.9652      0.36629724
       4113.6536      0.37863746
       4114.3421      0.41599802
       4115.0305      0.37450383
       4115.7190      0.32334027
       4116.4074      0.43770722
       4117.0959      0.38408503
       4117.7843      0.42444181
       4118.4728      0.40148930
       4119.1612      0.40499655
       4119.8496      0.41877841
       4120.5381      0.51339550
       4121.2265      0.47803417
       4121.9150      0.39064126
       4122.6034      0.33287934
       4123.2919      0.49925203
       4123.9803      0.41611925
       4124.6688      0.50476052
       4125.3572      0.49532910
       4126.0457      0.48691212
       4126.7341      0.48418653
       4127.4225      0.41287378
       4128.1110      0.46698765
       4128.7994      0.38544171
       4129.4879      0.44960159
       4130.1763      0.45380801
       4130.8648      0.37793943
       4131.5532      0.28235505
       4132.2417      0.41779772
       4132.9301      0.31753330
       4133.6186      0.34928911
       4134.3070      0.42265794
       4134.9954      0.27435444
       4135.6839      0.36716720
       4136.3723      0.40040953
       4137.0608      0.36934519
       4137.7492      0.26984173
       4138.4377      0.33472130
       4139.1261      0.25438404
       4139.8146      0.37559572
       4140.5030      0.40256089
       4141.1915      0.48947443
       4141.8799      0.40791967
       4142.5683      0.48214405
       4143.2568      0.46141945
       4143.9452      0.45565414
       4144.6337      0.45368356
       4145.3221      0.51812779
       4146.0106      0.38714429
       4146.6990      0.44464917
       4147.3875      0.49597465
       4148.0759      0.24757757
       4148.7644      0.37536628
       4149.4528      0.43718725
       4150.1412      0.36633856
       4150.8297      0.33871992
       4151.5181      0.40735965
       4152.2066      0.54496988
       4152.8950      0.39436403
       4153.5835      0.39663103
       4154.2719      0.36369003
       4154.9604      0.45534544
       4155.6488      0.36464436
       4156.3373      0.40258696
       4157.0257      0.46634130
       4157.7141      0.39338419
       4158.4026      0.39885316
       4159.0910      0.43918183
       4159.7795      0.37411635
       4160.4679      0.31757125
       4161.1564      0.42306204
       4161.8448      0.37003153
       4162.5333      0.41650074
       4163.2217      0.46565579
       4163.9102      0.35371615
       4164.5986      0.34260496
       4165.2870      0.40621863
       4165.9755      0.42064474
       4166.6639      0.49141517
       4167.3524      0.37503413
       4168.0408      0.42639555
       4168.7293      0.39030805
       4169.4177      0.39143771
       4170.1062      0.48443970
       4170.7946      0.36510437
       4171.4831      0.35270673
       4172.1715      0.39833631
       4172.8599      0.43519173
       4173.5484      0.44759427
       4174.2368      0.44654802
       4174.9253      0.47406387
       4175.6137      0.40830896
       4176.3022      0.47919054
       4176.9906      0.41574556
       4177.6791      0.25338142
       4178.3675      0.44948186
       4179.0560      0.45898602
       4179.7444      0.31670707
       4180.4328      0.36132242
       4181.1213      0.36826744
       4181.8097      0.49665706
       4182.4982      0.23668389
       4183.1866      0.30805016
       4183.8751      0.38936902
       4184.5635      0.44085348
       4185.2520      0.25615358
       4185.9404      0.50779579
       4186.6289      0.31314390
       4187.3173      0.30527729
       4188.0057      0.48569598
       4188.6942      0.37454577
       4189.3826      0.41253793
       4190.0711      0.55289242
       4190.7595      0.45571627
       4191.4480      0.46124184
       4192.1364      0.42871955
       4192.8249      0.38748131
       4193.5133      0.46104067
       4194.2018      0.33503791
       4194.8902      0.36607384
       4195.5786      0.45891246
       4196.2671      0.32032876
       4196.9555      0.42663626
       4197.6440      0.41523530
       4198.3324      0.38436411
       4199.0209      0.40778318
       4199.7093      0.61482975
       4200.3978      0.35353411
       4201.0862      0.57933684
       4201.7747      0.71913781
       4202.4631      0.52708675
       4203.1515      0.46079977
       4203.8400      0.37685484
       4204.5284      0.39210861
       4205.2169      0.41948942
       4205.9053      0.41778784
       4206.5938      0.48909118
       4207.2822      0.46892393
       4207.9707      0.44617740
       4208.6591      0.45103398
       4209.3476      0.34366729
       4210.0360      0.45154550
       4210.7244      0.58628915
       4211.4129      0.47120297
       4212.1013      0.45544459
       4212.7898      0.42585408
       4213.4782      0.51118574
       4214.1667      0.38551052
       4214.8551      0.47057933
       4215.5436      0.43117158
       4216.2320      0.43634360
       4216.9205      0.45180697
       4217.6089      0.42987721
       4218.2973      0.44712603
       4218.9858      0.52446672
       4219.6742      0.41197236
       4220.3627      0.53218245
       4221.0511      0.43712662
       4221.7396      0.43684538
       4222.4280      0.54098243
       4223.1165      0.53108929
       4223.8049      0.47447312
       4224.4934      0.54723949
       4225.1818      0.49706667
       4225.8702      0.43924885
       4226.5587      0.41013435
       4227.2471      0.42859643
       4227.9356      0.45260317
       4228.6240      0.45878688
       4229.3125      0.30981976
       4230.0009      0.40202006
       4230.6894      0.42598931
       4231.3778      0.46254293
       4232.0663      0.55150887
       4232.7547      0.52847449
       4233.4432      0.40255265
       4234.1316      0.39396707
       4234.8200      0.46635007
       4235.5085      0.45831858
       4236.1969      0.51926930
       4236.8854      0.47663937
       4237.5738      0.52169785
       4238.2623      0.51561411
       4238.9507      0.44959815
       4239.6392      0.61231407
       4240.3276      0.30527113
       4241.0161      0.25419560
       4241.7045      0.48944381
       4242.3929      0.44393902
       4243.0814      0.36999292
       4243.7698      0.41169973
       4244.4583      0.40279184
       4245.1467      0.25544271
       4245.8352      0.31740572
       4246.5236      0.47813996
       4247.2121      0.47228097
       4247.9005      0.46973904
       4248.5890      0.36370532
       4249.2774      0.39286526
       4249.9658      0.48699901
       4250.6543      0.39129842
       4251.3427      0.41030843
       4252.0312      0.54781641
       4252.7196      0.50116888
       4253.4081      0.51388309
       4254.0965      0.46259487
       4254.7850      0.33989174
       4255.4734      0.22396843
       4256.1619      0.49307210
       4256.8503      0.37294032
       4257.5387      0.59656493
       4258.2272      0.45863789
       4258.9156      0.45949492
       4259.6041      0.51052432
       4260.2925      0.47010699
       4260.9810      0.46215832
       4261.6694      0.47511958
       4262.3579      0.54351742
       4263.0463      0.35616158
       4263.7348      0.53400642
       4264.4232      0.58360618
       4265.1116      0.54171404
       4265.8001      0.55198767
       4266.4885      0.62538519
       4267.1770      0.36476776
       4267.8654      0.45465756
       4268.5539      0.38244860
       4269.2423      0.44254840
       4269.9308      0.51974518
       4270.6192      0.50424977
       4271.3077      0.46593352
       4271.9961      0.41451699
       4272.6845      0.50086669
       4273.3730      0.39818807
       4274.0614      0.49363856
       4274.7499      0.47970381
       4275.4383      0.44919545
       4276.1268      0.51835919
       4276.8152      0.55788902
       4277.5037      0.46020338
       4278.1921      0.39473773
       4278.8806      0.39192696
       4279.5690      0.53325430
       4280.2574      0.43248239
       4280.9459      0.48781094
       4281.6343      0.56738319
       4282.3228      0.43388558
       4283.0112      0.46805750
       4283.6997      0.44434252
       4284.3881      0.51135879
       4285.0766      0.50217819
       4285.7650      0.59058647
       4286.4535      0.47023393
       4287.1419      0.63625980
       4287.8303      0.56775470
       4288.5188      0.40959201
       4289.2072      0.35001035
       4289.8957      0.43514437
       4290.5841      0.33642055
       4291.2726      0.43626827
       4291.9610      0.37554340
       4292.6495      0.44348895
       4293.3379      0.50350195
       4294.0264      0.42023532
       4294.7148      0.48188671
       4295.4032      0.39726688
       4296.0917      0.43684654
       4296.7801      0.29107160
       4297.4686      0.29010633
       4298.1570      0.35254165
       4298.8455      0.44259759
       4299.5339      0.39022059
       4300.2224      0.50061290
       4300.9108      0.39518691
       4301.5993      0.33829323
       4302.2877      0.36666666
       4302.9761      0.40131807
       4303.6646      0.47902584
       4304.3530      0.44389188
       4305.0415      0.31938498
       4305.7299      0.37308189
       4306.4184      0.38299767
       4307.1068      0.40104853
       4307.7953      0.35737838
       4308.4837      0.36168577
       4309.1722      0.30227190
       4309.8606      0.34003370
       4310.5490      0.27273732
       4311.2375      0.39078579
       4311.9259      0.32163025
       4312.6144      0.40710361
       4313.3028      0.44054493
       4313.9913      0.53341261
       4314.6797      0.44469354
       4315.3682      0.34580590
       4316.0566      0.49918360
       4316.7451      0.53034245
       4317.4335      0.52738135
       4318.1219      0.40545812
       4318.8104      0.48964332
       4319.4988      0.42579409
       4320.1873      0.44821924
       4320.8757      0.46015231
       4321.5642      0.61700486
       4322.2526      0.58939522
       4322.9411      0.45725707
       4323.6295      0.54357728
       4324.3180      0.55613308
       4325.0064      0.44474371
       4325.6948      0.46122190
       4326.3833      0.46359374
       4327.0717      0.43741148
       4327.7602      0.45150325
       4328.4486      0.47631927
       4329.1371      0.45748041
       4329.8255      0.57242420
       4330.5140      0.61840110
       4331.2024      0.49658382
       4331.8909      0.42943436
       4332.5793      0.49492944
       4333.2677      0.54694879
       4333.9562      0.45692178
       4334.6446      0.52324320
       4335.3331      0.51795940
       4336.0215      0.51286988
       4336.7100      0.46679311
       4337.3984      0.48915670
       4338.0869      0.51289649
       4338.7753      0.54587719
       4339.4638      0.44051112
       4340.1522      0.39940369
       4340.8406      0.52051949
       4341.5291      0.62848759
       4342.2175      0.50584745
       4342.9060      0.45880630
       4343.5944      0.48375892
       4344.2829      0.43724113
       4344.9713      0.36470028
       4345.6598      0.56936875
       4346.3482      0.50028883
       4347.0367      0.41906818
       4347.7251      0.40905671
       4348.4135      0.44137160
       4349.1020      0.37381299
       4349.7904      0.47936260
       4350.4789      0.49383537
       4351.1673      0.59483204
       4351.8558      0.63373965
       4352.5442      0.55780462
       4353.2327      0.63989625
       4353.9211      0.59049940
       4354.6096      0.42046821
       4355.2980      0.56314903
       4355.9865      0.51110976
       4356.6749      0.42563365
       4357.3633      0.57303666
       4358.0518      0.54265265
       4358.7402      0.47892556
       4359.4287      0.56706114
       4360.1171      0.53636741
       4360.8056      0.46372741
       4361.4940      0.52662005
       4362.1825      0.50857345
       4362.8709      0.49458375
       4363.5594      0.53320015
       4364.2478      0.62292950
       4364.9362      0.54758220
       4365.6247      0.56102227
       4366.3131      0.49188731
       4367.0016      0.50613474
       4367.6900      0.53113294
       4368.3785      0.48024301
       4369.0669      0.54113374
       4369.7554      0.46344505
       4370.4438      0.53944747
       4371.1323      0.36354291
       4371.8207      0.71910328
       4372.5091      0.68559404
       4373.1976      0.47338802
       4373.8860      0.48253475
       4374.5745      0.49575507
       4375.2629      0.50012530
       4375.9514      0.53642682
       4376.6398      0.42687641
       4377.3283      0.44764960
       4378.0167      0.50210000
       4378.7052      0.43795833
       4379.3936      0.40487782
       4380.0820      0.55234050
       4380.7705      0.62912941
       4381.4589      0.61856417
       4382.1474      0.59959952
       4382.8358      0.68621415
       4383.5243      0.60095009
       4384.2127      0.59581555
       4384.9012      0.42077687
       4385.5896      0.43943143
       4386.2781      0.41241913
       4386.9665      0.27173887
       4387.6549      0.15161320
       4388.3434             NaN
       4389.0318             NaN
       4389.7203             NaN
       4390.4087             NaN
       4391.0972             NaN
       4391.7856             NaN
       4392.4741             NaN
       4393.1625             NaN
       4393.8510             NaN
       4394.5394             NaN
       4395.2278             NaN
       4395.9163             NaN
       4396.6047             NaN
       4397.2932             NaN
       4397.9816             NaN
       4398.6701             NaN
       4399.3585             NaN
       4400.0470             NaN
       4400.7354             NaN
       4401.4239             NaN
       4402.1123             NaN
       4402.8007             NaN
       4403.4892             NaN
       4404.1776             NaN
       4404.8661             NaN
       4405.5545             NaN
       4406.2430             NaN
       4406.9314             NaN
       4407.6199             NaN
       4408.3083             NaN
       4408.9968             NaN
       4409.6852             NaN
       4410.3736             NaN
       4411.0621             NaN
       4411.7505             NaN
       4412.4390             NaN
       4413.1274             NaN
       4413.8159             NaN
       4414.5043             NaN
       4415.1928             NaN
       4415.8812             NaN
       4416.5697             NaN
       4417.2581             NaN
       4417.9465             NaN
       4418.6350             NaN
       4419.3234             NaN
       4420.0119             NaN
       4420.7003             NaN
       4421.3888             NaN
       4422.0772             NaN
       4422.7657             NaN
       4423.4541             NaN
       4424.1426             NaN
       4424.8310             NaN
       4425.5194             NaN
       4426.2079             NaN
       4426.8963             NaN
       4427.5848             NaN
       4428.2732             NaN
       4428.9617             NaN
       4429.6501             NaN
       4430.3386             NaN
       4431.0270             NaN
       4431.7155             NaN
       4432.4039             NaN
       4433.0923             NaN
       4433.7808             NaN
       4434.4692             NaN
       4435.1577             NaN
       4435.8461             NaN
       4436.5346             NaN
       4437.2230             NaN
       4437.9115             NaN
       4438.5999             NaN
       4439.2884             NaN
       4439.9768             NaN
       4440.6652             NaN
       4441.3537             NaN
       4442.0421             NaN
       4442.7306             NaN
       4443.4190             NaN
       4444.1075             NaN
       4444.7959             NaN
       4445.4844             NaN
       4446.1728             NaN
       4446.8613             NaN
       4447.5497             NaN
       4448.2381             NaN
       4448.9266             NaN
       4449.6150      0.54148223
       4450.3035      0.68585972
       4450.9919      0.52540382
       4451.6804      0.66437212
       4452.3688      0.63944586
       4453.0573      0.62152201
       4453.7457      0.69581878
       4454.4342      0.86728372
       4455.1226      0.64206713
       4455.8110      0.72681404
       4456.4995      0.71000207
       4457.1879      0.86104337
       4457.8764      0.46204757
       4458.5648      0.33532183
       4459.2533      0.40376096
       4459.9417      0.53463070
       4460.6302      0.55714162
       4461.3186      0.61790240
       4462.0071      0.56620450
       4462.6955      0.49872290
       4463.3839      0.55282923
       4464.0724      0.55349246
       4464.7608      0.50281036
       4465.4493      0.53824263
       4466.1377      0.60873087
       4466.8262      0.64519911
       4467.5146      0.59616559
       4468.2031      0.54468462
       4468.8915      0.62873632
       4469.5800      0.56383933
       4470.2684      0.62628869
       4470.9568      0.53388885
       4471.6453      0.60977470
       4472.3337      0.70552153
       4473.0222      0.69745759
       4473.7106      0.69476399
       4474.3991      0.35810644
       4475.0875      0.68679279
       4475.7760      0.66881770
       4476.4644      0.69072051
       4477.1529      0.65863458
       4477.8413      0.58072546
       4478.5297      0.66248126
       4479.2182      0.52584847
       4479.9066      0.71634795
       4480.5951      0.73256786
       4481.2835      0.54416515
       4481.9720      0.54178368
       4482.6604      0.64299532
       4483.3489      0.70485327
       4484.0373      0.61831562
       4484.7258      0.51214872
       4485.4142      0.70063068
       4486.1027      0.47744421
       4486.7911      0.56106086
       4487.4795      0.72041723
       4488.1680      0.67738442
       4488.8564      0.63388406
       4489.5449      0.66070490
       4490.2333      0.54548253
       4490.9218      0.58501766
       4491.6102      0.47209359
       4492.2987      0.56799874
       4492.9871      0.65108244
       4493.6756      0.56099850
       4494.3640      0.60052856
       4495.0524      0.58109751
       4495.7409      0.62546855
       4496.4293      0.52299282
       4497.1178      0.51238514
       4497.8062      0.67086223
       4498.4947      0.69117279
       4499.1831      0.40927838
       4499.8716      0.48413304
       4500.5600      0.46485440
       4501.2485      0.61861621
       4501.9369      0.50872422
       4502.6253      0.71271181
       4503.3138      0.72903696
       4504.0022      0.68042903
       4504.6907      0.64942572
       4505.3791      0.63593656
       4506.0676      0.64019168
       4506.7560      0.60190332
       4507.4445      0.65556687
       4508.1329      0.80820078
       4508.8214      0.58094302
       4509.5098      0.73783393
       4510.1982      0.70594745
       4510.8867      0.71874466
       4511.5751      0.71107895
       4512.2636      0.62087142
       4512.9520      0.79404159
       4513.6405      0.78904808
       4514.3289      0.74293613
       4515.0174      0.69370985
       4515.7058      0.70322235
       4516.3943      0.66148474
       4517.0827      0.54031323
       4517.7711      0.58916096
       4518.4596      0.66819954
       4519.1480      0.62220019
       4519.8365      0.56757117
       4520.5249      0.66512621
       4521.2134      0.63634113
       4521.9018      0.53068324
       4522.5903      0.60243928
       4523.2787      0.57600467
       4523.9672      0.57975943
       4524.6556      0.67739404
       4525.3440      0.69663564
       4526.0325      0.53869074
       4526.7209      0.53290324
       4527.4094      0.63984101
       4528.0978      0.58432112
       4528.7863      0.61105184
       4529.4747      0.59482484
       4530.1632      0.61333154
       4530.8516      0.60974528
       4531.5401      0.71492181
       4532.2285      0.45894484
       4532.9169      0.42452487
       4533.6054      0.33605181
       4534.2938      0.66589762
       4534.9823      0.56897569
       4535.6707      0.65845099
       4536.3592      0.75267155
       4537.0476      0.57228926
       4537.7361      0.61569863
       4538.4245      0.63118530
       4539.1130      0.47774820
       4539.8014      0.59368607
       4540.4898      0.49050171
       4541.1783      0.60760107
       4541.8667      0.58778870
       4542.5552      0.59528893
       4543.2436      0.70763027
       4543.9321      0.62884861
       4544.6205      0.65148442
       4545.3090      0.76312650
       4545.9974      0.80830639
       4546.6859      0.63370426
       4547.3743      0.74473507
       4548.0627      0.69958904
       4548.7512      0.73012124
       4549.4396      0.76934345
       4550.1281      0.67020098
       4550.8165      0.64317126
       4551.5050      0.62685594
       4552.1934      0.55653568
       4552.8819      0.57846367
       4553.5703      0.55389752
       4554.2588      0.68788323
       4554.9472      0.51338230
       4555.6356      0.61051442
       4556.3241      0.64008158
       4557.0125      0.58460352
       4557.7010      0.42276524
       4558.3894      0.65632794
       4559.0779      0.74376847
       4559.7663      0.74706028
       4560.4548      0.62810918
       4561.1432      0.63688560
       4561.8317      0.68275002
       4562.5201      0.71289778
       4563.2085      0.72163798
       4563.8970      0.60174545
       4564.5854      0.70450045
       4565.2739      0.70987764
       4565.9623      0.46639491
       4566.6508      0.56460094
       4567.3392      0.42906337
       4568.0277      0.73987287
       4568.7161      0.74245613
       4569.4046      0.71021725
       4570.0930      0.50780627
       4570.7814      0.47312781
       4571.4699      0.66403800
       4572.1583      0.61330993
       4572.8468      0.71931413
       4573.5352      0.63533591
       4574.2237      0.65214929
       4574.9121      0.64880361
       4575.6006      0.70740988
       4576.2890      0.67760399
       4576.9775      0.71835658
       4577.6659      0.49586931
       4578.3543      0.55990931
       4579.0428      0.64730838
       4579.7312      0.60737593
       4580.4197      0.62572308
       4581.1081      0.70166402
       4581.7966      0.72919227
       4582.4850      0.60367045
       4583.1735      0.54863879
       4583.8619      0.49942412
       4584.5504      0.61672571
       4585.2388      0.57467222
       4585.9272      0.64291209
       4586.6157      0.63419822
       4587.3041      0.71859541
       4587.9926      0.69334383
       4588.6810      0.69389250
       4589.3695      0.63965462
       4590.0579      0.67707125
       4590.7464      0.64200312
       4591.4348      0.55764129
       4592.1233      0.51290563
       4592.8117      0.62021216
       4593.5001      0.57948895
       4594.1886      0.62234142
       4594.8770      0.67846501
       4595.5655      0.63160575
       4596.2539      0.67293642
       4596.9424      0.73115327
       4597.6308      0.50376979
       4598.3193      0.65107660
       4599.0077      0.50663257
       4599.6962      0.50345782
       4600.3846      0.36285456
       4601.0730      0.45054738
       4601.7615      0.66331292
       4602.4499      0.78342101
       4603.1384      0.67570144
       4603.8268      0.64889606
       4604.5153      0.63314332
       4605.2037      0.73964815
       4605.8922      0.65572456
       4606.5806      0.79689322
       4607.2691      0.78692400
       4607.9575      0.43380067
       4608.6459      0.38552059
       4609.3344      0.53211903
       4610.0228      0.41994125
       4610.7113      0.65325263
       4611.3997      0.78846018
       4612.0882      0.65794608
       4612.7766      0.65391418
       4613.4651      0.65449270
       4614.1535      0.66816551
       4614.8420      0.76578845
       4615.5304      0.69293906
       4616.2189      0.60405342
       4616.9073      0.70154851
       4617.5957      0.79541617
       4618.2842      0.76525536
       4618.9726      0.64142202
       4619.6611      0.68829679
       4620.3495      0.76971408
       4621.0380      0.81173717
       4621.7264      0.66232085
       4622.4149      0.64542020
       4623.1033      0.71892253
       4623.7918      0.76138518
       4624.4802      0.64693918
       4625.1686      0.75452262
       4625.8571      0.72004082
       4626.5455      0.69320111
       4627.2340      0.82640664
       4627.9224      0.65010602
       4628.6109      0.65297513
       4629.2993      0.49093888
       4629.9878      0.66690062
       4630.6762      0.78945642
       4631.3647      0.80069532
       4632.0531      0.58867442
       4632.7415      0.59272430
       4633.4300      0.51008533
       4634.1184      0.64660598
       4634.8069      0.62211513
       4635.4953      0.69868697
       4636.1838      0.63090798
       4636.8722      0.58992418
       4637.5607      0.70045752
       4638.2491      0.61032484
       4638.9376      0.68188152
       4639.6260      0.69198823
       4640.3144      0.69990526
       4641.0029      0.65027955
       4641.6913      0.67689832
       4642.3798      0.64918639
       4643.0682      0.66966984
       4643.7567      0.68968741
       4644.4451      0.65537027
       4645.1336      0.57648629
       4645.8220      0.61173853
       4646.5105      0.50470602
       4647.1989      0.64534288
       4647.8873      0.67452871
       4648.5758      0.67356422
       4649.2642      0.70065943
       4649.9527      0.65894645
       4650.6411      0.61774030
       4651.3296      0.67690016
       4652.0180      0.63032669
       4652.7065      0.52981787
       4653.3949      0.55622204
       4654.0834      0.60536430
       4654.7718      0.61162311
       4655.4602      0.61684617
       4656.1487      0.60986301
       4656.8371      0.59354349
       4657.5256      0.63181100
       4658.2140      0.70939137
       4658.9025      0.67378286
       4659.5909      0.69440277
       4660.2794      0.66407868
       4660.9678      0.64151114
       4661.6563      0.70152413
       4662.3447      0.55845434
       4663.0331      0.62764450
       4663.7216      0.66669529
       4664.4100      0.73027640
       4665.0985      0.55154543
       4665.7869      0.59975377
       4666.4754      0.49668122
       4667.1638      0.61765971
       4667.8523      0.65457775
       4668.5407      0.65944808
       4669.2292      0.65048868
       4669.9176      0.55278223
       4670.6060      0.67628946
       4671.2945      0.67724120
       4671.9829      0.59074409
       4672.6714      0.71461519
       4673.3598      0.52744513
       4674.0483      0.65266471
       4674.7367      0.59536738
       4675.4252      0.66068574
       4676.1136      0.79155883
       4676.8021      0.75314270
       4677.4905      0.70832339
       4678.1789      0.69683334
       4678.8674      0.69273354
       4679.5558      0.72050288
       4680.2443      0.73249374
       4680.9327      0.64830462
       4681.6212      0.73161715
       4682.3096      0.67237534
       4682.9981      0.66447678
       4683.6865      0.62064785
       4684.3750      0.66237724
       4685.0634      0.61655691
       4685.7518      0.76046299
       4686.4403      0.72381295
       4687.1287      0.73521831
       4687.8172      0.62279698
       4688.5056      0.53603591
       4689.1941      0.59654335
       4689.8825      0.64524524
       4690.5710      0.74977987
       4691.2594      0.85325146
       4691.9479      0.60421310
       4692.6363      0.60740767
       4693.3247      0.68086031
       4694.0132      0.64734572
       4694.7016      0.59448296
       4695.3901      0.65293176
       4696.0785      0.61521872
       4696.7670      0.62459826
       4697.4554      0.76286902
       4698.1439      0.69590960
       4698.8323      0.64167678
       4699.5208      0.68670302
       4700.2092      0.68667299
       4700.8976      0.70661684
       4701.5861      0.70005250
       4702.2745      0.63914462
       4702.9630      0.69262607
       4703.6514      0.63387123
       4704.3399      0.62906031
       4705.0283      0.61880975
       4705.7168      0.66237751
       4706.4052      0.71022868
       4707.0937      0.64220833
       4707.7821      0.64108062
       4708.4705      0.62407925
       4709.1590      0.60758158
       4709.8474      0.51950207
       4710.5359      0.61027735
       4711.2243      0.63396238
       4711.9128      0.63111167
       4712.6012      0.50404798
       4713.2897      0.54397576
       4713.9781      0.61818823
       4714.6666      0.56792309
       4715.3550      0.66959277
       4716.0434      0.58080427
       4716.7319      0.67875199
       4717.4203      0.62513140
       4718.1088      0.62320958
       4718.7972      0.67774628
       4719.4857      0.62162984
       4720.1741      0.62718615
       4720.8626      0.62571796
       4721.5510      0.56104143
       4722.2395      0.66289715
       4722.9279      0.65687775
       4723.6163      0.64220419
       4724.3048      0.65907334
       4724.9932      0.61691769
       4725.6817      0.63182698
       4726.3701      0.67494518
       4727.0586      0.64218146
       4727.7470      0.57669698
       4728.4355      0.57152485
       4729.1239      0.57923825
       4729.8124      0.62148909
       4730.5008      0.63582750
       4731.1892      0.62363751
       4731.8777      0.65413853
       4732.5661      0.66402140
       4733.2546      0.70955129
       4733.9430      0.68073366
       4734.6315      0.73103192
       4735.3199      0.63368386
       4736.0084      0.61184911
       4736.6968      0.53125764
       4737.3853      0.60028890
       4738.0737      0.65986499
       4738.7621      0.59939836
       4739.4506      0.61094314
       4740.1390      0.64549173
       4740.8275      0.60242007
       4741.5159      0.62794268
       4742.2044      0.58356482
       4742.8928      0.64930798
       4743.5813      0.65821553
       4744.2697      0.67400347
       4744.9582      0.68580117
       4745.6466      0.65651368
       4746.3351      0.67284967
       4747.0235      0.65867292
       4747.7119      0.65332931
       4748.4004      0.64347923
       4749.0888      0.65656292
       4749.7773      0.66120766
       4750.4657      0.70629073
       4751.1542      0.51834613
       4751.8426      0.60207888
       4752.5311      0.62630188
       4753.2195      0.57113481
       4753.9080      0.61747835
       4754.5964      0.57104310
       4755.2848      0.58775385
       4755.9733      0.61181747
       4756.6617      0.74562227
       4757.3502      0.70968076
       4758.0386      0.71819589
       4758.7271      0.63502706
       4759.4155      0.59780203
       4760.1040      0.61623849
       4760.7924      0.65213339
       4761.4809      0.57934439
       4762.1693      0.65596567
       4762.8577      0.71778426
       4763.5462      0.66619824
       4764.2346      0.62413066
       4764.9231      0.70624057
       4765.6115      0.64122984
       4766.3000      0.60431495
       4766.9884      0.67200747
       4767.6769      0.65971420
       4768.3653      0.63352335
       4769.0538      0.61721341
       4769.7422      0.49752150
       4770.4306      0.59245088
       4771.1191      0.57539033
       4771.8075      0.52644116
       4772.4960      0.66512713
       4773.1844      0.77238025
       4773.8729      0.61478862
       4774.5613      0.54757103
       4775.2498      0.56349500
       4775.9382      0.74655117
       4776.6267      0.65900297
       4777.3151      0.57064444
       4778.0035      0.74463951
       4778.6920      0.58738355
       4779.3804      0.52065420
       4780.0689      0.48775340
       4780.7573      0.52369048
       4781.4458      0.42936175
       4782.1342      0.70270406
       4782.8227      0.68090520
       4783.5111      0.67825801
       4784.1996      0.65432912
       4784.8880      0.44358931
       4785.5764      0.52779736
       4786.2649      0.78680792
       4786.9533      0.68490338
       4787.6418      0.62178024
       4788.3302      0.76505345
       4789.0187      0.73843989
       4789.7071      0.58105210
       4790.3956      0.62813230
       4791.0840      0.65213722
       4791.7725      0.66749631
       4792.4609      0.59390795
       4793.1493      0.65658107
       4793.8378      0.62926576
       4794.5262      0.69281328
       4795.2147      0.62782680
       4795.9031      0.73189099
       4796.5916      0.73292872
       4797.2800      0.69294593
       4797.9685      0.68073888
       4798.6569      0.65199638
       4799.3454      0.65957996
       4800.0338      0.63159061
       4800.7222      0.67156725
       4801.4107      0.66512542
       4802.0991      0.70878104
       4802.7876      0.67266120
       4803.4760      0.64371574
       4804.1645      0.71542192
       4804.8529      0.64058307
       4805.5414      0.61473319
       4806.2298      0.63582213
       4806.9183      0.64799484
       4807.6067      0.65267302
       4808.2951      0.66882703
       4808.9836      0.66938475
       4809.6720      0.58329737
       4810.3605      0.71750941
       4811.0489      0.66569049
       4811.7374      0.67576005
       4812.4258      0.71984372
       4813.1143      0.68684751
       4813.8027      0.83183518
       4814.4912      0.70583846
       4815.1796      0.49855790
       4815.8680      0.46834096
       4816.5565      0.37707598
       4817.2449      0.48181029
       4817.9334      0.62877668
       4818.6218      0.59683154
       4819.3103      0.67810958
       4819.9987      0.50874453
       4820.6872      0.62272109
       4821.3756      0.64526426
       4822.0641      0.70920148
       4822.7525      0.58733879
       4823.4409      0.65613798
       4824.1294      0.68330567
       4824.8178      0.65389067
       4825.5063      0.68581103
       4826.1947      0.61295276
       4826.8832      0.51425744
       4827.5716      0.66522128
       4828.2601      0.65234142
       4828.9485      0.64905147
       4829.6370      0.65545264
       4830.3254      0.58643205
       4831.0138      0.77240473
       4831.7023      0.71113965
       4832.3907      0.63436189
       4833.0792      0.59796318
       4833.7676      0.69058103
       4834.4561      0.58556884
       4835.1445      0.62446337
       4835.8330      0.53664004
       4836.5214      0.58110107
       4837.2099      0.51769015
       4837.8983      0.47480156
       4838.5867      0.63866224
       4839.2752      0.71592007
       4839.9636      0.53901966
       4840.6521      0.69696854
       4841.3405      0.68073231
       4842.0290      0.65229192
       4842.7174      0.71124079
       4843.4059      0.70143349
       4844.0943      0.65689861
       4844.7828      0.66567741
       4845.4712      0.62286400
       4846.1596      0.62777564
       4846.8481      0.50587662
       4847.5365      0.25669263
       4848.2250      0.22814998
       4848.9134      0.58162602
       4849.6019      0.51833101
       4850.2903      0.56312477
       4850.9788      0.55510255
       4851.6672      0.60108249
       4852.3557      0.56624621
       4853.0441      0.51257570
       4853.7325      0.63738513
       4854.4210      0.57657353
       4855.1094      0.66756035
       4855.7979      0.70151590
       4856.4863      0.60259455
       4857.1748      0.51156734
       4857.8632      0.64842271
       4858.5517      0.78935836
       4859.2401      0.73966496
       4859.9286      0.83069497
       4860.6170      0.75636355
       4861.3054      0.82208125
       4861.9939      0.84354634
       4862.6823      0.92359062
       4863.3708      0.76514805
       4864.0592      0.73827076
       4864.7477      0.65268763
       4865.4361      0.53448593
       4866.1246      0.83852298
       4866.8130      0.68736057
       4867.5015      0.45176961
       4868.1899      0.55243690
       4868.8784      0.62373787
       4869.5668      0.55927677
       4870.2552      0.51872031
       4870.9437      0.57981503
       4871.6321      0.67383681
       4872.3206      0.61668521
       4873.0090      0.42466522
       4873.6975      0.40863187
       4874.3859      0.52948229
       4875.0744      0.62233181
       4875.7628      0.62968480
       4876.4513      0.47769891
       4877.1397      0.56580730
       4877.8281      0.72713520
       4878.5166      0.64723355
       4879.2050      0.53688844
       4879.8935      0.57761800
       4880.5819      0.66464829
       4881.2704      0.65861143
       4881.9588      0.74913092
       4882.6473      0.59592649
       4883.3357      0.74693438
       4884.0242      0.84574038
       4884.7126      0.53252815
       4885.4010      0.52983991
       4886.0895      0.66099347
       4886.7779      0.78538591
       4887.4664      0.53736362
       4888.1548      0.72622842
       4888.8433      0.78002779
       4889.5317      0.68816625
       4890.2202      0.59553822
       4890.9086      0.62169781
       4891.5971      0.66149234
       4892.2855      0.59982404
       4892.9739      0.69181778
       4893.6624      0.59515977
       4894.3508      0.70383711
       4895.0393      0.68659517
       4895.7277      0.74432515
       4896.4162      0.72368471
       4897.1046      0.74505107
       4897.7931      0.77051083
       4898.4815      0.65113928
       4899.1700      0.66112080
       4899.8584      0.72008755
       4900.5468      0.59757843
       4901.2353      0.65923066
       4901.9237      0.68271012
       4902.6122      0.69748181
       4903.3006      0.65549222
       4903.9891      0.57635017
       4904.6775      0.69393892
       4905.3660      0.68350644
       4906.0544      0.65246957
       4906.7429      0.53548817
       4907.4313      0.61501558
       4908.1197      0.72553656
       4908.8082      0.72084609
       4909.4966      0.59496115
       4910.1851      0.60390695
       4910.8735      0.66248676
       4911.5620      0.71371842
       4912.2504      0.58503924
       4912.9389      0.66627306
       4913.6273      0.66838400
       4914.3158      0.64223120
       4915.0042      0.63569518
       4915.6926      0.65785930
       4916.3811      0.67452457
       4917.0695      0.63507669
       4917.7580      0.69714676
       4918.4464      0.71100501
       4919.1349      0.66119890
       4919.8233      0.67275032
       4920.5118      0.64598187
       4921.2002      0.60394704
       4921.8887      0.58283354
       4922.5771      0.65181755
       4923.2655      0.63760758
       4923.9540      0.58471950
       4924.6424      0.64936293
       4925.3309      0.70007649
       4926.0193      0.67925190
       4926.7078      0.69850407
       4927.3962      0.74263342
       4928.0847      0.74081203
       4928.7731      0.69669160
       4929.4616      0.70701449
       4930.1500      0.67450167
       4930.8384      0.69221743
       4931.5269      0.71617104
       4932.2153      0.57807075
       4932.9038      0.71200870
       4933.5922      0.78434079
       4934.2807      0.75288203
       4934.9691      0.81381600
       4935.6576      0.70828870
       4936.3460      0.71571414
       4937.0345      0.80080678
       4937.7229      0.63439365
       4938.4113      0.58083359
       4939.0998      0.66997236
       4939.7882      0.66563831
       4940.4767      0.69343357
       4941.1651      0.68878337
       4941.8536      0.69076585
       4942.5420      0.71094634
       4943.2305      0.70945614
       4943.9189      0.68540043
       4944.6074      0.72174292
       4945.2958      0.71170176
       4945.9842      0.72227012
       4946.6727      0.73989451
       4947.3611      0.76375583
       4948.0496      0.62953810
       4948.7380      0.71784432
       4949.4265      0.78769901
       4950.1149      0.79626750
       4950.8034      0.77302904
       4951.4918      0.72016235
       4952.1803      0.73599251
       4952.8687      0.75831794
       4953.5571      0.75017998
       4954.2456      0.77274631
       4954.9340      0.89058276
       4955.6225      0.79117302
       4956.3109      0.84356745
       4956.9994       1.0159664
       4957.6878       1.0356286
       4958.3763      0.97259702
       4959.0647       1.0449934
       4959.7532      0.93787020
       4960.4416      0.89498001
       4961.1300      0.86716935
       4961.8185      0.87114820
       4962.5069      0.85608002
       4963.1954      0.79066228
       4963.8838      0.83328641
       4964.5723      0.82389214
       4965.2607      0.82058329
       4965.9492      0.80381566
       4966.6376      0.78654267
       4967.3261      0.79194798
       4968.0145      0.75880592
       4968.7029      0.76410307
       4969.3914      0.75388302
       4970.0798      0.68714984
       4970.7683      0.59679563
       4971.4567      0.64442329
       4972.1452      0.66543961
       4972.8336      0.68511324
       4973.5221      0.71970946
       4974.2105      0.73372793
       4974.8990      0.98974091
       4975.5874      0.77728063
       4976.2758      0.69350691
       4976.9643      0.68937168
       4977.6527      0.41969321
       4978.3412      0.69601425
       4979.0296      0.79546108
       4979.7181      0.67638015
       4980.4065      0.82375895
       4981.0950      0.51124269
       4981.7834      0.74874667
       4982.4719      0.92041604
       4983.1603      0.82093377
       4983.8487      0.74270829
       4984.5372      0.71725064
       4985.2256      0.75355946
       4985.9141      0.54201823
       4986.6025      0.66486123
       4987.2910      0.70223860
       4987.9794      0.76091492
       4988.6679      0.66580377
       4989.3563      0.82076229
       4990.0448      0.74453136
       4990.7332      0.59094988
       4991.4216      0.84891339
       4992.1101      0.76354582
       4992.7985      0.82987833
       4993.4870       1.0130111
       4994.1754      0.83657559
       4994.8639      0.74214380
       4995.5523      0.81957463
       4996.2408      0.80171771
       4996.9292      0.91244704
       4997.6177      0.71879222
       4998.3061      0.64441643
       4998.9946      0.62585643
       4999.6830      0.40879224
       5000.3714      0.55669059
       5001.0599      0.94342510
       5001.7483      0.84638272
       5002.4368      0.93696924
       5003.1252       1.0713170
       5003.8137       1.1912922
       5004.5021       1.3288188
       5005.1906       1.3549623
       5005.8790       1.2699331
       5006.5675       1.2454251
       5007.2559       1.2398593
       5007.9443       1.1139902
       5008.6328       1.1559323
       5009.3212       1.3279049
       5010.0097       1.2378865
       5010.6981       1.1669786
       5011.3866       1.0954548
       5012.0750       1.0874446
       5012.7635      0.99265750
       5013.4519      0.88547514
       5014.1404      0.90996923
       5014.8288      0.83264420
       5015.5172      0.73163057
       5016.2057      0.68356219
       5016.8941      0.65719113
       5017.5826      0.71585684
       5018.2710      0.63828489
       5018.9595      0.63570248
       5019.6479      0.63668830
       5020.3364      0.74945932
       5021.0248      0.72807183
       5021.7133      0.65059057
       5022.4017      0.56460451
       5023.0901      0.60280646
       5023.7786      0.69084743
       5024.4670      0.69834239
       5025.1555      0.75041605
       5025.8439      0.74072740
       5026.5324      0.74430314
       5027.2208      0.71306010
       5027.9093      0.77057766
       5028.5977      0.70141037
       5029.2862      0.73126780
       5029.9746      0.70493543
       5030.6630      0.73191016
       5031.3515      0.77434573
       5032.0399      0.67835826
       5032.7284      0.65827818
       5033.4168      0.70980877
       5034.1053      0.72873206
       5034.7937      0.78199379
       5035.4822      0.74221830
       5036.1706      0.78817516
       5036.8591      0.68009244
       5037.5475      0.73775173
       5038.2359      0.68440788
       5038.9244      0.69682250
       5039.6128      0.70662453
       5040.3013      0.69232081
       5040.9897      0.67739668
       5041.6782      0.63187881
       5042.3666      0.69267999
       5043.0551      0.71257865
       5043.7435      0.68686845
       5044.4320      0.65353103
       5045.1204      0.76947898
       5045.8088      0.81761364
       5046.4973      0.70015346
       5047.1857      0.72144621
       5047.8742      0.68942548
       5048.5626      0.71768629
       5049.2511      0.78448684
       5049.9395      0.67358018
       5050.6280      0.70359946
       5051.3164      0.72542569
       5052.0049      0.64404080
       5052.6933      0.70297409
       5053.3817      0.63482213
       5054.0702      0.76227493
       5054.7586      0.79529297
       5055.4471      0.62384642
       5056.1355      0.82205099
       5056.8240      0.60143813
       5057.5124      0.63140495
       5058.2009      0.40400924
       5058.8893      0.75525504
       5059.5778      0.94240791
       5060.2662      0.94892554
       5060.9546      0.80243855
       5061.6431      0.54215997
       5062.3315      0.89770303
       5063.0200      0.93921692
       5063.7084      0.97953903
       5064.3969      0.39864234
       5065.0853      0.49859848
       5065.7738      0.64418836
       5066.4622      0.54213667
       5067.1507      0.51721885
       5067.8391      0.37500692
       5068.5275      0.68246192
       5069.2160      0.79645888
       5069.9044      0.65620288
       5070.5929      0.73989264
       5071.2813      0.75770436
       5071.9698      0.66340282
       5072.6582      0.71015964
       5073.3467      0.63038659
       5074.0351      0.63999521
       5074.7236      0.72941187
       5075.4120      0.56779447
       5076.1004      0.74048348
       5076.7889      0.82783930
       5077.4773      0.77050774
       5078.1658      0.67201392
       5078.8542      0.77549547
       5079.5427      0.81300437
       5080.2311      0.80685102
       5080.9196      0.70116445
       5081.6080      0.72358636
       5082.2965      0.78058635
       5082.9849      0.65921609
       5083.6733      0.64113136
       5084.3618      0.76409883
       5085.0502      0.74518577
       5085.7387      0.66058316
       5086.4271      0.70444045
       5087.1156      0.72879181
       5087.8040      0.73660976
       5088.4925      0.67544844
       5089.1809      0.72777790
       5089.8694      0.80576402
       5090.5578      0.80474787
       5091.2462      0.69953694
       5091.9347      0.70305398
       5092.6231      0.53464530
       5093.3116      0.56574211
       5094.0000       1.0678491
       5094.6885      0.63317750
       5095.3769      0.47416515
       5096.0654      0.22375318
       5096.7538      0.94430839
       5097.4423      0.66203398
       5098.1307      0.41650676
       5098.8191      0.87799680
       5099.5076      0.79420199
       5100.1960      0.74962822
       5100.8845      0.85812851
       5101.5729      0.75695087
       5102.2614      0.75261358
       5102.9498      0.69977456
       5103.6383      0.70924684
       5104.3267      0.73955655
       5105.0152      0.78426770
       5105.7036      0.69281097
       5106.3920      0.71309945
       5107.0805      0.82241937
       5107.7689      0.86338595
       5108.4574      0.79465223
       5109.1458      0.40018044
       5109.8343      0.51151211
       5110.5227      0.68814883
       5111.2112      0.73550255
       5111.8996      0.72595486
       5112.5881      0.72227591
       5113.2765      0.71760833
       5113.9649      0.71540155
       5114.6534      0.86759546
       5115.3418      0.76447557
       5116.0303      0.44926600
       5116.7187      0.51579218
       5117.4072      0.67271632
       5118.0956      0.60889487
       5118.7841      0.66964621
       5119.4725      0.71702696
       5120.1610      0.84054057
       5120.8494      0.87255159
       5121.5378      0.83808956
       5122.2263      0.81589092
       5122.9147      0.81131331
       5123.6032      0.86610678
       5124.2916      0.75374022
       5124.9801      0.89652969
       5125.6685       1.3681460
       5126.3570      0.87733139
       5127.0454       1.2776816
       5127.7339       1.3722758
       5128.4223       1.2346750
       5129.1108       1.1186972
       5129.7992       1.7121555
       5130.4876       2.2852374
       5131.1761       1.5415477
       5131.8645      0.95922300
       5132.5530      0.84420437
       5133.2414      0.83695274
       5133.9299      0.85294657
       5134.6183      0.82725617
       5135.3068      0.93186502
       5135.9952      0.80844970
       5136.6837      0.80060443
       5137.3721      0.50938278
       5138.0605      0.66762442
       5138.7490      0.70113792
       5139.4374      0.72807602
       5140.1259      0.85111664
       5140.8143      0.86777272
       5141.5028      0.84712562
       5142.1912      0.80023521
       5142.8797      0.78163013
       5143.5681      0.71591933
       5144.2566      0.64614507
       5144.9450      0.81067795
       5145.6334      0.31995075
       5146.3219      0.57521620
       5147.0103      0.89192585
       5147.6988      0.95979942
       5148.3872       1.2270675
       5149.0757      0.38921238
       5149.7641      0.66614849
       5150.4526      0.94498170
       5151.1410      0.70905139
       5151.8295      0.70688962
       5152.5179      0.73088818
       5153.2063      0.76282625
       5153.8948      0.64576843
       5154.5832      0.76950361
       5155.2717      0.80402354
       5155.9601      0.80761106
       5156.6486      0.76951380
       5157.3370      0.74163025
       5158.0255      0.77949415
       5158.7139      0.87127121
       5159.4024      0.42922883
       5160.0908      0.67281602
       5160.7792      0.76970966
       5161.4677      0.56101279
       5162.1561      0.56087169
       5162.8446      0.57011242
       5163.5330      0.62842505
       5164.2215      0.71964223
       5164.9099      0.67978970
       5165.5984      0.75115332
       5166.2868      0.61861392
       5166.9753      0.66920909
       5167.6637      0.71936586
       5168.3521      0.49160046
       5169.0406      0.71120454
       5169.7290      0.63951648
       5170.4175      0.67168627
       5171.1059    -0.025297999
       5171.7944      0.21922690
       5172.4828      0.70036229
       5173.1713      0.58890146
       5173.8597      0.66362373
       5174.5482      0.72610684
       5175.2366      0.68853963
       5175.9250      0.76120420
       5176.6135      0.70314628
       5177.3019      0.66276351
       5177.9904      0.68062517
       5178.6788      0.72942970
       5179.3673      0.66818168
       5180.0557      0.66122508
       5180.7442      0.66075514
       5181.4326      0.63486673
       5182.1211      0.62617136
       5182.8095      0.63519548
       5183.4979      0.68011756
       5184.1864      0.72912001
       5184.8748      0.69507287
       5185.5633      0.64404103
       5186.2517      0.63289891
       5186.9402      0.72389664
       5187.6286      0.63576508
       5188.3171      0.66564883
       5189.0055      0.65789302
       5189.6940      0.78517735
       5190.3824      0.65269651
       5191.0708      0.62612737
       5191.7593      0.66399702
       5192.4477      0.35222972
       5193.1362     0.013185130
       5193.8246      0.52235792
       5194.5131      0.80040093
       5195.2015      0.83699620
       5195.8900      0.73087484
       5196.5784      0.63914556
       5197.2669      0.90222343
       5197.9553      0.68473884
       5198.6437      0.76917025
       5199.3322      0.87873279
       5200.0206      0.76500639
       5200.7091      0.77250056
       5201.3975      0.67950914
       5202.0860      0.66630623
       5202.7744      0.75445255
       5203.4629      0.79504196
       5204.1513      0.76206115
       5204.8398      0.69464676
       5205.5282      0.70156178
       5206.2166      0.74066135
       5206.9051      0.68653953
       5207.5935      0.70079260
       5208.2820      0.73950831
       5208.9704      0.78749602
       5209.6589      0.69350518
       5210.3473      0.68704651
       5211.0358      0.73047611
       5211.7242      0.73207933
       5212.4127      0.85222065
       5213.1011      0.83807551
       5213.7895      0.79157895
       5214.4780      0.79022931
       5215.1664      0.75248299
       5215.8549      0.79694761
       5216.5433      0.91540203
       5217.2318      0.88931724
       5217.9202      0.88658187
       5218.6087      0.87023352
       5219.2971      0.83831626
       5219.9856      0.87918734
       5220.6740      0.73886953
       5221.3624      0.76655885
       5222.0509      0.70438346
       5222.7393      0.84303449
       5223.4278      0.87549035
       5224.1162      0.80291201
       5224.8047      0.92502749
       5225.4931      0.81216672
       5226.1816      0.77546953
       5226.8700      0.74286232
       5227.5585      0.78439921
       5228.2469      0.78610039
       5228.9353      0.80538007
       5229.6238      0.60010317
       5230.3122      0.70999119
       5231.0007      0.80936774
       5231.6891      0.75962451
       5232.3776      0.71520372
       5233.0660      0.70285250
       5233.7545      0.74493635
       5234.4429      0.68213467
       5235.1314      0.77224200
       5235.8198      0.77685764
       5236.5082      0.84901645
       5237.1967      0.84104753
       5237.8851      0.84540349
       5238.5736      0.87286929
       5239.2620      0.85207542
       5239.9505      0.80465942
       5240.6389      0.79497946
       5241.3274      0.80218581
       5242.0158      0.78292137
       5242.7043      0.82995580
       5243.3927      0.81900509
       5244.0811      0.85205890
       5244.7696      0.83643703
       5245.4580      0.83397407
       5246.1465      0.81853474
       5246.8349      0.77345002
       5247.5234      0.72425501
       5248.2118      0.80411970
       5248.9003      0.75643247
       5249.5887      0.72313541
       5250.2772      0.79663955
       5250.9656      0.75790169
       5251.6540      0.67896049
       5252.3425      0.68240802
       5253.0309      0.84258699
       5253.7194      0.79224479
       5254.4078      0.76998706
       5255.0963      0.78094837
       5255.7847      0.74728580
       5256.4732      0.78357102
       5257.1616      0.79261255
       5257.8501      0.78510643
       5258.5385      0.86695874
       5259.2270      0.86924711
       5259.9154      0.82322666
       5260.6038      0.80240068
       5261.2923      0.72595470
       5261.9807      0.71798254
       5262.6692      0.73702390
       5263.3576      0.72701830
       5264.0461      0.81628883
       5264.7345      0.78443249
       5265.4230      0.70925937
       5266.1114      0.69879646
       5266.7999      0.75069869
       5267.4883      0.71347629
       5268.1767      0.65184526
       5268.8652      0.63208601
       5269.5536      0.70930232
       5270.2421      0.72998156
       5270.9305      0.69177463
       5271.6190      0.63886848
       5272.3074      0.63766425
       5272.9959      0.69990397
       5273.6843      0.73449812
       5274.3728      0.70611353
       5275.0612      0.77232408
       5275.7496      0.77418212
       5276.4381      0.88174004
       5277.1265      0.80574351
       5277.8150      0.82750852
       5278.5034      0.85822138
       5279.1919      0.93167261
       5279.8803      0.85415184
       5280.5688      0.91782320
       5281.2572      0.94130422
       5281.9457      0.81755417
       5282.6341      0.82495992
       5283.3225      0.69593662
       5284.0110      0.86423963
       5284.6994      0.88710481
       5285.3879      0.79045766
       5286.0763      0.81134666
       5286.7648      0.87446400
       5287.4532      0.84657611
       5288.1417      0.89625836
       5288.8301      0.97804322
       5289.5186      0.96672648
       5290.2070      0.89709446
       5290.8954      0.85652489
       5291.5839      0.87178033
       5292.2723      0.87725784
       5292.9608      0.92606389
       5293.6492      0.88272207
       5294.3377      0.89182410
       5295.0261      0.92283798
       5295.7146      0.80284844
       5296.4030      0.91843921
       5297.0915      0.96128359
       5297.7799      0.94899644
       5298.4683      0.97908058
       5299.1568      0.91627169
       5299.8452      0.84444524
       5300.5337      0.82216961
       5301.2221      0.85404221
       5301.9106      0.86781968
       5302.5990      0.96000423
       5303.2875      0.89442050
       5303.9759      0.90717022
       5304.6644      0.90102351
       5305.3528      0.87785298
       5306.0412      0.93802816
       5306.7297      0.91346233
       5307.4181      0.90485185
       5308.1066      0.97929493
       5308.7950      0.93581980
       5309.4835      0.99977581
       5310.1719      0.97615679
       5310.8604      0.91347594
       5311.5488      0.99565282
       5312.2373       1.0357383
       5312.9257      0.90844708
       5313.6141      0.90800611
       5314.3026      0.89594734
       5314.9910      0.92664222
       5315.6795      0.88902604
       5316.3679      0.95464897
       5317.0564      0.89412143
       5317.7448      0.92420451
       5318.4333       1.0042068
       5319.1217      0.98630291
       5319.8102      0.97782990
       5320.4986      0.90812610
       5321.1870      0.95057306
       5321.8755      0.97502883
       5322.5639      0.90167048
       5323.2524      0.78791992
       5323.9408      0.87561365
       5324.6293      0.89196275
       5325.3177      0.82997858
       5326.0062      0.89215425
       5326.6946      0.86384568
       5327.3831      0.90386927
       5328.0715      0.84480949
       5328.7599      0.78886498
       5329.4484      0.87434147
       5330.1368      0.87579455
       5330.8253      0.93703231
       5331.5137      0.83602766
       5332.2022      0.80699056
       5332.8906      0.99886647
       5333.5791       1.0076840
       5334.2675      0.91335913
       5334.9560      0.75988779
       5335.6444      0.92196928
       5336.3328      0.99787717
       5337.0213       1.0451204
       5337.7097      0.97901252
       5338.3982      0.96166954
       5339.0866       1.0463335
       5339.7751      0.90209966
       5340.4635      0.80167759
       5341.1520      0.83874029
       5341.8404       1.0134779
       5342.5289       1.0259887
       5343.2173      0.89543777
       5343.9057      0.91550262
       5344.5942      0.88530878
       5345.2826      0.89922796
       5345.9711      0.90206445
       5346.6595      0.93755794
       5347.3480      0.95188587
       5348.0364      0.90238738
       5348.7249      0.94157656
       5349.4133      0.99482504
       5350.1018       1.0479698
       5350.7902       1.0178701
       5351.4786       1.0036263
       5352.1671      0.96247735
       5352.8555      0.96653155
       5353.5440      0.94096547
       5354.2324      0.99210884
       5354.9209      0.91607708
       5355.6093      0.96648117
       5356.2978      0.92820167
       5356.9862      0.92183186
       5357.6747       1.0133883
       5358.3631       1.0726042
       5359.0515      0.95195219
       5359.7400      0.89984267
       5360.4284       1.0759784
       5361.1169      0.93880216
       5361.8053      0.92196541
       5362.4938      0.77580643
       5363.1822      0.92682959
       5363.8707      0.93139985
       5364.5591      0.90259291
       5365.2476      0.85987060
       5365.9360      0.81434760
       5366.6244      0.88283986
       5367.3129      0.81024961
       5368.0013      0.95916426
       5368.6898       1.0121734
       5369.3782      0.81187125
       5370.0667      0.58766525
       5370.7551      0.99097228
       5371.4436      0.73175131
       5372.1320      0.87273087
       5372.8205      0.86919725
       5373.5089       1.3359934
       5374.1973       1.2203806
       5374.8858       1.1605257
       5375.5742      0.85741729
       5376.2627      0.33877042
       5376.9511       1.0322981
       5377.6396       1.2552026
       5378.3280       1.2004201
       5379.0165      0.88717616
       5379.7049      0.86602325
       5380.3934      0.86103025
       5381.0818      0.94554531
       5381.7703      0.68507735
       5382.4587      0.45183713
       5383.1471      0.86838004
       5383.8356      0.92430762
       5384.5240      0.70979115
       5385.2125      0.78170012
       5385.9009      0.72246795
       5386.5894      0.85765094
       5387.2778      0.53949838
       5387.9663      0.59772210
       5388.6547      0.76833139
       5389.3432      0.74898874
       5390.0316      0.72197061
       5390.7200      0.39818793
       5391.4085      0.58780544
       5392.0969      0.52467849
       5392.7854      0.57671911
       5393.4738      0.61057793
       5394.1623      0.54062098
       5394.8507      0.67695578
       5395.5392      0.61633124
       5396.2276      0.78125771
       5396.9161      0.79901475
       5397.6045      0.71906232
       5398.2929      0.57763348
       5398.9814      0.52085026
       5399.6698      0.49209628
       5400.3583      0.55691491
       5401.0467      0.66019104
       5401.7352      0.75264418
       5402.4236      0.79269015
       5403.1121      0.74489336
       5403.8005      0.72616450
       5404.4890      0.82155621
       5405.1774      0.86934191
       5405.8658      0.78729137
       5406.5543      0.67067992
       5407.2427      0.70116823
       5407.9312       1.0724088
       5408.6196       1.3330503
       5409.3081      0.25253530
       5409.9965      0.43781110
       5410.6850       1.1311723
       5411.3734       1.1218696
       5412.0619       1.0867523
       5412.7503      0.43087276
       5413.4387       1.4196603
       5414.1272       1.3254711
       5414.8156      0.93284136
       5415.5041      0.65914311
       5416.1925      0.66986051
       5416.8810      0.75221973
       5417.5694      0.78886687
       5418.2579      0.87140063
       5418.9463      0.79310593
       5419.6348      0.95415984
       5420.3232      0.95311045
       5421.0116      0.93264289
       5421.7001      0.97210028
       5422.3885      0.93110820
       5423.0770      0.96451650
       5423.7654      0.99379533
       5424.4539      0.77108433
       5425.1423      0.53845798
       5425.8308      0.65623867
       5426.5192      0.90950103
       5427.2077       1.2840400
       5427.8961       1.4741988
       5428.5845       1.6631624
       5429.2730       1.3885520
       5429.9614      0.91668225
       5430.6499      0.70783037
       5431.3383      0.69372172
       5432.0268      0.76555690
       5432.7152      0.84485371
       5433.4037       1.0862239
       5434.0921       1.0325954
       5434.7806      0.67498229
       5435.4690      0.88722612
       5436.1574       1.2450036
       5436.8459       1.2251283
       5437.5343      0.97227888
       5438.2228      0.68363469
       5438.9112       1.0857023
       5439.5997      0.81293747
       5440.2881      0.61185052
       5440.9766      0.50288477
       5441.6650      0.48930865
       5442.3535      0.71993131
       5443.0419      0.76567328
       5443.7303      0.85809760
       5444.4188       1.0131282
       5445.1072       1.1566590
       5445.7957      0.71361254
       5446.4841      0.35999156
       5447.1726      0.92085775
       5447.8610      0.94439260
       5448.5495      0.90613876
       5449.2379      0.39254931
       5449.9264      0.91061664
       5450.6148       1.4886477
       5451.3032       1.0404562
       5451.9917      0.83267646
       5452.6801      0.92556998
       5453.3686      0.80530482
       5454.0570      0.78258064
       5454.7455      0.76961099
       5455.4339      0.76335899
       5456.1224       1.1273578
       5456.8108       1.1045690
       5457.4993      0.85590032
       5458.1877      0.93159945
       5458.8761      0.92224164
       5459.5646      0.98068245
       5460.2530      0.70906086
       5460.9415      0.78438731
       5461.6299       1.1168727
       5462.3184      0.92889946
       5463.0068      0.80470583
       5463.6953      0.82527377
       5464.3837      0.71856911
       5465.0722      0.67631865
       5465.7606      0.86231316
       5466.4490       1.2127498
       5467.1375       1.4734063
       5467.8259      0.62846052
       5468.5144       1.3079858
       5469.2028       1.0287409
       5469.8913       1.1641949
       5470.5797       1.0094011
       5471.2682      0.13456805
       5471.9566       1.1127967
       5472.6451       1.0169181
       5473.3335      0.77095108
       5474.0219      0.81747419
       5474.7104      0.90209943
       5475.3988      0.92928410
       5476.0873      0.99604135
       5476.7757      0.94794737
       5477.4642      0.80181318
       5478.1526      0.89548258
       5478.8411      0.83026388
       5479.5295      0.68985706
       5480.2180      0.69531886
       5480.9064      0.78950283
       5481.5948      0.77285630
       5482.2833      0.67705830
       5482.9717      0.70829633
       5483.6602       1.0554714
       5484.3486      0.83498983
       5485.0371      0.86714139
       5485.7255      0.72140941
       5486.4140      0.86133797
       5487.1024       1.0900782
       5487.7909       1.1091652
       5488.4793       1.0043985
       5489.1677      0.94846878
       5489.8562      0.91774418
       5490.5446      0.96414928
       5491.2331       1.1844472
       5491.9215       1.2700516
       5492.6100      0.74308737
       5493.2984      0.48916072
       5493.9869      0.71099541
       5494.6753       1.0384872
       5495.3638      0.73438023
       5496.0522      0.47598661
       5496.7406       1.0956079
       5497.4291      0.94449610
       5498.1175      0.81337608
       5498.8060      0.80043653
       5499.4944      0.83803316
       5500.1829      0.78082150
       5500.8713      0.88263926
       5501.5598      0.87483170
       5502.2482      0.96774894
       5502.9367      0.96193680
       5503.6251       1.0283137
       5504.3135       1.0843043
       5505.0020      0.90476036
       5505.6904      0.87595692
       5506.3789      0.76982580
       5507.0673      0.78858648
       5507.7558      0.75092675
       5508.4442      0.74687089
       5509.1327      0.70759432
       5509.8211      0.65564864
       5510.5096      0.80204063
       5511.1980      0.77940060
       5511.8865      0.56371199
       5512.5749      0.75933959
       5513.2633      0.99349811
       5513.9518       1.0520111
       5514.6402      0.93237800
       5515.3287      0.78599033
       5516.0171      0.96887565
       5516.7056      0.82334780
       5517.3940      0.72671287
       5518.0825      0.92878522
       5518.7709       1.1475487
       5519.4594       1.2893483
       5520.1478      0.54017992
       5520.8362      0.61619633
       5521.5247       1.0045657
       5522.2131       1.1267412
       5522.9016       1.1441940
       5523.5900      0.80567683
       5524.2785       1.1311732
       5524.9669       1.1515078
       5525.6554      0.98358685
       5526.3438       1.0662175
       5527.0323       1.0006982
       5527.7207      0.95656101
       5528.4091      0.81529069
       5529.0976      0.96970405
       5529.7860      0.95123219
       5530.4745      0.82854705
       5531.1629      0.92151573
       5531.8514      0.91909493
       5532.5398      0.89316186
       5533.2283      0.91264772
       5533.9167      0.80618195
       5534.6052      0.80015718
       5535.2936      0.98079400
       5535.9820      0.95892646
       5536.6705       1.0370518
       5537.3589      0.98938557
       5538.0474      0.89243968
       5538.7358      0.74325341
       5539.4243      0.81961313
       5540.1127      0.86648855
       5540.8012      0.92981057
       5541.4896      0.97682628
       5542.1781      0.99955480
       5542.8665       1.1421924
       5543.5549      0.95263386
       5544.2434      0.93619690
       5544.9318      0.92278259
       5545.6203       1.0098099
       5546.3087      0.91849680
       5546.9972      0.90626647
       5547.6856      0.98852845
       5548.3741      0.99285262
       5549.0625      0.99800706
       5549.7510       1.0448197
       5550.4394       1.0007439
       5551.1278      0.93390887
       5551.8163      0.78138744
       5552.5047       1.1006308
       5553.1932      0.99947384
       5553.8816       1.1533008
       5554.5701      0.94382416
       5555.2585       1.0273724
       5555.9470      0.96123879
       5556.6354      0.84664423
       5557.3239      0.79548712
       5558.0123      0.87697593
       5558.7007      0.83682927
       5559.3892      0.96276679
       5560.0776       1.0259062
       5560.7661      0.98783621
       5561.4545      0.99941217
       5562.1430      0.87573579
       5562.8314      0.77988538
       5563.5199      0.67824808
       5564.2083      0.83267026
       5564.8968      0.90010850
       5565.5852      0.87057376
       5566.2736      0.85255039
       5566.9621      0.89705369
       5567.6505      0.87170092
       5568.3390      0.83549516
       5569.0274      0.89275883
       5569.7159       1.0292780
       5570.4043       1.0357037
       5571.0928      0.83145284
       5571.7812      0.86610336
       5572.4697      0.86028485
       5573.1581      0.96599070
       5573.8465       1.0245562
       5574.5350       1.0266579
       5575.2234      0.98545941
       5575.9119      0.92152602
       5576.6003      0.78627293
       5577.2888      0.89524992
       5577.9772       1.0527132
       5578.6657       1.0268511
       5579.3541      0.90931498
       5580.0426      0.92058159
       5580.7310       1.0889160
       5581.4194      0.98577391
       5582.1079      0.85111030
       5582.7963      0.75629190
       5583.4848       1.1580127
       5584.1732       1.1963585
       5584.8617       1.1096641
       5585.5501      0.97873654
       5586.2386       1.0245652
       5586.9270       1.0648158
       5587.6155       1.2607964
       5588.3039       1.1240583
       5588.9923       1.2315001
       5589.6808       1.1811255
       5590.3692      0.90078661
       5591.0577       1.0480331
       5591.7461      0.94380515
       5592.4346      0.98142170
       5593.1230      0.91275955
       5593.8115      0.91719043
       5594.4999      0.76709845
       5595.1884      0.90761241
       5595.8768       1.2427998
       5596.5652      0.59163808
       5597.2537     -0.12467430
       5597.9421     -0.16037362
       5598.6306      0.81633540
       5599.3190       1.0876806
       5600.0075       1.0158623
       5600.6959      0.66414624
       5601.3844       1.1041289
       5602.0728       1.0468992
       5602.7613      0.99365209
       5603.4497      0.94306183
       5604.1381      0.83731082
       5604.8266      0.88286096
       5605.5150       1.0740607
       5606.2035       1.0672949
       5606.8919      0.79932305
       5607.5804       1.1143331
       5608.2688       1.2904396
       5608.9573      0.68492034
       5609.6457      0.90564704
       5610.3342       1.0803865
       5611.0226       1.0696683
       5611.7110      0.87688166
       5612.3995       1.0750819
       5613.0879       1.3469243
       5613.7764      0.96247926
       5614.4648      0.85399284
       5615.1533      0.92820822
       5615.8417      0.92196040
       5616.5302      0.97016187
       5617.2186       1.0962877
       5617.9071       1.0136697
       5618.5955      0.87769406
       5619.2839      0.53822551
       5619.9724      0.84807499
       5620.6608      0.88065780
       5621.3493      0.95048173
       5622.0377      0.90459033
       5622.7262      0.75221056
       5623.4146      0.98657585
       5624.1031      0.79276795
       5624.7915       1.0620366
       5625.4800      0.90130563
       5626.1684      0.89014164
       5626.8568       1.1019839
       5627.5453      0.86051867
       5628.2337      0.74033721
       5628.9222      0.77554163
       5629.6106      0.88400472
       5630.2991      0.75860911
       5630.9875      0.97928996
       5631.6760      0.96321422
       5632.3644      0.95264975
       5633.0529      0.86688948
       5633.7413      0.78471546
       5634.4297      0.84921226
       5635.1182      0.91995562
       5635.8066      0.89190798
       5636.4951      0.92934305
       5637.1835       1.0399022
       5637.8720      0.90254115
       5638.5604      0.91807623
       5639.2489      0.91199915
       5639.9373      0.94531687
       5640.6258      0.93962749
       5641.3142      0.81036149
       5642.0027      0.81526417
       5642.6911      0.92904018
       5643.3795      0.96551382
       5644.0680      0.95907270
       5644.7564      0.86008557
       5645.4449      0.76570751
       5646.1333      0.78162902
       5646.8218      0.85261106
       5647.5102      0.91023544
       5648.1987      0.92559509
       5648.8871      0.98610091
       5649.5756       1.0878337
       5650.2640      0.87423459
       5650.9524       1.2137147
       5651.6409       1.0597444
       5652.3293       1.6030333
       5653.0178      0.83251997
       5653.7062      0.73435056
       5654.3947       1.4579478
       5655.0831       1.2585465
       5655.7716       1.2091360
       5656.4600       1.0301791
       5657.1485      0.83994225
       5657.8369      0.66374218
       5658.5253      0.88684321
       5659.2138      0.80080294
       5659.9022       1.0083426
       5660.5907       1.0326300
       5661.2791      0.91905788
       5661.9676      0.92061025
       5662.6560      0.65000475
       5663.3445      0.87974912
       5664.0329      0.90937452
       5664.7214      0.89292913
       5665.4098      0.60771493
       5666.0982      0.82751236
       5666.7867      0.84772888
       5667.4751      0.89706732
       5668.1636      0.86272805
       5668.8520      0.82620704
       5669.5405      0.93475980
       5670.2289      0.90741809
       5670.9174      0.88965343
       5671.6058      0.84673809
       5672.2943      0.92722833
       5672.9827      0.89871608
       5673.6711      0.89226736
       5674.3596      0.89516368
       5675.0480      0.97446786
       5675.7365       1.0158579
       5676.4249      0.93952874
       5677.1134      0.96949909
       5677.8018      0.77727793
       5678.4903      0.94157448
       5679.1787      0.92252120
       5679.8672      0.83184237
       5680.5556      0.80172486
       5681.2440      0.87811908
       5681.9325      0.83307000
       5682.6209      0.89297190
       5683.3094      0.73595309
       5683.9978      0.76045772
       5684.6863      0.72729301
       5685.3747       1.1940626
       5686.0632       1.0006679
       5686.7516      0.61018655
       5687.4401      0.95644551
       5688.1285      0.97670097
       5688.8169      0.91184568
       5689.5054      0.87297801
       5690.1938      0.96678145
       5690.8823       1.1890521
       5691.5707       1.3580051
       5692.2592       1.3933661
       5692.9476       1.8140552
       5693.6361      0.64139639
       5694.3245     0.098501542
