# wavelength flux
       1818.6624     0.074863342
       1819.2912     0.078278799
       1819.9200      0.14393212
       1820.5489      0.12211544
       1821.1777      0.16725677
       1821.8065     0.035463338
       1822.4353    0.0036192594
       1823.0641     0.061021946
       1823.6929     0.070599893
       1824.3218     0.051432664
       1824.9506     0.048434304
       1825.5794    0.0080328923
       1826.2082     0.095327925
       1826.8370     0.058460460
       1827.4658     0.068409807
       1828.0947     0.080025924
       1828.7235     0.035170898
       1829.3523     0.076115279
       1829.9811    -0.031033640
       1830.6099   -0.0075936752
       1831.2387     0.093068325
       1831.8676     0.055089210
       1832.4964     0.088823252
       1833.1252    0.0032761590
       1833.7540     0.056928710
       1834.3828     0.014974490
       1835.0116   -0.0084939367
       1835.6405     0.025726188
       1836.2693     0.080016336
       1836.8981     0.012712204
       1837.5269     0.043581579
       1838.1557     0.029653265
       1838.7846     0.045020170
       1839.4134     0.074102739
       1840.0422      0.15071945
       1840.6710     0.070873834
       1841.2998     0.056265319
       1841.9286     0.088771039
       1842.5575      0.11974238
       1843.1863      0.12185228
       1843.8151     0.051437827
       1844.4439     0.090178334
       1845.0727     0.080094458
       1845.7015     0.032529745
       1846.3304     0.030079704
       1846.9592    0.0030144657
       1847.5880     0.029550824
       1848.2168     0.091470944
       1848.8456     0.077644389
       1849.4744    0.0078637126
       1850.1033     0.061963355
       1850.7321     0.078238525
       1851.3609     0.076230513
       1851.9897      0.11559087
       1852.6185     0.088673623
       1853.2473    -0.019146042
       1853.8762     0.053781784
       1854.5050      0.14922711
       1855.1338      0.10932022
       1855.7626      0.16817579
       1856.3914      0.12817471
       1857.0203     0.093027422
       1857.6491     0.079275635
       1858.2779      0.11522205
       1858.9067      0.10745100
       1859.5355     0.066390056
       1860.1643     0.076806709
       1860.7932     0.096124980
       1861.4220     0.062505728
       1862.0508     0.072992326
       1862.6796     0.091037600
       1863.3084     0.091683279
       1863.9372     0.045394021
       1864.5661     0.033859473
       1865.1949     0.018917880
       1865.8237      0.10792429
       1866.4525     0.065116286
       1867.0813     0.083423300
       1867.7101     0.062510416
       1868.3390     0.026560840
       1868.9678     0.033753135
       1869.5966     0.058471040
       1870.2254     0.066199732
       1870.8542     0.073650458
       1871.4830     0.081415068
       1872.1119     0.081723963
       1872.7407     0.064913426
       1873.3695     0.053335212
       1873.9983     0.057570928
       1874.6271     0.097350607
       1875.2559     0.071824216
       1875.8848     0.069386846
       1876.5136     0.077684534
       1877.1424      0.11559274
       1877.7712     0.064635556
       1878.4000     0.093171201
       1879.0289     0.045993411
       1879.6577     0.055226951
       1880.2865     0.046533383
       1880.9153     0.055108164
       1881.5441     0.055638153
       1882.1729     0.080864264
       1882.8018     0.088482392
       1883.4306      0.10488488
       1884.0594      0.10911229
       1884.6882     0.065758889
       1885.3170      0.17000596
       1885.9458      0.11510422
       1886.5747      0.12020123
       1887.2035     0.098206406
       1887.8323      0.11856589
       1888.4611      0.16193445
       1889.0899      0.14745443
       1889.7187     0.041031218
       1890.3476     0.076249234
       1890.9764     0.097046145
       1891.6052     0.068353906
       1892.2340     0.079381722
       1892.8628     0.063690415
       1893.4916     0.080056836
       1894.1205     0.073168781
       1894.7493     0.060745279
       1895.3781     0.020580401
       1896.0069     0.066328142
       1896.6357      0.10914761
       1897.2645     0.089927427
       1897.8934     0.040076395
       1898.5222     0.056480217
       1899.1510     0.078127153
       1899.7798     0.063719407
       1900.4086     0.067928516
       1901.0375      0.14087463
       1901.6663     0.078445537
       1902.2951     0.044510337
       1902.9239      0.10387645
       1903.5527     0.087911026
       1904.1815     0.095432132
       1904.8104     0.073590443
       1905.4392      0.12013878
       1906.0680      0.13193398
       1906.6968     0.081807571
       1907.3256     0.059675202
       1907.9544      0.12206387
       1908.5833      0.10711032
       1909.2121      0.10731127
       1909.8409     0.053057234
       1910.4697     0.074747372
       1911.0985     0.097953517
       1911.7273     0.098377890
       1912.3562     0.067476688
       1912.9850     0.081624741
       1913.6138      0.10703551
       1914.2426      0.13160361
       1914.8714     0.066612334
       1915.5002      0.11399530
       1916.1291     0.095280539
       1916.7579     0.088305290
       1917.3867     0.070800395
       1918.0155     0.062153563
       1918.6443      0.12164646
       1919.2732     0.044681441
       1919.9020     0.090981510
       1920.5308     0.058617944
       1921.1596     0.080075540
       1921.7884     0.055435877
       1922.4172      0.10569151
       1923.0461     0.048880108
       1923.6749     0.032032549
       1924.3037     0.065879727
       1924.9325     0.082812925
       1925.5613      0.10426113
       1926.1901     0.092377111
       1926.8190    0.0064959497
       1927.4478     0.061740526
       1928.0766     0.027750027
       1928.7054     0.083307332
       1929.3342      0.13948000
       1929.9630     0.098137288
       1930.5919     0.097202222
       1931.2207      0.11486489
       1931.8495     0.082194288
       1932.4783     0.099936396
       1933.1071     0.070634074
       1933.7359     0.089326901
       1934.3648      0.12410955
       1934.9936     0.081727569
       1935.6224     0.076309828
       1936.2512     0.095599230
       1936.8800     0.082958701
       1937.5088      0.10429560
       1938.1377     0.099386234
       1938.7665     0.096265095
       1939.3953     0.092412761
       1940.0241      0.11140010
       1940.6529      0.13254164
       1941.2818     0.080938307
       1941.9106     0.088140333
       1942.5394     0.079679334
       1943.1682     0.099900763
       1943.7970     0.055602238
       1944.4258     0.094760998
       1945.0547     0.066382795
       1945.6835     0.099731414
       1946.3123     0.073147053
       1946.9411     0.087028686
       1947.5699     0.093606190
       1948.1987     0.088212876
       1948.8276      0.12962277
       1949.4564      0.10033971
       1950.0852      0.10170542
       1950.7140     0.057491549
       1951.3428     0.069052355
       1951.9716      0.11546792
       1952.6005     0.070553916
       1953.2293     0.050029140
       1953.8581     0.047881011
       1954.4869     0.094329760
       1955.1157     0.047330165
       1955.7445     0.065379603
       1956.3734     0.057163997
       1957.0022     0.082691395
       1957.6310     0.023485552
       1958.2598     0.066709038
       1958.8886     0.064993218
       1959.5175     0.083533978
       1960.1463     0.096995887
       1960.7751     0.054486811
       1961.4039     0.085900221
       1962.0327     0.047478302
       1962.6615      0.14579950
       1963.2904      0.10472828
       1963.9192     0.080253137
       1964.5480     0.085685883
       1965.1768     0.056072809
       1965.8056     0.080551157
       1966.4344     0.079115504
       1967.0633     0.049281824
       1967.6921     0.052235857
       1968.3209     0.085674015
       1968.9497     0.077843986
       1969.5785      0.10247970
       1970.2073     0.086674744
       1970.8362     0.075680470
       1971.4650     0.097660461
       1972.0938     0.090634428
       1972.7226     0.090332346
       1973.3514      0.10639083
       1973.9802      0.11937771
       1974.6091      0.12973966
       1975.2379      0.12536345
       1975.8667     0.096889200
       1976.4955     0.071345977
       1977.1243     0.083502683
       1977.7531     0.097447951
       1978.3820      0.11015669
       1979.0108      0.10989884
       1979.6396     0.093477363
       1980.2684      0.11631801
       1980.8972     0.095047736
       1981.5261     0.086464570
       1982.1549     0.091895140
       1982.7837     0.073772679
       1983.4125     0.066918510
       1984.0413     0.079715556
       1984.6701     0.068999646
       1985.2990     0.077292302
       1985.9278      0.10431944
       1986.5566     0.077640567
       1987.1854     0.087701126
       1987.8142     0.085133661
       1988.4430     0.080067177
       1989.0719     0.067601899
       1989.7007     0.078886160
       1990.3295     0.097279480
       1990.9583     0.084018652
       1991.5871     0.088067105
       1992.2159     0.085451321
       1992.8448     0.053565234
       1993.4736     0.069947554
       1994.1024     0.095394210
       1994.7312     0.069660018
       1995.3600     0.062580072
       1995.9888      0.10121574
       1996.6177     0.051841408
       1997.2465     0.065038972
       1997.8753     0.067876789
       1998.5041     0.089586396
       1999.1329     0.077465268
       1999.7618     0.065360465
       2000.3906      0.11702560
       2001.0194     0.082570491
       2001.6482     0.093674468
       2002.2770     0.072572036
       2002.9058     0.096071926
       2003.5347     0.084532431
       2004.1635      0.10898244
       2004.7923     0.072669752
       2005.4211     0.062604585
       2006.0499      0.11903629
       2006.6787      0.11070405
       2007.3076      0.12622020
       2007.9364      0.11271689
       2008.5652      0.11535041
       2009.1940      0.10052037
       2009.8228      0.10941173
       2010.4516     0.072903978
       2011.0805      0.10613615
       2011.7093     0.059615152
       2012.3381     0.087731245
       2012.9669     0.099580033
       2013.5957     0.075562469
       2014.2245     0.086607893
       2014.8534     0.073550350
       2015.4822     0.090088749
       2016.1110      0.11709865
       2016.7398      0.10716918
       2017.3686     0.061972909
       2017.9974      0.10098713
       2018.6263     0.090759358
       2019.2551     0.077045734
       2019.8839     0.097423080
       2020.5127     0.093712035
       2021.1415     0.087096741
       2021.7704     0.070805398
       2022.3992      0.10216171
       2023.0280     0.069117172
       2023.6568     0.098662747
       2024.2856      0.11660616
       2024.9144      0.11831499
       2025.5433     0.091702245
       2026.1721     0.082234524
       2026.8009      0.10380398
       2027.4297     0.088485263
       2028.0585     0.057051297
       2028.6873     0.082844940
       2029.3162     0.084372360
       2029.9450      0.10716790
       2030.5738      0.10986200
       2031.2026     0.088208526
       2031.8314     0.097003377
       2032.4602     0.086989260
       2033.0891     0.068245360
       2033.7179     0.089463616
       2034.3467     0.071951582
       2034.9755     0.091392538
       2035.6043      0.10068895
       2036.2331     0.097140394
       2036.8620      0.10659354
       2037.4908     0.085869176
       2038.1196      0.11712518
       2038.7484     0.071909843
       2039.3772      0.11322605
       2040.0060      0.10194598
       2040.6349     0.081918564
       2041.2637     0.081962365
       2041.8925      0.10172768
       2042.5213     0.092053702
       2043.1501     0.073366189
       2043.7790     0.091765855
       2044.4078     0.058876170
       2045.0366     0.053179148
       2045.6654     0.082815831
       2046.2942      0.10945102
       2046.9230     0.082606021
       2047.5519     0.093628331
       2048.1807      0.11336927
       2048.8095     0.092462492
       2049.4383     0.075269792
       2050.0671     0.088378310
       2050.6959     0.077113762
       2051.3248     0.077168080
       2051.9536     0.096528871
       2052.5824     0.082865813
       2053.2112     0.082983845
       2053.8400     0.091649990
       2054.4688     0.071558955
       2055.0977     0.090317487
       2055.7265     0.084534364
       2056.3553      0.10231844
       2056.9841     0.097135598
       2057.6129     0.077637052
       2058.2417     0.086769030
       2058.8706      0.10148239
       2059.4994     0.067606200
       2060.1282     0.061907659
       2060.7570     0.086174147
       2061.3858     0.088627650
       2062.0147      0.10948269
       2062.6435     0.076219589
       2063.2723     0.045077853
       2063.9011      0.11537114
       2064.5299     0.066605923
       2065.1587     0.094834252
       2065.7876     0.081115830
       2066.4164     0.065224582
       2067.0452     0.084075768
       2067.6740      0.10485337
       2068.3028      0.11411142
       2068.9316      0.10507724
       2069.5605     0.086164453
       2070.1893     0.099062024
       2070.8181      0.13312074
       2071.4469      0.13469762
       2072.0757      0.11179223
       2072.7045     0.062064635
       2073.3334      0.11024621
       2073.9622     0.093624349
       2074.5910     0.076919031
       2075.2198     0.096610258
       2075.8486      0.10821419
       2076.4774     0.079592246
       2077.1063     0.094844202
       2077.7351      0.10380606
       2078.3639     0.078436374
       2078.9927     0.087391443
       2079.6215      0.11098169
       2080.2503     0.095970697
       2080.8792      0.10571030
       2081.5080      0.10398261
       2082.1368     0.082553144
       2082.7656      0.10273942
       2083.3944      0.10015048
       2084.0233     0.099069842
       2084.6521      0.11563891
       2085.2809     0.083599070
       2085.9097      0.10356318
       2086.5385     0.093742214
       2087.1673     0.093151890
       2087.7962     0.088421258
       2088.4250      0.10658484
       2089.0538     0.089609107
       2089.6826     0.091511662
       2090.3114     0.077007963
       2090.9402     0.084812805
       2091.5691      0.13334888
       2092.1979      0.11971022
       2092.8267      0.13372219
       2093.4555      0.10030322
       2094.0843     0.082950735
       2094.7131     0.099864867
       2095.3420      0.10538323
       2095.9708     0.091100126
       2096.5996      0.10162950
       2097.2284      0.13567458
       2097.8572     0.088267503
       2098.4860      0.11389184
       2099.1149      0.12134339
       2099.7437      0.10109482
       2100.3725     0.094853140
       2101.0013     0.096090092
       2101.6301     0.098951430
       2102.2590     0.094769407
       2102.8878     0.095677048
       2103.5166      0.12901066
       2104.1454      0.11192403
       2104.7742     0.076645107
       2105.4030     0.071491819
       2106.0319     0.096865544
       2106.6607     0.079603415
       2107.2895     0.086280755
       2107.9183     0.076453085
       2108.5471      0.10368463
       2109.1759      0.12838202
       2109.8048      0.12418056
       2110.4336      0.11349070
       2111.0624      0.12539338
       2111.6912     0.076066994
       2112.3200     0.075134336
       2112.9488      0.12212935
       2113.5777      0.11251024
       2114.2065      0.13256593
       2114.8353      0.11951203
       2115.4641     0.090528302
       2116.0929      0.12917677
       2116.7217     0.090193265
       2117.3506      0.10360774
       2117.9794      0.11196918
       2118.6082      0.11591011
       2119.2370      0.11334107
       2119.8658      0.11334170
       2120.4946     0.098178184
       2121.1235     0.099013190
       2121.7523     0.081405871
       2122.3811     0.059544806
       2123.0099     0.068368769
       2123.6387     0.085111180
       2124.2676      0.11395221
       2124.8964     0.076896373
       2125.5252     0.071752375
       2126.1540     0.067864734
       2126.7828     0.076823215
       2127.4116      0.12808655
       2128.0405      0.13250972
       2128.6693     0.098397509
       2129.2981      0.11744579
       2129.9269      0.10445815
       2130.5557      0.13536569
       2131.1845      0.12394845
       2131.8134      0.14808567
       2132.4422      0.13512510
       2133.0710      0.11512646
       2133.6998      0.16034219
       2134.3286     0.095238172
       2134.9574      0.11209257
       2135.5863      0.11353990
       2136.2151     0.097942928
       2136.8439     0.088851450
       2137.4727     0.064000696
       2138.1015     0.085615020
       2138.7303      0.11561465
       2139.3592      0.11913975
       2139.9880     0.078826574
       2140.6168     0.084873819
       2141.2456      0.10802908
       2141.8744      0.10438311
       2142.5033      0.10084163
       2143.1321      0.11449822
       2143.7609      0.10966784
       2144.3897      0.10293147
       2145.0185     0.094905641
       2145.6473      0.12464840
       2146.2762      0.12773951
       2146.9050      0.11700658
       2147.5338      0.10938067
       2148.1626      0.10709589
       2148.7914     0.088090117
       2149.4202     0.098969584
       2150.0491      0.10898590
       2150.6779     0.094516922
       2151.3067      0.10977284
       2151.9355     0.089635727
       2152.5643      0.11998890
       2153.1931     0.081036186
       2153.8220     0.091423902
       2154.4508      0.10569566
       2155.0796      0.11924161
       2155.7084     0.062443808
       2156.3372      0.10923410
       2156.9660      0.10629512
       2157.5949      0.11064652
       2158.2237     0.071012257
       2158.8525     0.077727971
       2159.4813      0.12503352
       2160.1101      0.10216269
       2160.7389     0.097556447
       2161.3678      0.11365467
       2161.9966      0.10514230
       2162.6254      0.10284499
       2163.2542     0.093966129
       2163.8830      0.10923422
       2164.5119     0.092367205
       2165.1407     0.082806885
       2165.7695     0.095860342
       2166.3983      0.10164451
       2167.0271      0.10621089
       2167.6559      0.11910102
       2168.2848      0.12780023
       2168.9136      0.11686835
       2169.5424      0.12272147
       2170.1712      0.10883995
       2170.8000      0.12939637
       2171.4288      0.11960067
       2172.0577      0.13480154
       2172.6865     0.087268792
       2173.3153     0.089451254
       2173.9441     0.078719754
       2174.5729      0.10012788
       2175.2017      0.12718360
       2175.8306      0.11728193
       2176.4594     0.094535990
       2177.0882     0.096792492
       2177.7170      0.10840876
       2178.3458      0.11652683
       2178.9746     0.085633829
       2179.6035     0.092188324
       2180.2323      0.11361645
       2180.8611      0.12493409
       2181.4899     0.070298270
       2182.1187      0.11613740
       2182.7475     0.070762626
       2183.3764      0.11122299
       2184.0052      0.10000790
       2184.6340     0.094354146
       2185.2628      0.10168359
       2185.8916     0.099102142
       2186.5205      0.11639083
       2187.1493     0.094026324
       2187.7781      0.15677149
       2188.4069      0.11692838
       2189.0357     0.091878479
       2189.6645      0.15172673
       2190.2934      0.12648626
       2190.9222      0.11804946
       2191.5510      0.11743000
       2192.1798      0.12218934
       2192.8086      0.10645911
       2193.4374      0.10268406
       2194.0663      0.12205583
       2194.6951     0.087464695
       2195.3239      0.10526942
       2195.9527      0.11313553
       2196.5815      0.11381545
       2197.2103      0.10799512
       2197.8392      0.11805412
       2198.4680      0.13609296
       2199.0968      0.12978110
       2199.7256      0.12455451
       2200.3544      0.11801220
       2200.9832      0.11206502
       2201.6121     0.085949689
       2202.2409     0.079425151
       2202.8697      0.12386476
       2203.4985     0.092069527
       2204.1273      0.11972021
       2204.7562     0.076573972
       2205.3850      0.11458954
       2206.0138      0.11004650
       2206.6426      0.13535938
       2207.2714      0.12634726
       2207.9002      0.11028029
       2208.5291      0.12655296
       2209.1579     0.094055266
       2209.7867      0.11746123
       2210.4155      0.13415195
       2211.0443      0.11003313
       2211.6731      0.12475962
       2212.3020      0.10820978
       2212.9308     0.072199705
       2213.5596      0.12283262
       2214.1884      0.12564555
       2214.8172     0.079619211
       2215.4460      0.12300576
       2216.0749     0.090813473
       2216.7037      0.10412205
       2217.3325     0.099851813
       2217.9613      0.10292139
       2218.5901      0.13007976
       2219.2189      0.11330186
       2219.8478      0.10352855
       2220.4766      0.11409172
       2221.1054      0.12392760
       2221.7342      0.12295458
       2222.3630      0.10227090
       2222.9918      0.11137412
       2223.6207      0.11885346
       2224.2495      0.10011672
       2224.8783     0.096423118
       2225.5071      0.10136531
       2226.1359      0.12456103
       2226.7648     0.090679556
       2227.3936      0.10654456
       2228.0224      0.13865004
       2228.6512      0.11334350
       2229.2800      0.11261610
       2229.9088      0.12276246
       2230.5377      0.12724619
       2231.1665      0.10715825
       2231.7953     0.091561478
       2232.4241      0.12360564
       2233.0529     0.090599313
       2233.6817      0.10220654
       2234.3106      0.11779884
       2234.9394      0.10583359
       2235.5682      0.12707409
       2236.1970     0.088095620
       2236.8258      0.11426197
       2237.4546     0.098287108
       2238.0835      0.11378882
       2238.7123     0.098441129
       2239.3411     0.094244540
       2239.9699      0.11637599
       2240.5987     0.098117908
       2241.2275     0.084443328
       2241.8564      0.11450437
       2242.4852      0.11353098
       2243.1140     0.078418650
       2243.7428      0.12528471
       2244.3716     0.094319337
       2245.0005      0.10994640
       2245.6293      0.10211786
       2246.2581      0.10635146
       2246.8869      0.10530569
       2247.5157     0.096262130
       2248.1445      0.10869054
       2248.7734      0.10149358
       2249.4022      0.12621691
       2250.0310     0.096905564
       2250.6598     0.092466711
       2251.2886      0.10946142
       2251.9174      0.12415823
       2252.5463      0.10298374
       2253.1751      0.10700451
       2253.8039      0.12148611
       2254.4327      0.12514887
       2255.0615      0.13222955
       2255.6903      0.10725503
       2256.3192      0.12421802
       2256.9480     0.071104110
       2257.5768      0.13010760
       2258.2056      0.11906819
       2258.8344      0.10196943
       2259.4632     0.099685147
       2260.0921      0.10376109
       2260.7209      0.10833299
       2261.3497      0.10115778
       2261.9785      0.12442678
       2262.6073     0.094339439
       2263.2361      0.11152860
       2263.8650      0.11574257
       2264.4938      0.14575076
       2265.1226      0.10735915
       2265.7514      0.12375722
       2266.3802     0.096214403
       2267.0091      0.11457595
       2267.6379      0.13254924
       2268.2667      0.10511593
       2268.8955      0.11717386
       2269.5243      0.14242033
       2270.1531      0.12454811
       2270.7820     0.093262780
       2271.4108      0.12717189
       2272.0396      0.12158927
       2272.6684     0.098797724
       2273.2972     0.097986045
       2273.9260     0.090092072
       2274.5549      0.14397372
       2275.1837      0.11165739
       2275.8125      0.11807515
       2276.4413      0.11141032
       2277.0701      0.10143232
       2277.6989      0.11353830
       2278.3278      0.10199055
       2278.9566      0.15020386
       2279.5854      0.12084011
       2280.2142      0.11516762
       2280.8430      0.14244110
       2281.4718      0.13693849
       2282.1007      0.11559795
       2282.7295      0.13257352
       2283.3583      0.13357160
       2283.9871      0.10180377
       2284.6159      0.10435140
       2285.2448      0.11281648
       2285.8736      0.14984373
       2286.5024      0.10569441
       2287.1312      0.13098320
       2287.7600      0.11609622
       2288.3888      0.13175571
       2289.0177      0.12839213
       2289.6465      0.11095558
       2290.2753      0.11123880
       2290.9041      0.11040399
       2291.5329     0.092537860
       2292.1617      0.10864666
       2292.7906      0.10672141
       2293.4194      0.11082716
       2294.0482      0.11060231
       2294.6770      0.13998935
       2295.3058      0.14092129
       2295.9346      0.12898471
       2296.5635      0.10704212
       2297.1923      0.10674866
       2297.8211      0.11564947
       2298.4499      0.12550897
       2299.0787      0.13381498
       2299.7075      0.11225513
       2300.3364      0.11939059
       2300.9652      0.10579734
       2301.5940      0.11887494
       2302.2228      0.10211080
       2302.8516      0.13798721
       2303.4804      0.11245798
       2304.1093      0.10744831
       2304.7381      0.12804491
       2305.3669      0.11028430
       2305.9957      0.12112836
       2306.6245      0.12089806
       2307.2534      0.12497594
       2307.8822      0.11967485
       2308.5110      0.13319462
       2309.1398      0.13208687
       2309.7686      0.10445180
       2310.3974      0.12996971
       2311.0263      0.12258693
       2311.6551      0.13188250
       2312.2839      0.11797523
       2312.9127      0.10415865
       2313.5415      0.10372890
       2314.1703      0.10418602
       2314.7992     0.098991383
       2315.4280      0.11715817
       2316.0568      0.13176781
       2316.6856      0.11606911
       2317.3144     0.088033518
       2317.9432      0.11009808
       2318.5721      0.12649989
       2319.2009      0.10303671
       2319.8297      0.11987724
       2320.4585      0.10295111
       2321.0873      0.13186702
       2321.7161      0.15386883
       2322.3450      0.12705800
       2322.9738      0.10898773
       2323.6026      0.12731849
       2324.2314      0.10754138
       2324.8602      0.13150637
       2325.4890      0.11371483
       2326.1179      0.15655872
       2326.7467      0.10901798
       2327.3755      0.10360435
       2328.0043      0.12977062
       2328.6331      0.12463225
       2329.2620      0.10437505
       2329.8908      0.10006193
       2330.5196      0.11479701
       2331.1484     0.087302208
       2331.7772     0.081118374
       2332.4060      0.12795904
       2333.0349      0.11521118
       2333.6637     0.094781963
       2334.2925     0.099507181
       2334.9213      0.10414956
       2335.5501      0.10948324
       2336.1789      0.12961426
       2336.8078     0.099225763
       2337.4366      0.11610907
       2338.0654      0.10011550
       2338.6942      0.11611798
       2339.3230      0.11121164
       2339.9518      0.12866231
       2340.5807      0.10564424
       2341.2095      0.13378659
       2341.8383      0.13991972
       2342.4671      0.11239390
       2343.0959     0.086236004
       2343.7247      0.14261394
       2344.3536      0.12950874
       2344.9824      0.10702229
       2345.6112     0.094448158
       2346.2400      0.10351152
       2346.8688     0.098679143
       2347.4977      0.10407787
       2348.1265      0.11248008
       2348.7553      0.12980281
       2349.3841      0.12738418
       2350.0129      0.10996730
       2350.6417      0.10818631
       2351.2706      0.11651635
       2351.8994     0.096839651
       2352.5282      0.11694202
       2353.1570     0.075770051
       2353.7858      0.13710020
       2354.4146      0.14507270
       2355.0435      0.11109971
       2355.6723      0.12478645
       2356.3011      0.12053835
       2356.9299      0.12727009
       2357.5587      0.11950965
       2358.1875      0.10771076
       2358.8164      0.11819745
       2359.4452      0.12952010
       2360.0740      0.10653443
       2360.7028     0.080097176
       2361.3316      0.11298237
       2361.9604      0.14083691
       2362.5893      0.11565883
       2363.2181      0.11451492
       2363.8469      0.12735060
       2364.4757      0.10538424
       2365.1045      0.10661173
       2365.7333      0.13835166
       2366.3622      0.11465706
       2366.9910      0.11426937
       2367.6198      0.16985393
       2368.2486      0.15577106
       2368.8774      0.12580271
       2369.5063      0.11383424
       2370.1351      0.10490304
       2370.7639      0.12109880
       2371.3927      0.11732678
       2372.0215      0.16367295
       2372.6503      0.11490698
       2373.2792      0.13674650
       2373.9080      0.11125068
       2374.5368      0.12485590
       2375.1656     0.091904847
       2375.7944      0.11369223
       2376.4232      0.12163993
       2377.0521      0.11086044
       2377.6809      0.12591513
       2378.3097     0.079934737
       2378.9385      0.16130162
       2379.5673      0.11236994
       2380.1961      0.13536470
       2380.8250      0.10505779
       2381.4538      0.15513171
       2382.0826      0.11804892
       2382.7114      0.12336730
       2383.3402      0.14911972
       2383.9690      0.12234585
       2384.5979      0.13150326
       2385.2267      0.11077635
       2385.8555      0.11518209
       2386.4843      0.10455415
       2387.1131      0.12253192
       2387.7420      0.13621345
       2388.3708     0.098326666
       2388.9996      0.12513050
       2389.6284      0.13661697
       2390.2572      0.12214643
       2390.8860      0.12669629
       2391.5149     0.094536691
       2392.1437      0.13995461
       2392.7725      0.13386116
       2393.4013      0.13395768
       2394.0301     0.094581496
       2394.6589      0.12491710
       2395.2878      0.15252055
       2395.9166      0.10293567
       2396.5454      0.15695789
       2397.1742      0.13639415
       2397.8030      0.10330495
       2398.4318      0.15246883
       2399.0607      0.11697015
       2399.6895      0.12549964
       2400.3183      0.14027365
       2400.9471      0.15141611
       2401.5759      0.10884819
       2402.2047     0.094364152
       2402.8336      0.11136061
       2403.4624      0.14483878
       2404.0912      0.14267338
       2404.7200      0.14003822
       2405.3488      0.12937197
       2405.9776      0.13948700
       2406.6065      0.11074215
       2407.2353      0.12559366
       2407.8641      0.12843654
       2408.4929      0.15395063
       2409.1217      0.10581206
       2409.7506      0.12303546
       2410.3794      0.10443115
       2411.0082      0.12611488
       2411.6370      0.12654212
       2412.2658      0.12420953
       2412.8946      0.11014929
       2413.5235      0.12881909
       2414.1523      0.13873773
       2414.7811      0.12847858
       2415.4099      0.13279949
       2416.0387      0.10084324
       2416.6675      0.13121053
       2417.2964      0.14609821
       2417.9252     0.085399132
       2418.5540      0.14665615
       2419.1828      0.17464634
       2419.8116      0.18856486
       2420.4404      0.14712770
       2421.0693      0.14950544
       2421.6981      0.12116237
       2422.3269      0.14224069
       2422.9557      0.14093115
       2423.5845     0.094330735
       2424.2133      0.12054054
       2424.8422      0.12743177
       2425.4710      0.13036639
       2426.0998      0.13979598
       2426.7286      0.10881623
       2427.3574      0.15200440
       2427.9863      0.15168747
       2428.6151      0.12536201
       2429.2439      0.13643657
       2429.8727      0.12249733
       2430.5015      0.12606453
       2431.1303      0.16425573
       2431.7592      0.10238418
       2432.3880      0.13818407
       2433.0168      0.13468939
       2433.6456      0.12576348
       2434.2744      0.10905153
       2434.9032      0.13345971
       2435.5321      0.16035902
       2436.1609      0.14405875
       2436.7897      0.15460085
       2437.4185      0.16006368
       2438.0473      0.17510860
       2438.6761      0.14056044
       2439.3050      0.14364709
       2439.9338      0.14703095
       2440.5626      0.15439261
       2441.1914      0.12438657
       2441.8202     0.098343157
       2442.4490      0.13603317
       2443.0779      0.13643833
       2443.7067      0.14389632
       2444.3355      0.13224860
       2444.9643      0.11572841
       2445.5931      0.12120061
       2446.2219      0.11364638
       2446.8508      0.12950944
       2447.4796      0.12893918
       2448.1084      0.12275562
       2448.7372      0.14107833
       2449.3660      0.12491294
       2449.9949      0.14457547
       2450.6237      0.13152108
       2451.2525      0.13591709
       2451.8813      0.10576801
       2452.5101      0.14253341
       2453.1389      0.15274199
       2453.7678      0.12844868
       2454.3966      0.14230065
       2455.0254      0.13338444
       2455.6542      0.14594767
       2456.2830      0.14663805
       2456.9118      0.12384997
       2457.5407      0.10900256
       2458.1695      0.13774709
       2458.7983      0.18498820
       2459.4271      0.15976657
       2460.0559      0.15822784
       2460.6847      0.16566605
       2461.3136      0.10948980
       2461.9424      0.12782520
       2462.5712      0.14583830
       2463.2000      0.14556096
       2463.8288      0.13547255
       2464.4576      0.12466687
       2465.0865      0.14845546
       2465.7153      0.16365513
       2466.3441      0.13665518
       2466.9729      0.13548486
       2467.6017      0.14178228
       2468.2305      0.10950464
       2468.8594      0.13209295
       2469.4882      0.12292113
       2470.1170      0.13568127
       2470.7458      0.15006406
       2471.3746      0.15695051
       2472.0035      0.13276302
       2472.6323      0.15665367
       2473.2611      0.13218859
       2473.8899      0.11819364
       2474.5187      0.15673511
       2475.1475      0.11420930
       2475.7764      0.11989271
       2476.4052      0.12349406
       2477.0340      0.14148167
       2477.6628      0.13128123
       2478.2916      0.16530144
       2478.9204      0.12347481
       2479.5493      0.16149506
       2480.1781      0.15057032
       2480.8069      0.14158671
       2481.4357      0.15305508
       2482.0645      0.11416995
       2482.6933      0.13982236
       2483.3222      0.15341968
       2483.9510      0.13864735
       2484.5798      0.14593554
       2485.2086      0.14401012
       2485.8374      0.15117229
       2486.4662      0.12756888
       2487.0951      0.15242491
       2487.7239      0.11856964
       2488.3527      0.15581134
       2488.9815      0.14139459
       2489.6103      0.12278360
       2490.2392      0.14971862
       2490.8680      0.13898678
       2491.4968      0.15623202
       2492.1256      0.10770384
       2492.7544      0.16700733
       2493.3832      0.12717649
       2494.0121      0.14080987
       2494.6409      0.13793037
       2495.2697      0.18306058
       2495.8985      0.11087028
       2496.5273      0.15012281
       2497.1561      0.13559058
       2497.7850      0.18205964
       2498.4138      0.14445444
       2499.0426      0.14428247
       2499.6714      0.15000068
       2500.3002      0.14303144
       2500.9290      0.16546700
       2501.5579      0.13533609
       2502.1867      0.18358327
       2502.8155      0.18950050
       2503.4443      0.13997095
       2504.0731      0.16483113
       2504.7019      0.15543264
       2505.3308      0.15758109
       2505.9596      0.16402807
       2506.5884      0.13576391
       2507.2172      0.14242875
       2507.8460      0.15189754
       2508.4748      0.13943961
       2509.1037      0.12393128
       2509.7325      0.15364344
       2510.3613      0.12777807
       2510.9901      0.16846932
       2511.6189      0.15581345
       2512.2478      0.16430869
       2512.8766      0.13676202
       2513.5054      0.14883211
       2514.1342      0.15463430
       2514.7630      0.15021764
       2515.3918      0.12271460
       2516.0207      0.12178286
       2516.6495      0.15722515
       2517.2783      0.14424639
       2517.9071      0.17159451
       2518.5359      0.13468476
       2519.1647      0.18356752
       2519.7936      0.15585054
       2520.4224      0.13055074
       2521.0512      0.12294719
       2521.6800      0.14669139
       2522.3088      0.12508279
       2522.9376      0.15458732
       2523.5665      0.15068235
       2524.1953      0.13085506
       2524.8241      0.15998672
       2525.4529      0.16083472
       2526.0817      0.14460272
       2526.7105      0.16166950
       2527.3394      0.11524542
       2527.9682      0.16255053
       2528.5970      0.11152578
       2529.2258      0.12672994
       2529.8546      0.15420475
       2530.4835      0.12440779
       2531.1123      0.14259177
       2531.7411      0.16983044
       2532.3699      0.13312858
       2532.9987      0.15768459
       2533.6275      0.16877479
       2534.2564      0.13324964
       2534.8852      0.16016955
       2535.5140      0.19592471
       2536.1428      0.15298256
       2536.7716      0.15842585
       2537.4004      0.15139644
       2538.0293      0.16241530
       2538.6581      0.14208715
       2539.2869      0.14642624
       2539.9157      0.16793842
       2540.5445      0.15973032
       2541.1733      0.12799761
       2541.8022      0.14015860
       2542.4310      0.14371629
       2543.0598      0.13853972
       2543.6886      0.16381964
       2544.3174      0.16395911
       2544.9462      0.12487929
       2545.5751      0.13363880
       2546.2039      0.11132053
       2546.8327      0.16554679
       2547.4615      0.16488621
       2548.0903      0.13036034
       2548.7191      0.13460245
       2549.3480      0.16857783
       2549.9768      0.14566856
       2550.6056      0.15224428
       2551.2344      0.15198163
       2551.8632      0.13774409
       2552.4921      0.12225687
       2553.1209      0.11290750
       2553.7497      0.18201177
       2554.3785      0.17166515
       2555.0073      0.15681712
       2555.6361      0.10756599
       2556.2650      0.12532525
       2556.8938      0.14005992
       2557.5226      0.14783100
       2558.1514      0.14490544
       2558.7802      0.12249662
       2559.4090      0.14177005
       2560.0379      0.13745621
       2560.6667      0.13094626
       2561.2955      0.12352936
       2561.9243      0.15622308
       2562.5531      0.14978182
       2563.1819      0.15117057
       2563.8108      0.13600411
       2564.4396      0.10896389
       2565.0684      0.14470023
       2565.6972      0.16169343
       2566.3260      0.11781003
       2566.9548      0.13198711
       2567.5837      0.12514098
       2568.2125      0.14695327
       2568.8413      0.15664599
       2569.4701      0.13116166
       2570.0989      0.17471555
       2570.7278      0.18355594
       2571.3566      0.17755545
       2571.9854      0.15343850
       2572.6142      0.15944612
       2573.2430      0.12567980
       2573.8718      0.15337309
       2574.5007      0.13979277
       2575.1295      0.12294433
       2575.7583      0.15728236
       2576.3871      0.14669089
       2577.0159      0.12906612
       2577.6447      0.16526123
       2578.2736      0.14997184
       2578.9024      0.14676827
       2579.5312      0.16012096
       2580.1600      0.19338363
       2580.7888      0.16630898
       2581.4176      0.14458650
       2582.0465      0.13978845
       2582.6753      0.17159045
       2583.3041      0.13671200
       2583.9329      0.13894849
       2584.5617      0.13855637
       2585.1905      0.13206977
       2585.8194      0.17574205
       2586.4482      0.13305959
       2587.0770      0.17081811
       2587.7058      0.17251486
       2588.3346      0.13794692
       2588.9634      0.16550876
       2589.5923      0.11881636
       2590.2211      0.16935159
       2590.8499      0.12902991
       2591.4787      0.16431738
       2592.1075      0.14498548
       2592.7364      0.13962609
       2593.3652      0.14623940
       2593.9940      0.14745658
       2594.6228      0.13649391
       2595.2516      0.14513112
       2595.8804      0.15574374
       2596.5093      0.17926140
       2597.1381      0.16719707
       2597.7669      0.14839930
       2598.3957      0.15140032
       2599.0245      0.14745125
       2599.6533      0.16391006
       2600.2822      0.10567543
       2600.9110      0.13129767
       2601.5398      0.11629911
       2602.1686      0.13522643
       2602.7974      0.13597745
       2603.4262      0.15891779
       2604.0551      0.11631719
       2604.6839      0.13662397
       2605.3127      0.16298812
       2605.9415      0.19355035
       2606.5703      0.16268327
       2607.1991      0.17099347
       2607.8280      0.15694398
       2608.4568      0.16328070
       2609.0856      0.16548078
       2609.7144      0.17570931
       2610.3432      0.17795488
       2610.9720      0.17505974
       2611.6009      0.13330988
       2612.2297      0.17490473
       2612.8585      0.14880796
       2613.4873      0.13198986
       2614.1161      0.14795592
       2614.7450      0.16607387
       2615.3738      0.12053410
       2616.0026      0.16775838
       2616.6314      0.18154569
       2617.2602      0.15209810
       2617.8890      0.14156436
       2618.5179      0.17734183
       2619.1467      0.17587233
       2619.7755      0.19383210
       2620.4043      0.14151279
       2621.0331      0.14135438
       2621.6619      0.13589674
       2622.2908      0.11138452
       2622.9196      0.13867651
       2623.5484      0.14809235
       2624.1772      0.17450588
       2624.8060      0.11249927
       2625.4348      0.14805949
       2626.0637      0.15895613
       2626.6925      0.18059113
       2627.3213      0.15721784
       2627.9501      0.14578271
       2628.5789      0.16556411
       2629.2077      0.16127682
       2629.8366      0.16047308
       2630.4654      0.14093073
       2631.0942      0.15259297
       2631.7230      0.18764974
       2632.3518      0.12196852
       2632.9807      0.17776158
       2633.6095      0.13155532
       2634.2383      0.16102758
       2634.8671      0.14002284
       2635.4959      0.14046467
       2636.1247      0.17108816
       2636.7536      0.15572789
       2637.3824      0.16504504
       2638.0112      0.19123714
       2638.6400      0.16455400
       2639.2688      0.19494101
       2639.8976      0.12701194
       2640.5265      0.15656664
       2641.1553      0.17633196
       2641.7841      0.16757543
       2642.4129      0.17825272
       2643.0417      0.17190380
       2643.6705      0.16436122
       2644.2994      0.11276291
       2644.9282      0.12707959
       2645.5570      0.14562444
       2646.1858      0.19442161
       2646.8146      0.15920094
       2647.4434      0.14745734
       2648.0723      0.19713833
       2648.7011      0.16623124
       2649.3299      0.19782718
       2649.9587      0.11311361
       2650.5875      0.16473564
       2651.2163      0.17265440
       2651.8452      0.15696712
       2652.4740      0.18154865
       2653.1028      0.15209087
       2653.7316      0.20968814
       2654.3604      0.17043094
       2654.9893      0.14499411
       2655.6181      0.14636096
       2656.2469      0.14349042
       2656.8757      0.19135260
       2657.5045      0.14196195
       2658.1333      0.17438961
       2658.7622      0.18864335
       2659.3910      0.18384097
       2660.0198      0.18768267
       2660.6486      0.18069003
       2661.2774      0.14205204
       2661.9062      0.13590513
       2662.5351      0.15314950
       2663.1639      0.17229391
       2663.7927      0.18406075
       2664.4215      0.19306345
       2665.0503      0.17049295
       2665.6791      0.18149841
       2666.3080      0.16426492
       2666.9368      0.15160071
       2667.5656      0.16889226
       2668.1944      0.14894509
       2668.8232      0.18544735
       2669.4520      0.16258700
       2670.0809      0.15826610
       2670.7097      0.14712165
       2671.3385      0.16764014
       2671.9673      0.17638276
       2672.5961      0.20621643
       2673.2250      0.14847826
       2673.8538      0.16644797
       2674.4826      0.17657292
       2675.1114      0.17644966
       2675.7402      0.14829972
       2676.3690      0.17421466
       2676.9979      0.14966210
       2677.6267      0.14534695
       2678.2555      0.11501627
       2678.8843      0.16719865
       2679.5131      0.14274208
       2680.1419      0.19695291
       2680.7708      0.17377016
       2681.3996      0.16217517
       2682.0284      0.16435693
       2682.6572      0.19131652
       2683.2860      0.18740469
       2683.9148      0.19033696
       2684.5437      0.16422690
       2685.1725      0.14612033
       2685.8013      0.15896887
       2686.4301      0.17163996
       2687.0589      0.18395492
       2687.6877      0.13724754
       2688.3166      0.14334025
       2688.9454      0.11758846
       2689.5742      0.16698933
       2690.2030      0.13575034
       2690.8318      0.16742998
       2691.4606      0.17328677
       2692.0895      0.14496817
       2692.7183      0.14938943
       2693.3471      0.15478633
       2693.9759      0.15750146
       2694.6047      0.16084318
       2695.2336      0.20396135
       2695.8624      0.16228587
       2696.4912      0.15791306
       2697.1200      0.21011497
       2697.7488      0.16573856
       2698.3776      0.18799933
       2699.0065      0.16552103
       2699.6353      0.15377047
       2700.2641      0.18870915
       2700.8929      0.17494473
       2701.5217      0.17768243
       2702.1505      0.17782127
       2702.7794      0.16833506
       2703.4082      0.14828074
       2704.0370      0.14430549
       2704.6658      0.15490334
       2705.2946      0.17478773
       2705.9234      0.17044801
       2706.5523      0.12874215
       2707.1811      0.16273039
       2707.8099      0.13759365
       2708.4387      0.20650757
       2709.0675      0.17006905
       2709.6963      0.18231098
       2710.3252      0.16260008
       2710.9540      0.11793704
       2711.5828      0.14707927
       2712.2116      0.13934918
       2712.8404      0.16799278
       2713.4693      0.15888751
       2714.0981      0.13441083
       2714.7269      0.15665481
       2715.3557      0.15752288
       2715.9845      0.18771392
       2716.6133      0.15564316
       2717.2422      0.16678857
       2717.8710      0.20502172
       2718.4998      0.16310687
       2719.1286      0.14537958
       2719.7574      0.18238548
       2720.3862      0.21735129
       2721.0151      0.14495903
       2721.6439      0.11704140
       2722.2727      0.17974853
       2722.9015      0.16619510
       2723.5303      0.19369513
       2724.1591      0.13706485
       2724.7880      0.13245875
       2725.4168      0.19800472
       2726.0456      0.18855289
       2726.6744      0.13991246
       2727.3032      0.13561462
       2727.9320      0.16415877
       2728.5609      0.16563067
       2729.1897      0.15111968
       2729.8185      0.15053043
       2730.4473      0.14101825
       2731.0761      0.15241184
       2731.7049      0.14711033
       2732.3338      0.16835041
       2732.9626      0.18883374
       2733.5914      0.16920102
       2734.2202      0.14492185
       2734.8490      0.18642046
       2735.4779      0.18304631
       2736.1067      0.19470119
       2736.7355      0.18171403
       2737.3643      0.17069617
       2737.9931      0.13762523
       2738.6219      0.17788641
       2739.2508      0.14164146
       2739.8796      0.17627703
       2740.5084      0.18407351
       2741.1372      0.17269892
       2741.7660      0.16187056
       2742.3948      0.18233423
       2743.0237      0.18796792
       2743.6525      0.16203225
       2744.2813      0.14313003
       2744.9101      0.22674152
       2745.5389      0.21876638
       2746.1677      0.15816659
       2746.7966      0.15891635
       2747.4254      0.16655293
       2748.0542      0.16693232
       2748.6830      0.15038549
       2749.3118      0.13304473
       2749.9406      0.13636500
       2750.5695      0.16305663
       2751.1983      0.17212577
       2751.8271      0.18274202
       2752.4559      0.14781000
       2753.0847      0.18042340
       2753.7135      0.17405134
       2754.3424      0.15371926
       2754.9712      0.16733140
       2755.6000      0.15147856
       2756.2288      0.11464170
       2756.8576      0.17520892
       2757.4865      0.14851058
       2758.1153      0.17783054
       2758.7441      0.19847597
       2759.3729      0.14532185
       2760.0017      0.18769178
       2760.6305      0.20298267
       2761.2594      0.13431147
       2761.8882      0.17365347
       2762.5170      0.14531024
       2763.1458      0.17692835
       2763.7746      0.18935449
       2764.4034      0.14597364
       2765.0323      0.15479593
       2765.6611      0.16676940
       2766.2899      0.18956629
       2766.9187      0.14434105
       2767.5475      0.13606126
       2768.1763      0.15807997
       2768.8052      0.16149567
       2769.4340      0.12488597
       2770.0628      0.15113243
       2770.6916      0.13729479
       2771.3204      0.18935077
       2771.9492      0.17034327
       2772.5781      0.17553942
       2773.2069      0.20223218
       2773.8357      0.17643542
       2774.4645      0.12533691
       2775.0933      0.15498779
       2775.7222      0.18178488
       2776.3510      0.16788873
       2776.9798      0.12570846
       2777.6086      0.16503034
       2778.2374      0.14960943
       2778.8662      0.17656189
       2779.4951      0.19634542
       2780.1239      0.19959988
       2780.7527      0.17879024
       2781.3815      0.19867279
       2782.0103      0.20793704
       2782.6391      0.16996181
       2783.2680      0.16732442
       2783.8968      0.16502235
       2784.5256      0.18120816
       2785.1544      0.17075050
       2785.7832      0.10355748
       2786.4120      0.14567321
       2787.0409      0.16268962
       2787.6697      0.13816744
       2788.2985      0.20182930
       2788.9273      0.20109941
       2789.5561      0.16026040
       2790.1849      0.12746718
       2790.8138      0.17655469
       2791.4426      0.18726949
       2792.0714      0.19815467
       2792.7002      0.19626567
       2793.3290      0.15011873
       2793.9578      0.18614092
       2794.5867      0.13353766
       2795.2155      0.15238792
       2795.8443      0.16075386
       2796.4731      0.15845128
       2797.1019      0.17214358
       2797.7308      0.16020755
       2798.3596      0.18130527
       2798.9884      0.14812888
       2799.6172      0.15485813
       2800.2460      0.14450782
       2800.8748      0.22166688
       2801.5037      0.18872352
       2802.1325      0.14552324
       2802.7613     0.085891252
       2803.3901      0.16969265
       2804.0189      0.17034180
       2804.6477      0.16833571
       2805.2766      0.15356440
       2805.9054      0.15635617
       2806.5342      0.16671194
       2807.1630      0.16153523
       2807.7918      0.15919830
       2808.4206      0.15960804
       2809.0495      0.16650357
       2809.6783      0.16885780
       2810.3071      0.14976465
       2810.9359      0.14722040
       2811.5647      0.17865202
       2812.1935      0.18654495
       2812.8224      0.18659757
       2813.4512      0.16075280
       2814.0800      0.16341258
       2814.7088      0.15898049
       2815.3376      0.17092864
       2815.9665      0.19076796
       2816.5953      0.15582046
       2817.2241      0.18869004
       2817.8529      0.15260950
       2818.4817      0.17776755
       2819.1105      0.16211134
       2819.7394      0.18026102
       2820.3682      0.15135493
       2820.9970      0.20101976
       2821.6258      0.18418262
       2822.2546      0.15246800
       2822.8834      0.20342545
       2823.5123      0.15792288
       2824.1411      0.16826287
       2824.7699      0.19264016
       2825.3987      0.18273955
       2826.0275      0.16455038
       2826.6563      0.16426697
       2827.2852      0.13486627
       2827.9140      0.13188648
       2828.5428      0.13765084
       2829.1716      0.16406651
       2829.8004      0.14755640
       2830.4292      0.16351239
       2831.0581      0.17055988
       2831.6869      0.16686044
       2832.3157      0.15691632
       2832.9445      0.14992953
       2833.5733      0.14030737
       2834.2021      0.13001877
       2834.8310      0.17030875
       2835.4598      0.18426802
       2836.0886      0.18170899
       2836.7174      0.21791729
       2837.3462      0.18470118
       2837.9751      0.20267554
       2838.6039      0.19533530
       2839.2327      0.17281183
       2839.8615      0.16808158
       2840.4903      0.14620301
       2841.1191      0.17926885
       2841.7480      0.18310262
       2842.3768      0.15702497
       2843.0056      0.15208497
       2843.6344      0.16276524
       2844.2632      0.16651600
       2844.8920      0.17857652
       2845.5209      0.17134373
       2846.1497      0.18808935
       2846.7785      0.16699041
       2847.4073      0.16738251
       2848.0361      0.17626256
       2848.6649      0.20056100
       2849.2938      0.20943425
       2849.9226      0.16420330
       2850.5514      0.13537293
       2851.1802      0.16013925
       2851.8090      0.18860655
       2852.4378      0.14246031
       2853.0667      0.15232687
       2853.6955      0.15461878
       2854.3243      0.17726282
       2854.9531      0.17331473
       2855.5819      0.18751711
       2856.2108      0.18979592
       2856.8396      0.17373833
       2857.4684      0.21050741
       2858.0972      0.17282619
       2858.7260      0.13041922
       2859.3548      0.15614730
       2859.9837      0.16617424
       2860.6125      0.17838837
       2861.2413      0.17713997
       2861.8701      0.16341756
       2862.4989      0.17830421
       2863.1277      0.16242022
       2863.7566      0.19212424
       2864.3854      0.16913915
       2865.0142      0.16766728
       2865.6430      0.17505896
       2866.2718      0.16488442
       2866.9006      0.14529877
       2867.5295      0.14701198
       2868.1583      0.12406465
       2868.7871      0.16250525
       2869.4159      0.18862514
       2870.0447      0.18757441
       2870.6735      0.17148048
       2871.3024      0.17302751
       2871.9312      0.15799556
       2872.5600      0.19321928
       2873.1888      0.16827877
       2873.8176      0.18134442
       2874.4464      0.18723446
       2875.0753      0.15103472
       2875.7041      0.19524391
       2876.3329      0.17405669
       2876.9617      0.17964612
       2877.5905      0.16195712
       2878.2194      0.13586059
       2878.8482      0.14113440
       2879.4770      0.17751292
       2880.1058      0.19467409
       2880.7346      0.18741067
       2881.3634      0.15362495
       2881.9923      0.18965289
       2882.6211      0.18228775
       2883.2499      0.18384053
       2883.8787      0.19839972
       2884.5075      0.15709925
       2885.1363      0.14063155
       2885.7652      0.15896319
       2886.3940      0.14998663
       2887.0228      0.17004568
       2887.6516      0.19787306
       2888.2804      0.19720511
       2888.9092      0.12363481
       2889.5381      0.12861235
       2890.1669      0.12947507
       2890.7957      0.16616017
       2891.4245      0.17439626
       2892.0533      0.16519635
       2892.6821      0.17100619
       2893.3110      0.19056471
       2893.9398      0.18500037
       2894.5686      0.17706827
       2895.1974      0.17710514
       2895.8262      0.18474235
       2896.4550      0.15902584
       2897.0839      0.19522157
       2897.7127      0.21250743
       2898.3415      0.17590120
       2898.9703      0.12043910
       2899.5991      0.17453429
       2900.2280      0.17732532
       2900.8568      0.19962883
       2901.4856      0.20239642
       2902.1144      0.16203294
       2902.7432      0.15861045
       2903.3720      0.18763133
       2904.0009      0.18396724
       2904.6297      0.17624899
       2905.2585      0.16729187
       2905.8873      0.19605080
       2906.5161      0.14955965
       2907.1449      0.17802337
       2907.7738      0.16732350
       2908.4026      0.20039199
       2909.0314      0.15292837
       2909.6602      0.16039226
       2910.2890      0.20445842
       2910.9178      0.22069763
       2911.5467      0.18478595
       2912.1755      0.16755638
       2912.8043      0.13536366
       2913.4331      0.19483456
       2914.0619      0.19060966
       2914.6907      0.15072965
       2915.3196      0.17727007
       2915.9484      0.16614976
       2916.5772      0.20491745
       2917.2060      0.21550937
       2917.8348      0.19287068
       2918.4637      0.20631777
       2919.0925      0.19188551
       2919.7213      0.16700564
       2920.3501      0.19043695
       2920.9789      0.18460482
       2921.6077      0.18702571
       2922.2366      0.16560567
       2922.8654      0.19177028
       2923.4942      0.21129858
       2924.1230      0.18480769
       2924.7518      0.16617366
       2925.3806      0.16262208
       2926.0095      0.18004129
       2926.6383      0.19342091
       2927.2671      0.19357115
       2927.8959      0.20295207
       2928.5247      0.18209100
       2929.1535      0.19724043
       2929.7824      0.15407713
       2930.4112      0.16660314
       2931.0400      0.18292377
       2931.6688      0.17929189
       2932.2976      0.19523564
       2932.9264      0.19535321
       2933.5553      0.16844567
       2934.1841      0.17732712
       2934.8129      0.21336801
       2935.4417      0.21641371
       2936.0705      0.14449581
       2936.6993      0.16513156
       2937.3282      0.20044676
       2937.9570      0.21214976
       2938.5858      0.21321572
       2939.2146      0.16034380
       2939.8434      0.14888050
       2940.4723      0.16469464
       2941.1011      0.23374783
       2941.7299      0.21388782
       2942.3587      0.19533792
       2942.9875      0.19481778
       2943.6163      0.19602119
       2944.2452      0.18719772
       2944.8740      0.19043825
       2945.5028      0.17884114
       2946.1316      0.16276939
       2946.7604      0.18146144
       2947.3892      0.19656132
       2948.0181      0.16735306
       2948.6469      0.16852652
       2949.2757      0.16871054
       2949.9045      0.20317618
       2950.5333      0.20166034
       2951.1621      0.16498703
       2951.7910      0.19180915
       2952.4198      0.17326669
       2953.0486      0.18456342
       2953.6774      0.15972601
       2954.3062      0.17930231
       2954.9350      0.21344086
       2955.5639      0.19815610
       2956.1927      0.16490147
       2956.8215      0.13571452
       2957.4503      0.18148203
       2958.0791      0.19845560
       2958.7080      0.21518678
       2959.3368      0.17317664
       2959.9656      0.16900075
       2960.5944      0.18059313
       2961.2232      0.17136598
       2961.8520      0.20650843
       2962.4809      0.18743788
       2963.1097      0.17026320
       2963.7385      0.16834936
       2964.3673      0.16064634
       2964.9961      0.19385583
       2965.6249      0.19098224
       2966.2538      0.21167964
       2966.8826      0.20385396
       2967.5114      0.17595198
       2968.1402      0.17997906
       2968.7690      0.18665591
       2969.3978      0.20301821
       2970.0267      0.18846041
       2970.6555      0.14201250
       2971.2843      0.19859981
       2971.9131      0.18230432
       2972.5419      0.16230363
       2973.1707      0.16907863
       2973.7996      0.17794497
       2974.4284      0.19636016
       2975.0572      0.20189614
       2975.6860      0.16521867
       2976.3148      0.19302183
       2976.9436      0.18211099
       2977.5725      0.21728565
       2978.2013      0.20904735
       2978.8301      0.22814675
       2979.4589      0.18538968
       2980.0877      0.18678877
       2980.7166      0.20155569
       2981.3454      0.20021365
       2981.9742      0.16709417
       2982.6030      0.18420596
       2983.2318      0.13499724
       2983.8606      0.14363343
       2984.4895      0.15424435
       2985.1183      0.13467625
       2985.7471      0.18686328
       2986.3759      0.17834004
       2987.0047      0.16891448
       2987.6335      0.21682023
       2988.2624      0.16254511
       2988.8912      0.15630337
       2989.5200      0.18646546
       2990.1488      0.17285549
       2990.7776      0.13843017
       2991.4064      0.14249069
       2992.0353      0.18979840
       2992.6641      0.17279652
       2993.2929      0.16525574
       2993.9217      0.17540364
       2994.5505      0.18515788
       2995.1793      0.16356904
       2995.8082      0.15230514
       2996.4370      0.20704190
       2997.0658      0.17291562
       2997.6946      0.18614033
       2998.3234      0.16895448
       2998.9523      0.19754439
       2999.5811      0.15738529
       3000.2099      0.15542323
       3000.8387      0.12722972
       3001.4675      0.18770655
       3002.0963      0.21619443
       3002.7252      0.17766629
       3003.3540      0.22489422
       3003.9828      0.20962119
       3004.6116      0.16609354
       3005.2404      0.17254011
       3005.8692      0.17650596
       3006.4981      0.16449983
       3007.1269      0.17992325
       3007.7557      0.15133932
       3008.3845      0.18560438
       3009.0133      0.18090534
       3009.6421      0.16994631
       3010.2710      0.16410288
       3010.8998      0.20078376
       3011.5286      0.17207825
       3012.1574      0.17478480
       3012.7862      0.14553299
       3013.4150      0.16632467
       3014.0439      0.20932223
       3014.6727      0.19444645
       3015.3015      0.19140065
       3015.9303      0.20389471
       3016.5591      0.16662351
       3017.1879      0.15671829
       3017.8168      0.16298639
       3018.4456      0.17285794
       3019.0744      0.12974970
       3019.7032      0.17882692
       3020.3320      0.15577150
       3020.9609      0.12617802
       3021.5897      0.18097847
       3022.2185      0.18757425
       3022.8473      0.19606015
       3023.4761      0.18156141
       3024.1049      0.19396056
       3024.7338      0.18445928
       3025.3626      0.17246220
       3025.9914      0.18962349
       3026.6202      0.19879984
       3027.2490      0.14985438
       3027.8778      0.16504487
       3028.5067      0.18273093
       3029.1355      0.16245374
       3029.7643      0.14012845
       3030.3931      0.11796091
       3031.0219      0.20424770
       3031.6507      0.16400970
       3032.2796      0.20038709
       3032.9084      0.18842894
       3033.5372      0.19466548
       3034.1660      0.15798463
       3034.7948      0.19904997
       3035.4236      0.17167076
       3036.0525      0.19200701
       3036.6813      0.18141130
       3037.3101      0.17713710
       3037.9389      0.21550403
       3038.5677      0.18875553
       3039.1965      0.17200609
       3039.8254      0.20360432
       3040.4542      0.16588357
       3041.0830      0.15378845
       3041.7118      0.18717724
       3042.3406      0.18736919
       3042.9695      0.18696875
       3043.5983      0.15787385
       3044.2271      0.18146926
       3044.8559      0.17034923
       3045.4847      0.16315801
       3046.1135      0.17395301
       3046.7424      0.20502551
       3047.3712      0.18298190
       3048.0000      0.18436929
       3048.6288      0.19097893
       3049.2576      0.18321426
       3049.8864      0.18073543
       3050.5153      0.20820598
       3051.1441      0.15097188
       3051.7729      0.16659076
       3052.4017      0.16022806
       3053.0305      0.19396998
       3053.6593      0.17752723
       3054.2882      0.17668821
       3054.9170      0.19637463
       3055.5458      0.20299390
       3056.1746      0.18057686
       3056.8034      0.18261787
       3057.4322      0.18965223
       3058.0611      0.17529075
       3058.6899      0.15805909
       3059.3187      0.16155012
       3059.9475      0.15211636
       3060.5763      0.18041775
       3061.2052      0.17932547
       3061.8340      0.16753734
       3062.4628      0.20554981
       3063.0916      0.19374211
       3063.7204      0.17342439
       3064.3492      0.17096679
       3064.9781      0.11957722
       3065.6069      0.13799168
       3066.2357      0.18957223
       3066.8645      0.17259975
       3067.4933      0.21271260
       3068.1221      0.18819833
       3068.7510      0.14753971
       3069.3798      0.18043295
       3070.0086      0.17850780
       3070.6374      0.17253197
       3071.2662      0.17533539
       3071.8950      0.18174403
       3072.5239      0.18900933
       3073.1527      0.18486988
       3073.7815      0.17832723
       3074.4103      0.20956197
       3075.0391      0.25533079
       3075.6679      0.20235989
       3076.2968      0.18269010
       3076.9256      0.17652567
       3077.5544      0.18267836
       3078.1832      0.16134033
       3078.8120      0.15634409
       3079.4408      0.17995997
       3080.0697      0.17862712
       3080.6985      0.16384345
       3081.3273      0.13682083
       3081.9561      0.14463091
       3082.5849      0.13713380
       3083.2138      0.14763779
       3083.8426      0.22211942
       3084.4714      0.20004471
       3085.1002      0.15153176
       3085.7290      0.18046806
       3086.3578      0.17214621
       3086.9867      0.15538902
       3087.6155      0.16565392
       3088.2443      0.16993637
       3088.8731      0.18845004
       3089.5019      0.19272854
       3090.1307      0.19003154
       3090.7596      0.15816968
       3091.3884      0.18048975
       3092.0172      0.19432630
       3092.6460      0.17955562
       3093.2748      0.17069053
       3093.9036      0.15522546
       3094.5325      0.13344273
       3095.1613      0.11140187
       3095.7901      0.15994543
       3096.4189      0.19529772
       3097.0477      0.14836140
       3097.6765      0.18488152
       3098.3054      0.20381202
       3098.9342      0.17690913
       3099.5630      0.13010716
       3100.1918      0.16659220
       3100.8206      0.16061642
       3101.4495      0.16141805
       3102.0783      0.18253185
       3102.7071      0.20743310
       3103.3359      0.16220989
       3103.9647      0.13318571
       3104.5935      0.15957893
       3105.2224      0.16971776
       3105.8512      0.14292023
       3106.4800      0.14882214
       3107.1088      0.13847548
       3107.7376      0.15704306
       3108.3664      0.19336825
       3108.9953      0.17592671
       3109.6241      0.17264248
       3110.2529      0.16248590
       3110.8817      0.20155771
       3111.5105      0.17679413
       3112.1393      0.16573555
       3112.7682      0.19123849
       3113.3970      0.20853695
       3114.0258      0.17460352
       3114.6546      0.18562952
       3115.2834      0.15154412
       3115.9122      0.17190772
       3116.5411      0.14135189
       3117.1699      0.15033082
       3117.7987      0.20650018
       3118.4275      0.14019482
       3119.0563      0.13514087
       3119.6851      0.19318858
       3120.3140      0.17661338
       3120.9428      0.18887063
       3121.5716      0.19056878
       3122.2004      0.21653801
       3122.8292      0.20971502
       3123.4581      0.20398179
       3124.0869      0.17141028
       3124.7157      0.17677373
       3125.3445      0.15988268
       3125.9733      0.18117573
       3126.6021      0.17916340
       3127.2310      0.16252905
       3127.8598      0.18412599
       3128.4886      0.19798716
       3129.1174      0.20386969
       3129.7462      0.16544170
       3130.3750      0.18015303
       3131.0039      0.17421828
       3131.6327      0.16354634
       3132.2615      0.16440133
       3132.8903      0.15613937
       3133.5191      0.18948794
       3134.1479      0.20476337
       3134.7768      0.19712209
       3135.4056      0.20610134
       3136.0344      0.20999482
       3136.6632      0.16630527
       3137.2920      0.14757423
       3137.9208      0.13128017
       3138.5497      0.12686828
       3139.1785      0.15142903
       3139.8073      0.14805743
       3140.4361      0.19677747
       3141.0649      0.17146042
       3141.6938      0.15801156
       3142.3226      0.16314063
       3142.9514      0.19093754
       3143.5802      0.18750716
       3144.2090      0.18084638
       3144.8378      0.14426919
       3145.4667      0.17104101
       3146.0955      0.18966277
       3146.7243      0.15957696
       3147.3531      0.18403319
       3147.9819      0.18515991
       3148.6107      0.17092874
       3149.2396      0.17888899
       3149.8684      0.15718043
       3150.4972      0.15932281
       3151.1260      0.17858956
       3151.7548      0.19744668
       3152.3836      0.18603843
       3153.0125      0.16312200
       3153.6413      0.15298986
       3154.2701      0.17410602
       3154.8989      0.17310716
       3155.5277      0.17097289
       3156.1565      0.15263147
       3156.7854      0.17675550
       3157.4142      0.18593960
       3158.0430      0.16824132
       3158.6718      0.13777347
       3159.3006      0.12958295
       3159.9294      0.15051206
       3160.5583      0.17732814
       3161.1871      0.17291466
       3161.8159      0.17602475
       3162.4447      0.21201213
       3163.0735      0.15242352
       3163.7024      0.19286133
       3164.3312      0.22268657
       3164.9600      0.19946081
       3165.5888      0.15440562
       3166.2176      0.17104871
       3166.8464      0.16970472
       3167.4753      0.17231575
       3168.1041      0.17460158
       3168.7329      0.16746146
       3169.3617      0.17227030
       3169.9905      0.14321537
       3170.6193      0.18464766
       3171.2482      0.17438054
       3171.8770      0.16720512
       3172.5058      0.17309264
       3173.1346      0.20055674
       3173.7634      0.19422622
       3174.3922      0.17551587
       3175.0211      0.19931051
       3175.6499      0.19529861
       3176.2787      0.18066836
       3176.9075      0.18722881
       3177.5363      0.18007708
       3178.1651      0.18024992
       3178.7940      0.16353679
       3179.4228      0.14759700
       3180.0516      0.17593817
       3180.6804      0.14077907
       3181.3092      0.13884874
       3181.9380      0.22708197
       3182.5669      0.16855221
       3183.1957      0.17468008
       3183.8245      0.15328712
       3184.4533      0.17605354
       3185.0821      0.16659764
       3185.7110      0.18612279
       3186.3398      0.17023204
       3186.9686      0.17427861
       3187.5974      0.16466575
       3188.2262      0.11950649
       3188.8550      0.16252245
       3189.4839      0.23513950
       3190.1127      0.20289365
       3190.7415      0.17976808
       3191.3703      0.17099314
       3191.9991      0.17662316
       3192.6279      0.17752196
       3193.2568      0.22139764
       3193.8856      0.17963906
       3194.5144      0.15271677
       3195.1432      0.11384142
       3195.7720      0.16229008
       3196.4008      0.17597566
       3197.0297      0.15274876
       3197.6585      0.18015401
       3198.2873      0.15691480
       3198.9161      0.19386879
       3199.5449      0.20629110
       3200.1737      0.19472391
       3200.8026      0.16042212
       3201.4314      0.12218153
       3202.0602      0.16236161
       3202.6890      0.17333000
       3203.3178      0.18466455
       3203.9467      0.13159554
       3204.5755      0.16475517
       3205.2043      0.19873569
       3205.8331      0.17185455
       3206.4619      0.18390840
       3207.0907      0.19322244
       3207.7196      0.16790030
       3208.3484      0.18364472
       3208.9772      0.18186559
       3209.6060      0.12859964
       3210.2348      0.18712282
       3210.8636      0.19690965
       3211.4925      0.21406514
       3212.1213      0.17732223
       3212.7501      0.12848270
       3213.3789      0.14037346
       3214.0077      0.11861153
       3214.6365      0.11134804
       3215.2654      0.13924411
       3215.8942      0.18073514
       3216.5230      0.20607786
       3217.1518      0.11574779
       3217.7806      0.16920010
       3218.4094      0.19666855
       3219.0383      0.16983136
       3219.6671      0.13430722
       3220.2959      0.18741564
       3220.9247      0.17852741
       3221.5535      0.12604340
       3222.1823      0.15136574
       3222.8112      0.12450422
       3223.4400      0.13533540
       3224.0688      0.18207371
       3224.6976      0.14151349
       3225.3264      0.14805324
       3225.9553      0.15693869
       3226.5841      0.10943700
       3227.2129     0.042208040
       3227.8417      0.18911408
       3228.4705      0.46093554
       3229.0993      0.32441849
       3229.7282      0.12960837
       3230.3570      0.23461483
       3230.9858      0.32174236
       3231.6146    -0.037090534
       3232.2434     -0.13704658
       3232.8722     0.073045762
       3233.5011     0.087981381
       3234.1299      0.14761170
       3234.7587      0.14797803
       3235.3875      0.18484168
       3236.0163      0.15607455
       3236.6451      0.16023597
       3237.2740      0.15754725
       3237.9028      0.15079718
       3560.8186      0.36921477
       3561.5095      0.44949991
       3562.2005      0.56946487
       3562.8914      0.47408017
       3563.5824      0.41873661
       3564.2733      0.35389271
       3564.9642      0.27060946
       3565.6552      0.36947815
       3566.3461      0.44762375
       3567.0371      0.37015301
       3567.7280      0.47278329
       3568.4190      0.41583663
       3569.1099      0.35311719
       3569.8009      0.39578499
       3570.4918      0.35709657
       3571.1828      0.27391147
       3571.8737      0.42645571
       3572.5647      0.36334664
       3573.2556      0.37169498
       3573.9465      0.33649106
       3574.6375      0.39354014
       3575.3284      0.41072515
       3576.0194      0.37644468
       3576.7103      0.28357061
       3577.4013      0.24312977
       3578.0922      0.30037337
       3578.7832      0.40278699
       3579.4741      0.37124523
       3580.1651      0.34564389
       3580.8560      0.31275206
       3581.5470      0.42736814
       3582.2379      0.40446760
       3582.9288      0.37835293
       3583.6198      0.39137084
       3584.3107      0.39018003
       3585.0017      0.42810895
       3585.6926      0.45026133
       3586.3836      0.46006276
       3587.0745      0.42018485
       3587.7655      0.46991100
       3588.4564      0.35327281
       3589.1474      0.46054966
       3589.8383      0.37816531
       3590.5292      0.28010406
       3591.2202      0.44682673
       3591.9111      0.37554833
       3592.6021      0.43825929
       3593.2930      0.39405020
       3593.9840      0.40721035
       3594.6749      0.34485846
       3595.3659      0.43365616
       3596.0568      0.48052580
       3596.7478      0.44972814
       3597.4387      0.47808526
       3598.1297      0.43959856
       3598.8206      0.41784699
       3599.5115      0.43233467
       3600.2025      0.31846732
       3600.8934      0.34350581
       3601.5844      0.33307983
       3602.2753      0.35187517
       3602.9663      0.31248316
       3603.6572      0.35940128
       3604.3482      0.34211969
       3605.0391      0.47157712
       3605.7301      0.35038472
       3606.4210      0.40081171
       3607.1120      0.37928943
       3607.8029      0.36078792
       3608.4938      0.48945225
       3609.1848      0.38389821
       3609.8757      0.41926960
       3610.5667      0.47476012
       3611.2576      0.37039094
       3611.9486      0.43355810
       3612.6395      0.39213534
       3613.3305      0.44044667
       3614.0214      0.35650126
       3614.7124      0.29857346
       3615.4033      0.28777563
       3616.0942      0.37308219
       3616.7852      0.31242474
       3617.4761      0.40046136
       3618.1671      0.43128278
       3618.8580      0.48033510
       3619.5490      0.44352176
       3620.2399      0.33785280
       3620.9309      0.39482194
       3621.6218      0.48462202
       3622.3128      0.45176875
       3623.0037      0.38333294
       3623.6947      0.32061731
       3624.3856      0.42953425
       3625.0765      0.37131684
       3625.7675      0.41945733
       3626.4584      0.50048013
       3627.1494      0.39072527
       3627.8403      0.42457646
       3628.5313      0.46097367
       3629.2222      0.43229669
       3629.9132      0.39883133
       3630.6041      0.39254185
       3631.2951      0.38828063
       3631.9860      0.33617718
       3632.6770      0.39787210
       3633.3679      0.40984889
       3634.0588      0.46391883
       3634.7498      0.42604020
       3635.4407      0.34648404
       3636.1317      0.31481638
       3636.8226      0.42330726
       3637.5136      0.40088285
       3638.2045      0.38186342
       3638.8955      0.30818153
       3639.5864      0.30152762
       3640.2774      0.34362438
       3640.9683      0.36603779
       3641.6592      0.41380482
       3642.3502      0.33488756
       3643.0411      0.33378938
       3643.7321      0.51622680
       3644.4230      0.39251869
       3645.1140      0.47106571
       3645.8049      0.67919053
       3646.4959       1.1225654
       3647.1868      0.46114949
       3647.8778      0.25393617
       3648.5687      0.43826475
       3649.2597      0.49253595
       3649.9506      0.36224535
       3650.6415      0.40313990
       3651.3325      0.46307324
       3652.0234      0.44491595
       3652.7144      0.48252127
       3653.4053      0.60179125
       3654.0963      0.50266422
       3654.7872      0.45803281
       3655.4782      0.43453409
       3656.1691      0.45776880
       3656.8601      0.38000889
       3657.5510      0.49594844
       3658.2420      0.53968978
       3658.9329      0.51557085
       3659.6238      0.46677843
       3660.3148      0.47038084
       3661.0057      0.52704831
       3661.6967      0.36279216
       3662.3876      0.47370238
       3663.0786      0.45678893
       3663.7695      0.42993885
       3664.4605      0.39041105
       3665.1514      0.47073740
       3665.8424      0.38760760
       3666.5333      0.39581310
       3667.2242      0.44451934
       3667.9152      0.48123595
       3668.6061      0.38725562
       3669.2971      0.41599536
       3669.9880      0.35205903
       3670.6790      0.42450979
       3671.3699      0.42304903
       3672.0609      0.27652363
       3672.7518      0.36508797
       3673.4428      0.38037020
       3674.1337      0.43613231
       3674.8247      0.53983130
       3675.5156      0.55685893
       3676.2065      0.48998742
       3676.8975      0.37428137
       3677.5884      0.40215965
       3678.2794      0.42875511
       3678.9703      0.43016662
       3679.6613      0.47046096
       3680.3522      0.51032548
       3681.0432      0.41244760
       3681.7341      0.27576243
       3682.4251      0.42559460
       3683.1160      0.65936641
       3683.8070      0.79355188
       3684.4979      0.45704437
       3685.1888      0.42770786
       3685.8798      0.58528109
       3686.5707      0.43028315
       3687.2617      0.34080769
       3687.9526      0.35271502
       3688.6436      0.42394362
       3689.3345      0.39136345
       3690.0255      0.49591460
       3690.7164      0.38136456
       3691.4074      0.33773356
       3692.0983      0.38598785
       3692.7892      0.47160547
       3693.4802      0.55459292
       3694.1711      0.43539134
       3694.8621      0.40202180
       3695.5530      0.46395350
       3696.2440      0.64866329
       3696.9349      0.41340324
       3697.6259      0.44150360
       3698.3168      0.40325685
       3699.0078      0.39005632
       3699.6987      0.38664489
       3700.3897      0.43353354
       3701.0806      0.55987262
       3701.7715      0.42955736
       3702.4625      0.40051311
       3703.1534      0.38326910
       3703.8444      0.36189782
       3704.5353      0.34849349
       3705.2263      0.33209920
       3705.9172      0.30025025
       3706.6082      0.34654337
       3707.2991      0.40192865
       3707.9901      0.39994492
       3708.6810      0.46675570
       3709.3720      0.39158560
       3710.0629      0.31250502
       3710.7538      0.34599550
       3711.4448      0.42662512
       3712.1357      0.43869977
       3712.8267      0.38523037
       3713.5176      0.41913521
       3714.2086      0.42600140
       3714.8995      0.54315288
       3715.5905      0.48491906
       3716.2814      0.38477924
       3716.9724      0.49826149
       3717.6633      0.52566978
       3718.3542      0.46929257
       3719.0452      0.47382102
       3719.7361      0.38404921
       3720.4271      0.48724913
       3721.1180      0.60392184
       3721.8090      0.66593004
       3722.4999      0.71166262
       3723.1909      0.85386637
       3723.8818      0.97246167
       3724.5728       1.1452927
       3725.2637       1.3215798
       3725.9547       1.4445308
       3726.6456       1.4574357
       3727.3365       1.4720067
       3728.0275       1.5078061
       3728.7184       1.4677699
       3729.4094       1.3510125
       3730.1003       1.2878566
       3730.7913       1.1001551
       3731.4822      0.86397962
       3732.1732      0.77767906
       3732.8641      0.64102943
       3733.5551      0.59016558
       3734.2460      0.50295267
       3734.9370      0.36561630
       3735.6279      0.41646877
       3736.3188      0.44788619
       3737.0098      0.42553082
       3737.7007      0.55757713
       3738.3917      0.53287425
       3739.0826      0.48518044
       3739.7736      0.45505291
       3740.4645      0.57636066
       3741.1555      0.47838464
       3741.8464      0.48461378
       3742.5374      0.61844325
       3743.2283      0.57612555
       3743.9192      0.56042266
       3744.6102      0.58092530
       3745.3011      0.49204493
       3745.9921      0.39063603
       3746.6830      0.52811556
       3747.3740      0.47116065
       3748.0649      0.47826838
       3748.7559      0.46151279
       3749.4468      0.32115309
       3750.1378      0.31019100
       3750.8287      0.29426377
       3751.5197      0.34372694
       3752.2106      0.41473734
       3752.9015      0.39560503
       3753.5925      0.42852411
       3754.2834      0.36957846
       3754.9744      0.58652073
       3755.6653      0.58088733
       3756.3563      0.55385950
       3757.0472      0.62122580
       3757.7382      0.57676045
       3758.4291      0.52282505
       3759.1201      0.53578362
       3759.8110      0.68082441
       3760.5020      0.62007618
       3761.1929      0.50790364
       3761.8838      0.57687528
       3762.5748      0.53315807
       3763.2657      0.68078198
       3763.9567      0.55665186
       3764.6476      0.56394821
       3765.3386      0.45124758
       3766.0295      0.40312579
       3766.7205      0.53312091
       3767.4114      0.62187815
       3768.1024      0.46611740
       3768.7933      0.46075906
       3769.4842      0.47676443
       3770.1752      0.45528373
       3770.8661      0.47446445
       3771.5571      0.42039357
       3772.2480      0.45141822
       3772.9390      0.43568631
       3773.6299      0.41501517
       3774.3209      0.38237892
       3775.0118      0.38347443
       3775.7028      0.43086938
       3776.3937      0.39606112
       3777.0847      0.46586498
       3777.7756      0.45561520
       3778.4665      0.51872730
       3779.1575      0.59548605
       3779.8484      0.52517217
       3780.5394      0.60683945
       3781.2303      0.67470378
       3781.9213      0.63621185
       3782.6122      0.59174738
       3783.3032      0.54986199
       3783.9941      0.76782883
       3784.6851      0.74201336
       3785.3760      0.72700286
       3786.0670      0.68759346
       3786.7579      0.58144609
       3787.4488      0.56727103
       3788.1398      0.66071091
       3788.8307      0.62723329
       3789.5217      0.68660548
       3790.2126      0.74499995
       3790.9036      0.60338868
       3791.5945      0.60855994
       3792.2855      0.58613765
       3792.9764      0.55072087
       3793.6674      0.53270066
       3794.3583      0.56416244
       3795.0492      0.61049053
       3795.7402      0.53394160
       3796.4311      0.52852488
       3797.1221      0.50760943
       3797.8130      0.51211908
       3798.5040      0.53508278
       3799.1949      0.47913566
       3799.8859      0.36479856
       3800.5768      0.45553116
       3801.2678      0.33509667
       3801.9587      0.47709887
       3802.6497      0.46837395
       3803.3406      0.39528991
       3804.0315      0.50036670
       3804.7225      0.55025777
       3805.4134      0.51501202
       3806.1044      0.47354575
       3806.7953      0.46127075
       3807.4863      0.41622781
       3808.1772      0.44152565
       3808.8682      0.68094832
       3809.5591      0.64379067
       3810.2501      0.60444589
       3810.9410      0.50124091
       3811.6320      0.56432427
       3812.3229      0.64806557
       3813.0138      0.72205865
       3813.7048      0.64921678
       3814.3957      0.66754014
       3815.0867      0.70107563
       3815.7776      0.68940870
       3816.4686      0.63341480
       3817.1595      0.58144072
       3817.8505      0.64451771
       3818.5414      0.62081561
       3819.2324      0.56944492
       3819.9233      0.55428883
       3820.6142      0.67140772
       3821.3052      0.60887214
       3821.9961      0.66797001
       3822.6871      0.62882028
       3823.3780      0.71945424
       3824.0690      0.64351180
       3824.7599      0.55047083
       3825.4509      0.61312220
       3826.1418      0.58029737
       3826.8328      0.58247816
       3827.5237      0.53995155
       3828.2147      0.52363123
       3828.9056      0.59783844
       3829.5965      0.58049435
       3830.2875      0.57025046
       3830.9784      0.50049863
       3831.6694      0.54625342
       3832.3603      0.53568250
       3833.0513      0.50132503
       3833.7422      0.52378292
       3834.4332      0.63976869
       3835.1241      0.61396729
       3835.8151      0.45707908
       3836.5060      0.42451923
       3837.1970      0.39222580
       3837.8879      0.42510106
       3838.5788      0.39823944
       3839.2698      0.39327013
       3839.9607      0.34037596
       3840.6517      0.34904889
       3841.3426      0.36637850
       3842.0336      0.42259781
       3842.7245      0.43607867
       3843.4155      0.42803100
       3844.1064      0.47532476
       3844.7974      0.40494666
       3845.4883      0.41159703
       3846.1792      0.43361211
       3846.8702      0.48359237
       3847.5611      0.42150782
       3848.2521      0.37679872
       3848.9430      0.43683815
       3849.6340      0.64617597
       3850.3249      0.66747281
       3851.0159      0.59429016
       3851.7068      0.60278997
       3852.3978      0.69042200
       3853.0887      0.64158734
       3853.7797      0.65424365
       3854.4706      0.68858842
       3855.1615      0.61305680
       3855.8525      0.64587648
       3856.5434      0.65562579
       3857.2344      0.71312959
       3857.9253      0.75440909
       3858.6163      0.70511703
       3859.3072      0.67350245
       3859.9982      0.72068936
       3860.6891      0.67615854
       3861.3801      0.65849725
       3862.0710      0.67513086
       3862.7620      0.66465380
       3863.4529      0.69860031
       3864.1438      0.74057693
       3864.8348      0.70333277
       3865.5257      0.63961038
       3866.2167      0.64579018
       3866.9076      0.68085617
       3867.5986      0.70723644
       3868.2895      0.71271933
       3868.9805      0.68159126
       3869.6714      0.76470687
       3870.3624      0.88788380
       3871.0533      0.89926859
       3871.7442      0.88203152
       3872.4352      0.92869012
       3873.1261      0.94042232
       3873.8171      0.83671338
       3874.5080      0.78855567
       3875.1990      0.75867755
       3875.8899      0.72166656
       3876.5809      0.76950155
       3877.2718      0.68882569
       3877.9628      0.69000998
       3878.6537      0.76445711
       3879.3447      0.73989580
       3880.0356      0.68305095
       3880.7265      0.57912166
       3881.4175      0.58280875
       3882.1084      0.53453652
       3882.7994      0.51106805
       3883.4903      0.62721736
       3884.1813      0.68498983
       3884.8722      0.70827179
       3885.5632      0.72779125
       3886.2541      0.69938047
       3886.9451      0.64376284
       3887.6360      0.59643451
       3888.3270      0.59309821
       3889.0179      0.58791648
       3889.7088      0.57424992
       3890.3998      0.47766714
       3891.0907      0.47401414
       3891.7817      0.46280618
       3892.4726      0.55153097
       3893.1636      0.51405153
       3893.8545      0.42613813
       3894.5455      0.53265706
       3895.2364      0.48969448
       3895.9274      0.41949384
       3896.6183      0.40465392
       3897.3092      0.33203927
       3898.0002      0.43870539
       3898.6911      0.36734389
       3899.3821      0.41373356
       3900.0730      0.52639470
       3900.7640      0.46362565
       3901.4549      0.41706874
       3902.1459      0.51542496
       3902.8368      0.53007281
       3903.5278      0.59290399
       3904.2187      0.61766426
       3904.9097      0.60006982
       3905.6006      0.56616405
       3906.2915      0.56616212
       3906.9825      0.55361383
       3907.6734      0.56794840
       3908.3644      0.61252238
       3909.0553      0.66755279
       3909.7463      0.68603036
       3910.4372      0.74005613
       3911.1282      0.71889470
       3911.8191      0.76773553
       3912.5101      0.66520178
       3913.2010      0.65591224
       3913.8920      0.63767384
       3914.5829      0.72016539
       3915.2738      0.68772238
       3915.9648      0.69962323
       3916.6557      0.72647893
       3917.3467      0.71555174
       3918.0376      0.69530971
       3918.7286      0.71100556
       3919.4195      0.75049158
       3920.1105      0.74395925
       3920.8014      0.69383626
       3921.4924      0.72201541
       3922.1833      0.67539078
       3922.8742      0.68723777
       3923.5652      0.76270300
       3924.2561      0.76467346
       3924.9471      0.71707032
       3925.6380      0.70159239
       3926.3290      0.63537892
       3927.0199      0.67217527
       3927.7109      0.61064001
       3928.4018      0.72012551
       3929.0928      0.74615609
       3929.7837      0.71119290
       3930.4747      0.73576539
       3931.1656      0.76920985
       3931.8565      0.76246246
       3932.5475      0.76852204
       3933.2384      0.71675496
       3933.9294      0.60741030
       3934.6203      0.63040819
       3935.3113      0.61138898
       3936.0022      0.67777415
       3936.6932      0.64485020
       3937.3841      0.53550130
       3938.0751      0.52476930
       3938.7660      0.59961851
       3939.4570      0.59137154
       3940.1479      0.67763128
       3940.8388      0.61927494
       3941.5298      0.58124467
       3942.2207      0.50388771
       3942.9117      0.52517707
       3943.6026      0.59862093
       3944.2936      0.55126644
       3944.9845      0.60248808
       3945.6755      0.62152411
       3946.3664      0.58284579
       3947.0574      0.63480075
       3947.7483      0.62862235
       3948.4392      0.67909829
       3949.1302      0.76687301
       3949.8211      0.84061559
       3950.5121      0.69272963
       3951.2030      0.68350142
       3951.8940      0.74969822
       3952.5849      0.60752501
       3953.2759      0.62906654
       3953.9668      0.69313402
       3954.6578      0.62301360
       3955.3487      0.66090612
       3956.0397      0.61640867
       3956.7306      0.63702723
       3957.4215      0.67115642
       3958.1125      0.76053794
       3958.8034      0.70743210
       3959.4944      0.69463884
       3960.1853      0.73304191
       3960.8763      0.79694915
       3961.5672      0.74612518
       3962.2582      0.79397925
       3962.9491      0.82963171
       3963.6401      0.70900983
       3964.3310      0.73850099
       3965.0220      0.74469148
       3965.7129      0.80130684
       3966.4038      0.84674419
       3967.0948      0.78128859
       3967.7857      0.77180851
       3968.4767      0.79216338
       3969.1676      0.67434128
       3969.8586      0.59508297
       3970.5495      0.52731043
       3971.2405      0.62696489
       3971.9314      0.64192941
       3972.6224      0.63508332
       3973.3133      0.61052925
       3974.0042      0.45620502
       3974.6952      0.47614641
       3975.3861      0.43610081
       3976.0771      0.42639250
       3976.7680      0.40047881
       3977.4590      0.35305386
       3978.1499      0.39500663
       3978.8409      0.32442424
       3979.5318      0.26915414
       3980.2228      0.39079141
       3980.9137      0.37215208
       3981.6047      0.42286407
       3982.2956      0.48388082
       3982.9865      0.48169832
       3983.6775      0.59114741
       3984.3684      0.67443989
       3985.0594      0.55348831
       3985.7503      0.54121544
       3986.4413      0.60602628
       3987.1322      0.55748088
       3987.8232      0.51180523
       3988.5141      0.47181587
       3989.2051      0.44331853
       3989.8960      0.44353813
       3990.5870      0.49666816
       3991.2779      0.53709207
       3991.9688      0.54234398
       3992.6598      0.55458998
       3993.3507      0.65931400
       3994.0417      0.58186072
       3994.7326      0.63080652
       3995.4236      0.58668161
       3996.1145      0.60948932
       3996.8055      0.69665921
       3997.4964      0.69664874
       3998.1874      0.74337429
       3998.8783      0.66285169
       3999.5692      0.74952662
       4000.2602      0.65892651
       4000.9511      0.64678337
       4001.6421      0.72805275
       4002.3330      0.66631025
       4003.0240      0.64255182
       4003.7149      0.68333346
       4004.4059      0.69281486
       4005.0968      0.70189370
       4005.7878      0.70031177
       4006.4787      0.67176362
       4007.1697      0.68801284
       4007.8606      0.67847683
       4008.5515      0.66919186
       4009.2425      0.73491732
       4009.9334      0.65212081
       4010.6244      0.61747284
       4011.3153      0.66412772
       4012.0063      0.72561101
       4012.6972      0.71266189
       4013.3882      0.68208195
       4014.0791      0.74025456
       4014.7701      0.79559577
       4015.4610      0.81441179
       4016.1520      0.76886468
       4016.8429      0.67123807
       4017.5338      0.68262351
       4018.2248      0.75091252
       4018.9157      0.79483245
       4019.6067      0.69920902
       4020.2976      0.82049591
       4020.9886      0.77006961
       4021.6795      0.77199165
       4022.3705      0.83270738
       4023.0614      0.75240857
       4023.7524      0.83556699
       4024.4433      0.73334033
       4025.1342      0.76453825
       4025.8252      0.79027075
       4026.5161      0.85869720
       4027.2071      0.78026102
       4027.8980      0.77820616
       4028.5890      0.78128673
       4029.2799      0.72587554
       4029.9709      0.71285064
       4030.6618      0.83752178
       4031.3528      0.79992075
       4032.0437      0.77534172
       4032.7347      0.71195046
       4033.4256      0.68354106
       4034.1165      0.66861514
       4034.8075      0.78858506
       4035.4984      0.76152090
       4036.1894      0.80215635
       4036.8803      0.77723289
       4037.5713      0.83352236
       4038.2622      0.82600165
       4038.9532      0.74244311
       4039.6441      0.71510183
       4040.3351      0.83431836
       4041.0260      0.90250046
       4041.7170      0.75488834
       4042.4079      0.76186861
       4043.0988      0.74650953
       4043.7898      0.79396053
       4044.4807      0.87787272
       4045.1717      0.82395196
       4045.8626      0.73042037
       4046.5536      0.72380693
       4047.2445      0.78348493
       4047.9355      0.79759418
       4048.6264      0.83455926
       4049.3174      0.74758957
       4050.0083      0.78067515
       4050.6992      0.89028518
       4051.3902      0.77781062
       4052.0811      0.78463384
       4052.7721      0.81729536
       4053.4630      0.80636131
       4054.1540      0.75475663
       4054.8449      0.82580978
       4055.5359      0.80645738
       4056.2268      0.73899661
       4056.9178      0.73161559
       4057.6087      0.73696910
       4058.2997      0.75054294
       4058.9906      0.73037299
       4059.6815      0.68166065
       4060.3725      0.72491862
       4061.0634      0.78366803
       4061.7544      0.72676961
       4062.4453      0.83865053
       4063.1363      0.85143333
       4063.8272      0.81831750
       4064.5182      0.75489110
       4065.2091      0.76195430
       4065.9001      0.70087973
       4066.5910      0.71178740
       4067.2820      0.64823118
       4067.9729      0.70057741
       4068.6638      0.68253321
       4069.3548      0.74491478
       4070.0457      0.80871957
       4070.7367      0.80086997
       4071.4276      0.87051117
       4072.1186      0.82890230
       4072.8095      0.82085014
       4073.5005      0.78007555
       4074.1914      0.71852938
       4074.8824      0.74084404
       4075.5733      0.85244631
       4076.2642      0.81774292
       4076.9552      0.82203505
       4077.6461      0.75182591
       4078.3371      0.71306649
       4079.0280      0.84527827
       4079.7190      0.85377229
       4080.4099      0.71507513
       4081.1009      0.72909336
       4081.7918      0.79698599
       4082.4828      0.78305949
       4083.1737      0.74342983
       4083.8647      0.80174293
       4084.5556      0.89120997
       4085.2465      0.88446430
       4085.9375      0.83484200
       4086.6284      0.76552393
       4087.3194      0.75748359
       4088.0103      0.73255345
       4088.7013      0.76836715
       4089.3922      0.81992895
       4090.0832      0.80811004
       4090.7741      0.71191798
       4091.4651      0.69675720
       4092.1560      0.73680095
       4092.8470      0.78091535
       4093.5379      0.71722955
       4094.2288      0.72613302
       4094.9198      0.69576010
       4095.6107      0.70674521
       4096.3017      0.72628667
       4096.9926      0.78409061
       4097.6836      0.85342774
       4098.3745      0.83755653
       4099.0655      0.85952929
       4099.7564      0.81553928
       4100.4474      0.76157694
       4101.1383      0.72466431
       4101.8292      0.69437322
       4102.5202      0.71492631
       4103.2111      0.82242606
       4103.9021      0.64457645
       4104.5930      0.72473990
       4105.2840      0.73946513
       4105.9749      0.66985061
       4106.6659      0.62382420
       4107.3568      0.63117414
       4108.0478      0.57875931
       4108.7387      0.59431344
       4109.4297      0.59185626
       4110.1206      0.63395121
       4110.8115      0.65909692
       4111.5025      0.65039689
       4112.1934      0.62161874
       4112.8844      0.60393051
       4113.5753      0.62284665
       4114.2663      0.56855046
       4114.9572      0.54276723
       4115.6482      0.53996628
       4116.3391      0.56308733
       4117.0301      0.55336001
       4117.7210      0.54431338
       4118.4120      0.52902373
       4119.1029      0.63899378
       4119.7938      0.64122995
       4120.4848      0.59711825
       4121.1757      0.55305317
       4121.8667      0.65098902
       4122.5576      0.69305965
       4123.2486      0.59689710
       4123.9395      0.58699638
       4124.6305      0.62255023
       4125.3214      0.66004700
       4126.0124      0.72141728
       4126.7033      0.75946546
       4127.3942      0.69861783
       4128.0852      0.66041481
       4128.7761      0.72087140
       4129.4671      0.74333272
       4130.1580      0.81252768
       4130.8490      0.80188384
       4131.5399      0.72090872
       4132.2309      0.74802591
       4132.9218      0.63821966
       4133.6128      0.66662664
       4134.3037      0.75011557
       4134.9947      0.80003213
       4135.6856      0.75080487
       4136.3765      0.77788590
       4137.0675      0.73965219
       4137.7584      0.74578564
       4138.4494      0.75093076
       4139.1403      0.74248587
       4139.8313      0.76439013
       4140.5222      0.68945755
       4141.2132      0.70184258
       4141.9041      0.76506717
       4142.5951      0.76640485
       4143.2860      0.75726832
       4143.9770      0.74443942
       4144.6679      0.75150877
       4145.3588      0.81280991
       4146.0498      0.72164650
       4146.7407      0.67697702
       4147.4317      0.82237682
       4148.1226      0.77267954
       4148.8136      0.66219895
       4149.5045      0.75127954
       4150.1955      0.75450147
       4150.8864      0.86622474
       4151.5774      0.93499258
       4152.2683      0.86899672
       4152.9592      0.84482195
       4153.6502      0.82568116
       4154.3411      0.79670905
       4155.0321      0.67557271
       4155.7230      0.71728227
       4156.4140      0.69217014
       4157.1049      0.77309990
       4157.7959      0.79994831
       4158.4868      0.82134668
       4159.1778      0.75187085
       4159.8687      0.73211964
       4160.5597      0.79469128
       4161.2506      0.71850898
       4161.9415      0.71886632
       4162.6325      0.69927141
       4163.3234      0.73877878
       4164.0144      0.70455325
       4164.7053      0.79677741
       4165.3963      0.85147141
       4166.0872      0.85625762
       4166.7782      0.74306546
       4167.4691      0.80699295
       4168.1601      0.79640769
       4168.8510      0.75334689
       4169.5420      0.80840138
       4170.2329      0.74335476
       4170.9238      0.70504009
       4171.6148      0.69025864
       4172.3057      0.76128048
       4172.9967      0.76564119
       4173.6876      0.77931137
       4174.3786      0.67298225
       4175.0695      0.78020986
       4175.7605      0.71349905
       4176.4514      0.72342067
       4177.1424      0.70044262
       4177.8333      0.77503152
       4178.5242      0.82651064
       4179.2152      0.84621788
       4179.9061      0.81108666
       4180.5971      0.72194057
       4181.2880      0.72508163
       4181.9790      0.79541060
       4182.6699      0.76275151
       4183.3609      0.81863670
       4184.0518      0.80697848
       4184.7428      0.76020237
       4185.4337      0.77318911
       4186.1247      0.79609741
       4186.8156      0.71334761
       4187.5065      0.67168449
       4188.1975      0.73185971
       4188.8884      0.70085922
       4189.5794      0.74660726
       4190.2703      0.77740578
       4190.9613      0.67451227
       4191.6522      0.69424100
       4192.3432      0.77468183
       4193.0341      0.79504178
       4193.7251      0.81809511
       4194.4160      0.80251084
       4195.1070      0.82727045
       4195.7979      0.75089850
       4196.4888      0.74213318
       4197.1798      0.79269684
       4197.8707      0.79475458
       4198.5617      0.74530698
       4199.2526      0.81504124
       4199.9436      0.83386179
       4200.6345      0.84498451
       4201.3255      0.79471774
       4202.0164      0.72930435
       4202.7074      0.69827849
       4203.3983      0.74414851
       4204.0892      0.74823227
       4204.7802      0.76320312
       4205.4711      0.81153363
       4206.1621      0.80037833
       4206.8530      0.81456798
       4207.5440      0.81354036
       4208.2349      0.90137479
       4208.9259      0.85817447
       4209.6168      0.87250224
       4210.3078      0.89751775
       4210.9987      0.92627772
       4211.6897      0.99478671
       4212.3806      0.67585207
       4213.0715      0.75876567
       4213.7625      0.67307609
       4214.4534      0.59155090
       4215.1444      0.77735551
       4215.8353      0.72754547
       4216.5263      0.75730894
       4217.2172      0.80145139
       4217.9082      0.82948930
       4218.5991      0.93418168
       4219.2901      0.84937212
       4219.9810      0.82465489
       4220.6720      0.78891177
       4221.3629      0.80077852
       4222.0538      0.78944204
       4222.7448      0.75593956
       4223.4357      0.79834188
       4224.1267      0.75098756
       4224.8176      0.73146103
       4225.5086      0.85264674
       4226.1995      0.80814197
       4226.8905      0.80333151
       4227.5814      0.78545350
       4228.2724      0.83614986
       4228.9633       1.0702647
       4229.6542       1.2153203
       4230.3452       1.0669948
       4231.0361      0.99274628
       4231.7271      0.77123220
       4232.4180      0.73468812
       4233.1090      0.80771345
       4233.7999      0.71448697
       4234.4909      0.77597448
       4235.1818      0.95060825
       4235.8728      0.89148788
       4236.5637      0.79275608
       4237.2547      0.73621206
       4237.9456      0.80458098
       4238.6365      0.66530871
       4239.3275      0.57784070
       4240.0184      0.69313383
       4240.7094      0.68334234
       4241.4003      0.74111092
       4242.0913      0.72986910
       4242.7822      0.71928631
       4243.4732      0.66423785
       4244.1641      0.64059612
       4244.8551      0.70930554
       4245.5460      0.67308335
       4246.2370      0.74500821
       4246.9279      0.82899235
       4247.6188      0.93462312
       4248.3098      0.79554395
       4249.0007      0.73093482
       4249.6917      0.78386081
       4250.3826      0.70370975
       4251.0736      0.69654234
       4251.7645      0.74242465
       4252.4555      0.79712414
       4253.1464      0.86596398
       4253.8374      0.89429022
       4254.5283      0.84666457
       4255.2192      0.71696512
       4255.9102      0.76250001
       4256.6011      0.74966067
       4257.2921      0.71726334
       4257.9830      0.70922518
       4258.6740      0.74272663
       4259.3649      0.79447109
       4260.0559      0.81321039
       4260.7468      0.78418411
       4261.4378      0.80182679
       4262.1287      0.87203101
       4262.8197      0.83351310
       4263.5106      0.78557535
       4264.2015      0.73620088
       4264.8925      0.69946944
       4265.5834      0.63362630
       4266.2744      0.73624543
       4266.9653      0.75513757
       4267.6563      0.79315442
       4268.3472      0.76648207
       4269.0382      0.87884721
       4269.7291      0.70619893
       4270.4201      0.81736499
       4271.1110      0.80544251
       4271.8020      0.93861833
       4272.4929      0.82327687
       4273.1838      0.78270043
       4273.8748      0.72146732
       4274.5657      0.73179286
       4275.2567      0.72648133
       4275.9476      0.73123843
       4276.6386      0.72512161
       4277.3295      0.71872978
       4278.0205      0.80124607
       4278.7114      0.82056681
       4279.4024      0.81365370
       4280.0933      0.82617611
       4280.7842      0.81747274
       4281.4752      0.76662823
       4282.1661      0.71802504
       4282.8571      0.70760491
       4283.5480      0.90034500
       4284.2390      0.84070583
       4284.9299      0.77607284
       4285.6209      0.82933884
       4286.3118      0.86445423
       4287.0028      0.85460231
       4287.6937      0.74035360
       4288.3847      0.81283887
       4289.0756      0.81550719
       4289.7665      0.82555108
       4290.4575      0.77387920
       4291.1484      0.73524903
       4291.8394      0.67924704
       4292.5303      0.75478943
       4293.2213      0.85359286
       4293.9122      0.87370446
       4294.6032      0.87085355
       4295.2941      0.85502694
       4295.9851      0.86335318
       4296.6760      0.83636961
       4297.3670      0.77088174
       4298.0579      0.94905266
       4298.7488      0.94329425
       4299.4398      0.87253324
       4300.1307      0.84360862
       4300.8217      0.80124110
       4301.5126      0.75196753
       4302.2036      0.84860908
       4302.8945      0.93658529
       4303.5855      0.94041765
       4304.2764      0.98105177
       4304.9674      0.80982613
       4305.6583      0.72007300
       4306.3492      0.71668021
       4307.0402      0.71422448
       4307.7311      0.78451579
       4308.4221      0.78398387
       4309.1130      0.74769234
       4309.8040      0.68001631
       4310.4949      0.71024698
       4311.1859      0.78188804
       4311.8768      0.75343691
       4312.5678      0.73727275
       4313.2587      0.81739858
       4313.9497      0.88283464
       4314.6406      0.86543388
       4315.3315      0.81534811
       4316.0225      0.74266656
       4316.7134      0.67328153
       4317.4044      0.71536613
       4318.0953      0.66799630
       4318.7863      0.71500085
       4319.4772      0.76585663
       4320.1682      0.65649851
       4320.8591      0.72479949
       4321.5501      0.78347060
       4322.2410      0.69462760
       4322.9320      0.66085916
       4323.6229      0.78799267
       4324.3138      0.90183144
       4325.0048      0.80138518
       4325.6957      0.86534087
       4326.3867      0.75584646
       4327.0776      0.71339908
       4327.7686      0.63726299
       4328.4595      0.72885016
       4329.1505      0.79229675
       4329.8414      0.89095734
       4330.5324      0.84512169
       4331.2233      0.79354131
       4331.9142      0.78920702
       4332.6052      0.86424255
       4333.2961      0.95143312
       4333.9871      0.79658288
       4334.6780      0.73572970
       4335.3690      0.81143674
       4336.0599      0.80903469
       4336.7509      0.76926352
       4337.4418      0.72546252
       4338.1328      0.78074299
       4338.8237      0.78796306
       4339.5147      0.81278382
       4340.2056      0.71828634
       4340.8965      0.72649960
       4341.5875      0.77195420
       4342.2784      0.72969420
       4342.9694      0.74132982
       4343.6603      0.84322120
       4344.3513      0.80805379
       4345.0422      0.70424865
       4345.7332      0.73617280
       4346.4241      0.64249278
       4347.1151      0.67051954
       4347.8060      0.70457200
       4348.4970      0.74563385
       4349.1879      0.64111071
       4349.8788      0.64670783
       4350.5698      0.80102786
       4351.2607      0.91197134
       4351.9517      0.73062146
       4352.6426      0.75531692
       4353.3336      0.81283967
       4354.0245      0.76625411
       4354.7155      0.67374856
       4355.4064      0.72145790
       4356.0974      0.70016504
       4356.7883      0.66736097
       4357.4792      0.67423678
       4358.1702      0.79213533
       4358.8611      0.64685132
       4359.5521      0.65547688
       4360.2430      0.67304789
       4360.9340      0.80815102
       4361.6249      0.81490400
       4362.3159      0.66156408
       4363.0068      0.69285779
       4363.6978      0.59651909
       4364.3887      0.73624374
       4365.0797      0.62935048
       4365.7706      0.67521879
       4366.4615      0.70527907
       4367.1525      0.75128661
       4367.8434      0.64498021
       4368.5344      0.70459184
       4369.2253      0.77203429
       4369.9163      0.76721723
       4370.6072      0.66101844
       4371.2982      0.67140893
       4371.9891      0.70615100
       4372.6801      0.73275577
       4373.3710      0.70357925
       4374.0620      0.73793109
       4374.7529      0.73912885
       4375.4438      0.82274656
       4376.1348      0.90572477
       4376.8257      0.93739555
       4377.5167      0.80055137
       4378.2076      0.85472630
       4378.8986      0.87565300
       4379.5895      0.80110804
       4380.2805      0.76194786
       4380.9714      0.95893102
       4381.6624      0.82628623
       4382.3533      0.84980386
       4383.0442      0.82611651
       4383.7352       1.0045585
       4384.4261      0.89824036
       4385.1171      0.72037035
       4385.8080      0.85329582
       4386.4990      0.84706301
       4387.1899      0.87721074
       4387.8809      0.80321302
       4388.5718      0.86472241
       4389.2628      0.85156914
       4389.9537      0.84440034
       4390.6447      0.84906318
       4391.3356      0.85197140
       4392.0265      0.89770004
       4392.7175      0.83685614
       4393.4084      0.82159619
       4394.0994      0.78004281
       4394.7903      0.88397391
       4395.4813      0.84005403
       4396.1722      0.79820342
       4396.8632      0.74941996
       4397.5541      0.76226787
       4398.2451      0.78809079
       4398.9360      0.87400854
       4399.6270      0.74880008
       4400.3179      0.69142694
       4401.0088      0.78841070
       4401.6998      0.76428246
       4402.3907      0.92515874
       4403.0817       1.0518993
       4403.7726      0.96392685
       4404.4636      0.89215237
       4405.1545      0.85069010
       4405.8455      0.74220797
       4406.5364      0.81620166
       4407.2274      0.75368606
       4407.9183      0.70956042
       4408.6092      0.76990186
       4409.3002      0.80225708
       4409.9911      0.73422746
       4410.6821      0.74838103
       4411.3730      0.79700892
       4412.0640      0.75446967
       4412.7549      0.67150321
       4413.4459      0.78812121
       4414.1368      0.78811824
       4414.8278      0.76629630
       4415.5187      0.69230011
       4416.2097      0.70301856
       4416.9006      0.65699687
       4417.5915      0.61962728
       4418.2825      0.50003677
       4418.9734      0.48732566
       4419.6644      0.40322694
       4420.3553      0.34993814
       4421.0463      0.40232677
       4421.7372      0.37107470
       4422.4282             NaN
       4423.1191             NaN
       4423.8101             NaN
       4424.5010             NaN
       4425.1920             NaN
       4425.8829             NaN
       4426.5738             NaN
       4427.2648             NaN
       4427.9557             NaN
       4428.6467             NaN
       4429.3376             NaN
       4430.0286             NaN
       4430.7195             NaN
       4431.4105             NaN
       4432.1014             NaN
       4432.7924             NaN
       4433.4833             NaN
       4434.1742             NaN
       4434.8652             NaN
       4435.5561             NaN
       4436.2471             NaN
       4436.9380             NaN
       4437.6290             NaN
       4438.3199             NaN
       4439.0109             NaN
       4439.7018             NaN
       4440.3928             NaN
       4441.0837             NaN
       4441.7747             NaN
       4442.4656             NaN
       4443.1565             NaN
       4443.8475             NaN
       4444.5384             NaN
       4445.2294             NaN
       4445.9203             NaN
       4446.6113             NaN
       4447.3022             NaN
       4447.9932             NaN
       4448.6841             NaN
       4449.3751             NaN
       4450.0660             NaN
       4450.7570             NaN
       4451.4479             NaN
       4452.1388             NaN
       4452.8298             NaN
       4453.5207             NaN
       4454.2117             NaN
       4454.9026             NaN
       4455.5936             NaN
       4456.2845             NaN
       4456.9755             NaN
       4457.6664             NaN
       4458.3574             NaN
       4459.0483             NaN
       4459.7392             NaN
       4460.4302             NaN
       4461.1211             NaN
       4461.8121             NaN
       4462.5030             NaN
       4463.1940             NaN
       4463.8849             NaN
       4464.5759             NaN
       4465.2668             NaN
       4465.9578             NaN
       4466.6487             NaN
       4467.3397             NaN
       4468.0306             NaN
       4468.7215             NaN
       4469.4125             NaN
       4470.1034             NaN
       4470.7944             NaN
       4471.4853             NaN
       4472.1763             NaN
       4472.8672             NaN
       4473.5582             NaN
       4474.2491             NaN
       4474.9401             NaN
       4475.6310             NaN
       4476.3220             NaN
       4477.0129             NaN
       4477.7038             NaN
       4478.3948             NaN
       4479.0857             NaN
       4479.7767             NaN
       4480.4676             NaN
       4481.1586             NaN
       4481.8495             NaN
       4482.5405             NaN
       4483.2314             NaN
       4483.9224             NaN
       4484.6133      0.71706594
       4485.3042      0.81925319
       4485.9952      0.86627270
       4486.6861      0.84995433
       4487.3771       1.0414120
       4488.0680       1.2424291
       4488.7590      0.91816226
       4489.4499      0.82513977
       4490.1409      0.83378593
       4490.8318      0.89349855
       4491.5228      0.78483239
       4492.2137      0.98595486
       4492.9047      0.96468267
       4493.5956      0.86893585
       4494.2865      0.85603758
       4494.9775      0.85631525
       4495.6684      0.81791030
       4496.3594      0.76426405
       4497.0503      0.91916620
       4497.7413      0.86850656
       4498.4322      0.79218761
       4499.1232      0.84742721
       4499.8141      0.86264481
       4500.5051      0.92365746
       4501.1960      0.81949776
       4501.8870      0.77103252
       4502.5779      0.81036531
       4503.2688      0.92604027
       4503.9598      0.88348584
       4504.6507      0.84496461
       4505.3417      0.83629279
       4506.0326      0.79098836
       4506.7236      0.91303300
       4507.4145      0.93721176
       4508.1055       1.0661520
       4508.7964       1.0898568
       4509.4874      0.99339088
       4510.1783      0.68021318
       4510.8692      0.68737520
       4511.5602      0.80218303
       4512.2511      0.84938426
       4512.9421      0.97117230
       4513.6330      0.91839639
       4514.3240      0.73691614
       4515.0149      0.87507491
       4515.7059      0.80259898
       4516.3968      0.79446909
       4517.0878      0.77634955
       4517.7787      0.88609066
       4518.4697      0.94503828
       4519.1606      0.84572024
       4519.8515      0.85626484
       4520.5425      0.89964467
       4521.2334      0.84700631
       4521.9244      0.81787198
       4522.6153      0.81321253
       4523.3063      0.81342310
       4523.9972      0.79900296
       4524.6882      0.73366045
       4525.3791      0.83124541
       4526.0701      0.84415579
       4526.7610      0.77011752
       4527.4520      0.95438852
       4528.1429      0.96430421
       4528.8338      0.86662068
       4529.5248      0.80908375
       4530.2157      0.91901184
       4530.9067      0.80544917
       4531.5976      0.73239438
       4532.2886      0.69458026
       4532.9795      0.79453862
       4533.6705      0.75173390
       4534.3614      0.74952584
       4535.0524      0.94174997
       4535.7433      0.95710580
       4536.4342      0.71208709
       4537.1252      0.63200249
       4537.8161      0.73778263
       4538.5071      0.80930142
       4539.1980      0.84539809
       4539.8890      0.87463589
       4540.5799      0.81777544
       4541.2709      0.77104154
       4541.9618      0.88167627
       4542.6528      0.91357022
       4543.3437      0.91975164
       4544.0347      0.79399261
       4544.7256      0.80388383
       4545.4165      0.78581529
       4546.1075      0.75649058
       4546.7984      0.75390671
       4547.4894      0.66963048
       4548.1803      0.63815691
       4548.8713      0.85009886
       4549.5622      0.82654784
       4550.2532      0.77434041
       4550.9441      0.74850248
       4551.6351      0.93657768
       4552.3260      0.77752296
       4553.0170      0.73951059
       4553.7079      0.78481865
       4554.3988      0.77610598
       4555.0898      0.77456450
       4555.7807      0.84903443
       4556.4717      0.77643999
       4557.1626      0.74918376
       4557.8536      0.80222032
       4558.5445      0.78346927
       4559.2355      0.85174546
       4559.9264      0.86264191
       4560.6174      0.86402449
       4561.3083      0.91837743
       4561.9992      0.89851884
       4562.6902      0.84933483
       4563.3811      0.88633716
       4564.0721      0.80140514
       4564.7630      0.76346177
       4565.4540      0.84667268
       4566.1449      0.91969022
       4566.8359      0.93690122
       4567.5268      0.76692073
       4568.2178      0.84572923
       4568.9087      0.71589917
       4569.5997      0.61423084
       4570.2906      0.65820448
       4570.9815      0.58746020
       4571.6725      0.59622806
       4572.3634      0.69676211
       4573.0544      0.70213523
       4573.7453      0.65254506
       4574.4363      0.65200265
       4575.1272      0.72726557
       4575.8182      0.78207815
       4576.5091      0.70896861
       4577.2001      0.75787963
       4577.8910      0.67996255
       4578.5820      0.89043499
       4579.2729      0.84411473
       4579.9638      0.93283897
       4580.6548      0.81144987
       4581.3457      0.79835366
       4582.0367      0.74618687
       4582.7276      0.93344625
       4583.4186      0.73520176
       4584.1095      0.75198848
       4584.8005      0.80891323
       4585.4914      0.80254270
       4586.1824      0.80710061
       4586.8733      0.79657794
       4587.5642      0.88430872
       4588.2552      0.89203590
       4588.9461      0.90468433
       4589.6371      0.90851341
       4590.3280      0.81687716
       4591.0190      0.92008506
       4591.7099      0.87540151
       4592.4009      0.71163540
       4593.0918      0.61686832
       4593.7828      0.71636548
       4594.4737      0.87134671
       4595.1647      0.78787802
       4595.8556      0.93844961
       4596.5465      0.87839613
       4597.2375      0.80917150
       4597.9284      0.76742985
       4598.6194      0.86294727
       4599.3103      0.84123905
       4600.0013      0.76488971
       4600.6922      0.90122606
       4601.3832      0.83190410
       4602.0741      0.76564045
       4602.7651      0.82795854
       4603.4560      0.84797852
       4604.1470      0.86751344
       4604.8379      0.94291643
       4605.5288      0.72724343
       4606.2198      0.64023549
       4606.9107      0.74265527
       4607.6017      0.77653541
       4608.2926      0.82386842
       4608.9836       1.0012607
       4609.6745      0.69962478
       4610.3655      0.72453927
       4611.0564      0.85675710
       4611.7474      0.77163751
       4612.4383      0.78094733
       4613.1292      0.82462171
       4613.8202      0.71871215
       4614.5111      0.86128636
       4615.2021      0.78384777
       4615.8930      0.86803047
       4616.5840      0.78688933
       4617.2749      0.83745858
       4617.9659      0.78066020
       4618.6568      0.80682682
       4619.3478      0.82050540
       4620.0387      0.86438505
       4620.7297      0.85267347
       4621.4206      0.77107738
       4622.1115      0.79565292
       4622.8025      0.70403118
       4623.4934      0.73614751
       4624.1844      0.92793538
       4624.8753      0.92368736
       4625.5663      0.80845496
       4626.2572      0.84144473
       4626.9482      0.87047209
       4627.6391      0.87427879
       4628.3301      0.91900593
       4629.0210      0.93108856
       4629.7120      0.86382319
       4630.4029      0.82176940
       4631.0938      0.96477570
       4631.7848      0.92394764
       4632.4757      0.91743184
       4633.1667       1.0110707
       4633.8576      0.72808283
       4634.5486      0.91755077
       4635.2395      0.99677424
       4635.9305      0.92140754
       4636.6214      0.66449325
       4637.3124      0.80522216
       4638.0033      0.76970668
       4638.6942      0.80251902
       4639.3852      0.86499977
       4640.0761      0.81840874
       4640.7671      0.87438610
       4641.4580      0.69589848
       4642.1490      0.95409822
       4642.8399      0.87255800
       4643.5309      0.97414948
       4644.2218      0.76932463
       4644.9128      0.81101406
       4645.6037      0.67452047
       4646.2947      0.82443100
       4646.9856      0.93496126
       4647.6765      0.82652504
       4648.3675      0.78866580
       4649.0584       1.0196872
       4649.7494      0.84528543
       4650.4403      0.98470270
       4651.1313      0.85825510
       4651.8222      0.91557598
       4652.5132      0.82526868
       4653.2041      0.82559530
       4653.8951      0.89474959
       4654.5860      0.81407220
       4655.2770      0.86920404
       4655.9679      0.79402859
       4656.6588      0.79215611
       4657.3498      0.87603136
       4658.0407      0.88506217
       4658.7317      0.80364332
       4659.4226      0.85477600
       4660.1136      0.94297226
       4660.8045      0.92291860
       4661.4955      0.72584174
       4662.1864      0.79485715
       4662.8774      0.85037385
       4663.5683      0.85991025
       4664.2592      0.77889431
       4664.9502      0.73034413
       4665.6411      0.78647999
       4666.3321      0.82719982
       4667.0230      0.69198097
       4667.7140      0.73450883
       4668.4049      0.77312187
       4669.0959      0.60520446
       4669.7868      0.56849298
       4670.4778      0.80128546
       4671.1687      0.90521793
       4671.8597      0.85728782
       4672.5506      0.65636183
       4673.2415      0.72394249
       4673.9325      0.88974538
       4674.6234      0.82719351
       4675.3144      0.80814925
       4676.0053      0.81291815
       4676.6963      0.80658696
       4677.3872      0.76645606
       4678.0782      0.91145271
       4678.7691      0.86682686
       4679.4601      0.89042522
       4680.1510      0.91254335
       4680.8420      0.82533797
       4681.5329      0.92711058
       4682.2238      0.90788826
       4682.9148      0.84528950
       4683.6057      0.86996537
       4684.2967      0.86004096
       4684.9876      0.81128554
       4685.6786      0.73460255
       4686.3695      0.73263840
       4687.0605      0.82224288
       4687.7514      0.90929467
       4688.4424      0.74961533
       4689.1333      0.74913804
       4689.8242      0.74599024
       4690.5152      0.85478384
       4691.2061      0.83454432
       4691.8971      0.78876339
       4692.5880      0.86131921
       4693.2790      0.84132117
       4693.9699      0.84303692
       4694.6609      0.83406618
       4695.3518      0.75151984
       4696.0428      0.82754745
       4696.7337      0.88676221
       4697.4247      0.82502690
       4698.1156      0.82625535
       4698.8065      0.76309853
       4699.4975      0.82651175
       4700.1884      0.90386514
       4700.8794      0.85480543
       4701.5703      0.87444813
       4702.2613      0.72271549
       4702.9522      0.78266938
       4703.6432      0.89162637
       4704.3341      0.85213256
       4705.0251      0.94673680
       4705.7160       1.0298351
       4706.4070      0.84239366
       4707.0979      0.83615442
       4707.7888      0.80553341
       4708.4798      0.87199036
       4709.1707      0.92646069
       4709.8617      0.90842872
       4710.5526      0.70569485
       4711.2436      0.80532904
       4711.9345      0.79425747
       4712.6255      0.80920520
       4713.3164      0.87537706
       4714.0074       1.0262819
       4714.6983      0.90273787
       4715.3892      0.85170562
       4716.0802      0.77632516
       4716.7711      0.70576198
       4717.4621      0.82174177
       4718.1530      0.88421921
       4718.8440      0.85955032
       4719.5349      0.84921059
       4720.2259      0.75911936
       4720.9168      0.73353830
       4721.6078      0.75380140
       4722.2987      0.72300631
       4722.9897      0.90094779
       4723.6806      0.82468959
       4724.3715      0.70698574
       4725.0625      0.69095754
       4725.7534      0.78421416
       4726.4444      0.72409394
       4727.1353      0.85456902
       4727.8263      0.82115997
       4728.5172      0.90617302
       4729.2082      0.88144909
       4729.8991      0.85033427
       4730.5901      0.82159072
       4731.2810      0.78109682
       4731.9720      0.68698533
       4732.6629      0.75666603
       4733.3538      0.80472408
       4734.0448      0.80307505
       4734.7357      0.76745944
       4735.4267      0.90930879
       4736.1176      0.88855410
       4736.8086      0.72365219
       4737.4995      0.83221896
       4738.1905      0.89323628
       4738.8814      0.79130674
       4739.5724      0.80347799
       4740.2633      0.76923775
       4740.9542      0.65090576
       4741.6452      0.78228460
       4742.3361      0.74113305
       4743.0271      0.79444580
       4743.7180      0.82846415
       4744.4090      0.76074897
       4745.0999      0.77391730
       4745.7909      0.74588204
       4746.4818      0.84550442
       4747.1728      0.79542725
       4747.8637      0.78631223
       4748.5547      0.84493378
       4749.2456      0.75693209
       4749.9365      0.76971458
       4750.6275      0.69425341
       4751.3184      0.66778696
       4752.0094      0.75797659
       4752.7003      0.84230698
       4753.3913      0.84681532
       4754.0822      0.77274251
       4754.7732      0.75786868
       4755.4641      0.80457804
       4756.1551      0.79345202
       4756.8460      0.81215324
       4757.5370      0.77881984
       4758.2279      0.76814874
       4758.9188      0.76868997
       4759.6098      0.76103672
       4760.3007      0.78248118
       4760.9917      0.68409734
       4761.6826      0.75972738
       4762.3736      0.82393551
       4763.0645      0.89339153
       4763.7555      0.72969136
       4764.4464      0.79672389
       4765.1374      0.76786751
       4765.8283      0.70414298
       4766.5192      0.76792223
       4767.2102      0.88687990
       4767.9011      0.80638716
       4768.5921      0.84294891
       4769.2830      0.77779062
       4769.9740      0.83549508
       4770.6649      0.78018582
       4771.3559      0.88536170
       4772.0468      0.80159955
       4772.7378      0.85403059
       4773.4287      0.82105174
       4774.1197      0.91098775
       4774.8106      0.94800458
       4775.5015      0.78803348
       4776.1925      0.85293253
       4776.8834      0.80419694
       4777.5744      0.72227867
       4778.2653      0.66142016
       4778.9563      0.83892309
       4779.6472      0.73809301
       4780.3382      0.76136300
       4781.0291      0.86161015
       4781.7201      0.87678786
       4782.4110      0.84891144
       4783.1020      0.87009332
       4783.7929      0.84279404
       4784.4838      0.72227890
       4785.1748      0.78136065
       4785.8657      0.65614491
       4786.5567      0.63335954
       4787.2476      0.70913995
       4787.9386      0.69477758
       4788.6295      0.69240883
       4789.3205      0.76731088
       4790.0114      0.67804518
       4790.7024      0.69663586
       4791.3933      0.83431001
       4792.0842      0.79950872
       4792.7752      0.81126045
       4793.4661      0.79971234
       4794.1571      0.80856092
       4794.8480      0.74179806
       4795.5390      0.81580955
       4796.2299      0.73984102
       4796.9209      0.73881612
       4797.6118      0.85720091
       4798.3028      0.80116376
       4798.9937      0.79761953
       4799.6847      0.70058561
       4800.3756      0.77656917
       4801.0665      0.72637236
       4801.7575      0.74463199
       4802.4484      0.74611217
       4803.1394      0.76776436
       4803.8303      0.75696419
       4804.5213      0.70858186
       4805.2122      0.74409152
       4805.9032      0.78371963
       4806.5941      0.78106418
       4807.2851      0.80864989
       4807.9760      0.85509976
       4808.6670      0.86132272
       4809.3579      0.77804217
       4810.0488      0.72439898
       4810.7398      0.88817170
       4811.4307      0.78810538
       4812.1217      0.91624567
       4812.8126      0.95476474
       4813.5036      0.89096117
       4814.1945      0.77202235
       4814.8855      0.83667933
       4815.5764      0.78899701
       4816.2674      0.78750230
       4816.9583      0.84087127
       4817.6492      0.85049474
       4818.3402      0.94277107
       4819.0311      0.93723257
       4819.7221      0.95816612
       4820.4130      0.70707836
       4821.1040      0.76029029
       4821.7949      0.80712682
       4822.4859       1.0753616
       4823.1768      0.89245688
       4823.8678      0.70493438
       4824.5587      0.91293900
       4825.2497      0.70669381
       4825.9406      0.77931914
       4826.6315      0.95303548
       4827.3225      0.69962387
       4828.0134      0.78336686
       4828.7044      0.93858613
       4829.3953      0.76981533
       4830.0863      0.69413246
       4830.7772      0.61664578
       4831.4682      0.91251236
       4832.1591      0.74409427
       4832.8501      0.80541365
       4833.5410      0.75920420
       4834.2320      0.83095942
       4834.9229      0.78499142
       4835.6138      0.82282041
       4836.3048      0.75128309
       4836.9957      0.73170756
       4837.6867      0.81904484
       4838.3776      0.82248920
       4839.0686      0.80755770
       4839.7595      0.76837945
       4840.4505      0.70927785
       4841.1414      0.79212945
       4841.8324      0.80625579
       4842.5233      0.78072247
       4843.2142      0.79826242
       4843.9052      0.78669711
       4844.5961      0.83656466
       4845.2871      0.82598867
       4845.9780      0.75860135
       4846.6690      0.77679291
       4847.3599      0.78404516
       4848.0509      0.77095410
       4848.7418      0.77067737
       4849.4328      0.87993532
       4850.1237      0.89272618
       4850.8147      0.76067541
       4851.5056      0.76322443
       4852.1965      0.55164220
       4852.8875      0.91190877
       4853.5784      0.79726546
       4854.2694       1.0147134
       4854.9603      0.86332229
       4855.6513      0.96403795
       4856.3422      0.66521738
       4857.0332      0.78441608
       4857.7241      0.56624633
       4858.4151      0.95270976
       4859.1060      0.74504541
       4859.7970      0.71811499
       4860.4879      0.65407442
       4861.1788      0.88582357
       4861.8698      0.73635178
       4862.5607      0.76314688
       4863.2517      0.82843458
       4863.9426      0.64692575
       4864.6336      0.65816376
       4865.3245      0.94598019
       4866.0155      0.85774949
       4866.7064      0.79450281
       4867.3974      0.70166589
       4868.0883      0.78356418
       4868.7792      0.76558469
       4869.4702      0.69512131
       4870.1611      0.78948312
       4870.8521      0.61835346
       4871.5430      0.67910892
       4872.2340      0.57801090
       4872.9249      0.64713335
       4873.6159      0.69801978
       4874.3068      0.70389448
       4874.9978      0.76835582
       4875.6887      0.82117084
       4876.3797      0.86096231
       4877.0706      0.80446643
       4877.7615      0.96161136
       4878.4525       1.2013806
       4879.1434       1.1253882
       4879.8344       1.0076533
       4880.5253       1.0697005
       4881.2163       1.1448246
       4881.9072       1.0596617
       4882.5982       1.0095569
       4883.2891      0.95235101
       4883.9801      0.82304783
       4884.6710       1.1819563
       4885.3620       1.2259172
       4886.0529       1.0564131
       4886.7438       1.1504221
       4887.4348       1.2763241
       4888.1257      0.83288828
       4888.8167      0.57099679
       4889.5076      0.52909798
       4890.1986      0.65060825
       4890.8895      0.74365953
       4891.5805      0.62645215
       4892.2714      0.61454863
       4892.9624      0.54576551
       4893.6533      0.56849098
       4894.3442      0.67633278
       4895.0352      0.76917317
       4895.7261      0.87801173
       4896.4171      0.86900024
       4897.1080      0.73459153
       4897.7990      0.85141924
       4898.4899      0.65675026
       4899.1809      0.70903747
       4899.8718      0.62909284
       4900.5628      0.77115880
       4901.2537      0.71704524
       4901.9447      0.65100367
       4902.6356      0.79424180
       4903.3265       1.1518238
       4904.0175      0.86589131
       4904.7084      0.78355557
       4905.3994      0.89782739
       4906.0903       1.0023077
       4906.7813      0.84505965
       4907.4722      0.67576643
       4908.1632      0.61301982
       4908.8541      0.66655547
       4909.5451      0.73012571
       4910.2360      0.69287966
       4910.9270      0.70546422
       4911.6179      0.72468727
       4912.3088      0.68530016
       4912.9998      0.93532895
       4913.6907      0.82817482
       4914.3817      0.84784079
       4915.0726      0.54335622
       4915.7636      0.78217124
       4916.4545      0.96142755
       4917.1455      0.70227934
       4917.8364       1.0600612
       4918.5274       1.0681086
       4919.2183      0.87975013
       4919.9092      0.77454222
       4920.6002      0.74384939
       4921.2911      0.64626673
       4921.9821      0.76103447
       4922.6730      0.75213073
       4923.3640      0.67297014
       4924.0549       1.0292887
       4924.7459      0.97436137
       4925.4368       1.0600628
       4926.1278       1.1863734
       4926.8187       1.0166125
       4927.5097      0.70388460
       4928.2006      0.71657330
       4928.8915      0.76129229
       4929.5825      0.79828421
       4930.2734      0.77460699
       4930.9644      0.84676692
       4931.6553      0.87664209
       4932.3463      0.78979679
       4933.0372      0.81296683
       4933.7282      0.79133461
       4934.4191      0.71573127
       4935.1101      0.81628651
       4935.8010      0.85728753
       4936.4920      0.78993926
       4937.1829      0.82868317
       4937.8738      0.80718156
       4938.5648      0.81696292
       4939.2557      0.74191799
       4939.9467      0.80622967
       4940.6376      0.85704322
       4941.3286      0.74299863
       4942.0195      0.91120523
       4942.7105      0.74458420
       4943.4014      0.45458309
       4944.0924      0.74829934
       4944.7833      0.77226969
       4945.4742      0.67835199
       4946.1652      0.59421777
       4946.8561      0.72639202
       4947.5471      0.55358577
       4948.2380      0.69857521
       4948.9290      0.64989822
       4949.6199      0.41256389
       4950.3109      0.57507335
       4951.0018      0.74409822
       4951.6928      0.78729772
       4952.3837      0.83160740
       4953.0747      0.78560903
       4953.7656      0.74132434
       4954.4565      0.86715016
       4955.1475      0.80421872
       4955.8384      0.73375922
       4956.5294      0.78609185
       4957.2203      0.69954289
       4957.9113      0.83139638
       4958.6022      0.80447884
       4959.2932      0.80374790
       4959.9841      0.80513838
       4960.6751      0.80771386
       4961.3660      0.82012569
       4962.0570      0.87873135
       4962.7479      0.79520576
       4963.4388      0.77190185
       4964.1298      0.84778870
       4964.8207      0.79546556
       4965.5117      0.89037105
       4966.2026      0.83588679
       4966.8936      0.85470538
       4967.5845      0.79817665
       4968.2755      0.87931331
       4968.9664      0.85107759
       4969.6574      0.79241210
       4970.3483      0.78990041
       4971.0392      0.94533511
       4971.7302      0.87150233
       4972.4211       1.0082482
       4973.1121      0.91608849
       4973.8030       1.0974250
       4974.4940       1.2254961
       4975.1849       1.2304147
       4975.8759       1.3936432
       4976.5668       1.3750242
       4977.2578       1.6519122
       4977.9487       1.5339729
       4978.6397       1.3455946
       4979.3306       1.2554594
       4980.0215       1.1672319
       4980.7125       1.0746767
       4981.4034      0.93543993
       4982.0944       1.0104959
       4982.7853      0.96657174
       4983.4763      0.97678026
       4984.1672       1.0080684
       4984.8582      0.99958204
       4985.5491      0.92481551
       4986.2401      0.77610811
       4986.9310      0.92281256
       4987.6220      0.92213334
       4988.3129      0.78493300
       4989.0038      0.88885856
       4989.6948      0.74427244
       4990.3857      0.72783186
       4991.0767      0.87893810
       4991.7676      0.74991710
       4992.4586      0.87448384
       4993.1495      0.84386493
       4993.8405      0.74787169
       4994.5314      0.88904305
       4995.2224      0.86256527
       4995.9133      0.81069035
       4996.6042      0.84774851
       4997.2952      0.92495968
       4997.9861      0.97976838
       4998.6771      0.79034169
       4999.3680      0.75132793
       5000.0590      0.79710081
       5000.7499      0.88800586
       5001.4409      0.80694666
       5002.1318      0.82700097
       5002.8228      0.70497391
       5003.5137      0.72244783
       5004.2047      0.67105615
       5004.8956      0.74398968
       5005.5865      0.94332214
       5006.2775      0.77406063
       5006.9684      0.76755193
       5007.6594      0.69437608
       5008.3503      0.81338910
       5009.0413      0.70677940
       5009.7322      0.89306581
       5010.4232      0.89059787
       5011.1141      0.81455980
       5011.8051      0.72454007
       5012.4960      0.89754501
       5013.1870      0.83281619
       5013.8779       1.0332516
       5014.5688       1.0865109
       5015.2598      0.78331985
       5015.9507      0.83394778
       5016.6417      0.84849145
       5017.3326      0.80185325
       5018.0236      0.89116187
       5018.7145      0.87141699
       5019.4055      0.84212651
       5020.0964      0.91954685
       5020.7874      0.99157825
       5021.4783       1.2830979
       5022.1692       1.7889592
       5022.8602       2.1203994
       5023.5511       2.3612415
       5024.2421       2.7665635
       5024.9330       2.8845377
       5025.6240       2.7422845
       5026.3149       2.5752775
       5027.0059       2.3100969
       5027.6968       1.9278163
       5028.3878       1.7997320
       5029.0787       1.4406484
       5029.7697       1.4740491
       5030.4606       1.3463268
       5031.1515       1.4794456
       5031.8425       1.4018942
       5032.5334       1.2459721
       5033.2244       1.3399581
       5033.9153       1.1245566
       5034.6063      0.81388102
       5035.2972      0.88190179
       5035.9882       1.0345276
       5036.6791      0.85730079
       5037.3701      0.53308124
       5038.0610      0.71853038
       5038.7520      0.83095360
       5039.4429       1.0502955
       5040.1338      0.71424325
       5040.8248      0.99235872
       5041.5157      0.87873370
       5042.2067       1.0561140
       5042.8976      0.71840496
       5043.5886      0.94756384
       5044.2795       1.0877859
       5044.9705       1.0176458
       5045.6614      0.84442080
       5046.3524      0.74227289
       5047.0433      0.73357246
       5047.7342      0.56681695
       5048.4252      0.87147484
       5049.1161      0.78539734
       5049.8071      0.76315549
       5050.4980      0.65582316
       5051.1890      0.88476991
       5051.8799      0.78217118
       5052.5709      0.86659117
       5053.2618      0.72876759
       5053.9528      0.95080534
       5054.6437      0.76010629
       5055.3347      0.85343667
       5056.0256      0.85132240
       5056.7165      0.88771980
       5057.4075      0.89847032
       5058.0984      0.69447242
       5058.7894      0.82319660
       5059.4803      0.76144749
       5060.1713      0.81614085
       5060.8622      0.71108728
       5061.5532      0.77679721
       5062.2441      0.76003861
       5062.9351      0.82128312
       5063.6260      0.64470673
       5064.3170      0.86207207
       5065.0079      0.84221689
       5065.6988      0.76194640
       5066.3898      0.86918082
       5067.0807      0.67193673
       5067.7717      0.88282946
       5068.4626      0.94717601
       5069.1536      0.88820134
       5069.8445      0.87541051
       5070.5355      0.78969517
       5071.2264      0.82369304
       5071.9174      0.85009440
       5072.6083      0.74905299
       5073.2992      0.86412283
       5073.9902      0.89449737
       5074.6811      0.85710194
       5075.3721      0.78516541
       5076.0630      0.89785269
       5076.7540      0.87445065
       5077.4449      0.79381666
       5078.1359      0.78678702
       5078.8268      0.76111723
       5079.5178      0.85573271
       5080.2087      0.76572915
       5080.8997      0.82448776
       5081.5906      0.92043304
       5082.2815      0.87232803
       5082.9725      0.86795862
       5083.6634      0.84506345
       5084.3544      0.77264425
       5085.0453      0.80322910
       5085.7363      0.76524845
       5086.4272      0.89123372
       5087.1182      0.80624247
       5087.8091      0.89646004
       5088.5001      0.87381292
       5089.1910      0.96970987
       5089.8820      0.82380177
       5090.5729      0.94210099
       5091.2638      0.71592516
       5091.9548      0.72344989
       5092.6457      0.75502051
       5093.3367      0.80115984
       5094.0276      0.98748075
       5094.7186      0.82890244
       5095.4095       1.1460662
       5096.1005      0.96713676
       5096.7914      0.74630416
       5097.4824      0.58653177
       5098.1733      0.55534364
       5098.8642       1.0193850
       5099.5552       1.0120488
       5100.2461      0.93212327
       5100.9371      0.77482651
       5101.6280      0.56716506
       5102.3190      0.60142602
       5103.0099      0.41232002
       5103.7009      0.88316731
       5104.3918      0.85248746
       5105.0828      0.72308634
       5105.7737       1.0466050
       5106.4647       1.2343256
       5107.1556      0.96524510
       5107.8465      0.70233417
       5108.5375      0.71798233
       5109.2284      0.72569351
       5109.9194      0.89607906
       5110.6103      0.88635338
       5111.3013      0.79374441
       5111.9922      0.93221610
       5112.6832      0.87607474
       5113.3741      0.88015251
       5114.0651       1.0132424
       5114.7560      0.90045228
       5115.4470      0.71467976
       5116.1379      0.90706586
       5116.8288      0.86771459
       5117.5198      0.86748305
       5118.2107      0.88843317
       5118.9017      0.86065408
       5119.5926      0.78533640
       5120.2836      0.81478093
       5120.9745      0.72550000
       5121.6655      0.77190177
       5122.3564      0.75255078
       5123.0474      0.86620445
       5123.7383       1.0767095
       5124.4292      0.86347320
       5125.1202      0.86563140
       5125.8111      0.93902726
       5126.5021      0.78237212
       5127.1930      0.83662965
       5127.8840      0.90647051
       5128.5749      0.80711581
       5129.2659      0.90727592
       5129.9568      0.81525310
       5130.6478      0.71434091
       5131.3387      0.38320278
       5132.0297      0.60119115
       5132.7206       1.1493389
       5133.4115       1.3383296
       5134.1025      0.86085695
       5134.7934      0.88499987
       5135.4844      0.43773613
       5136.1753     -0.35363878
       5136.8663      0.38335878
       5137.5572      0.47948941
       5138.2482      0.84779157
       5138.9391      0.91080375
       5139.6301      0.99546432
       5140.3210      0.69113525
       5141.0120      0.61705329
       5141.7029      0.55918677
       5142.3938      0.70965583
       5143.0848      0.99400705
       5143.7757      0.76985256
       5144.4667      0.84219530
       5145.1576      0.82043914
       5145.8486      0.97276751
       5146.5395      0.78200764
       5147.2305      0.97754754
       5147.9214      0.76041150
       5148.6124      0.89872410
       5149.3033      0.80630214
       5149.9942      0.76784562
       5150.6852      0.83216224
       5151.3761      0.81275520
       5152.0671      0.81133668
       5152.7580      0.97064078
       5153.4490      0.90930749
       5154.1399      0.87873264
       5154.8309       1.0669846
       5155.5218      0.83876928
       5156.2128      0.77860554
       5156.9037       1.2444201
       5157.5947       1.0049377
       5158.2856      0.99321278
       5158.9765      0.79104586
       5159.6675      0.71603365
       5160.3584      0.70231679
       5161.0494      0.72360323
       5161.7403      0.87441102
       5162.4313      0.87480247
       5163.1222      0.87872263
       5163.8132      0.82356974
       5164.5041      0.90269079
       5165.1951      0.66004522
       5165.8860      0.94102894
       5166.5770       1.1676322
       5167.2679       1.2149391
       5167.9588       1.3272985
       5168.6498      0.91630016
       5169.3407       1.1162698
       5170.0317      0.17315402
       5170.7226      0.27029071
       5171.4136      0.63326365
       5172.1045      0.69839590
       5172.7955      0.82550446
       5173.4864      0.78860579
       5174.1774      0.84763214
       5174.8683      0.84133877
       5175.5592      0.67160823
       5176.2502      0.81606240
       5176.9411      0.88772618
       5177.6321      0.99988764
       5178.3230       1.0961030
       5179.0140      0.84645084
       5179.7049      0.72549858
       5180.3959      0.58840050
       5181.0868      0.87250043
       5181.7778      0.86310729
       5182.4687      0.92872486
       5183.1597      0.83282603
       5183.8506      0.81438612
       5184.5415      0.68810188
       5185.2325      0.73406922
       5185.9234       1.0349872
       5186.6144      0.83742835
       5187.3053       1.0206612
       5187.9963       1.0957959
       5188.6872       1.3804633
       5189.3782      0.32850194
       5190.0691      0.31604073
       5190.7601      0.43790950
       5191.4510      0.77494954
       5192.1420      0.77472569
       5192.8329      0.83955030
       5193.5238      0.81204068
       5194.2148      0.73846440
       5194.9057      0.67137712
       5195.5967      0.84742099
       5196.2876      0.86386286
       5196.9786      0.80886507
       5197.6695      0.84898721
       5198.3605      0.84713729
       5199.0514      0.60630593
       5199.7424      0.73885438
       5200.4333      0.75116711
       5201.1242      0.76243832
       5201.8152      0.90458337
       5202.5061       1.0005503
       5203.1971      0.70638561
       5203.8880      0.68466973
       5204.5790      0.67468172
       5205.2699      0.72895070
       5205.9609      0.92348279
       5206.6518      0.84294803
       5207.3428       1.0174078
       5208.0337      0.76105464
       5208.7247       1.2483120
       5209.4156       1.1795080
       5210.1065       1.2042286
       5210.7975       1.2906005
       5211.4884      0.76981386
       5212.1794      0.68773517
       5212.8703      0.61385537
       5213.5613      0.76265281
       5214.2522      0.85610308
       5214.9432      0.98667476
       5215.6341      0.86013097
       5216.3251       1.0039990
       5217.0160      0.95588819
       5217.7070      0.89846709
       5218.3979      0.99302121
       5219.0888      0.83814534
       5219.7798      0.85452380
       5220.4707      0.86560821
       5221.1617      0.94888673
       5221.8526      0.88155040
       5222.5436      0.96111633
       5223.2345      0.77776735
       5223.9255      0.86906003
       5224.6164      0.78555100
       5225.3074      0.91330939
       5225.9983       1.1254674
       5226.6892      0.85985987
       5227.3802      0.71051309
       5228.0711      0.58109223
       5228.7621      0.74512684
       5229.4530      0.69598576
       5230.1440      0.81837682
       5230.8349      0.83701643
       5231.5259      0.77376667
       5232.2168      0.70515805
       5232.9078      0.63203336
       5233.5987      0.87762035
       5234.2897       1.0470230
       5234.9806       1.2149134
       5235.6715      0.88331898
       5236.3625      0.66260029
       5237.0534      0.66429826
       5237.7444      0.66940632
       5238.4353      0.74202430
       5239.1263      0.87048052
       5239.8172      0.83532858
       5240.5082      0.83507740
       5241.1991      0.92523899
       5241.8901      0.87298056
       5242.5810      0.86088931
       5243.2720      0.85031013
       5243.9629      0.83465279
       5244.6538      0.82192365
       5245.3448      0.84355842
       5246.0357      0.71095845
       5246.7267      0.76765249
       5247.4176      0.76657835
       5248.1086      0.86640499
       5248.7995      0.85678017
       5249.4905      0.78190900
       5250.1814      0.86692532
       5250.8724      0.78702049
       5251.5633      0.88487617
       5252.2542      0.92009756
       5252.9452      0.85730962
       5253.6361      0.84386620
       5254.3271      0.69642120
       5255.0180      0.94956056
       5255.7090      0.88300372
       5256.3999      0.91888392
       5257.0909      0.84698117
       5257.7818      0.59992251
       5258.4728      0.91236833
       5259.1637      0.85520166
       5259.8547      0.79703354
       5260.5456      0.79717352
       5261.2365      0.98558064
       5261.9275       1.0007057
       5262.6184       1.0103452
       5263.3094      0.83455042
       5264.0003      0.88549516
       5264.6913      0.98732321
       5265.3822      0.81644357
       5266.0732      0.93424387
       5266.7641      0.98199326
       5267.4551      0.93388164
       5268.1460      0.87351206
       5268.8370      0.87190098
       5269.5279      0.93178042
       5270.2188      0.84191242
       5270.9098      0.98051086
       5271.6007      0.89098320
       5272.2917      0.82676410
       5272.9826      0.93319563
       5273.6736      0.96762443
       5274.3645      0.72040187
       5275.0555      0.82396231
       5275.7464      0.80116788
       5276.4374      0.84254053
       5277.1283      0.74114341
       5277.8192      0.74299627
       5278.5102      0.86600673
       5279.2011      0.75064277
       5279.8921      0.88553279
       5280.5830      0.79742483
       5281.2740      0.84513413
       5281.9649      0.91754101
       5282.6559      0.83608619
       5283.3468       1.0150803
       5284.0378      0.80832794
       5284.7287      0.82052327
       5285.4197      0.93146401
       5286.1106      0.78054698
       5286.8015      0.93119692
       5287.4925      0.89319153
       5288.1834      0.78043295
       5288.8744      0.73641641
       5289.5653      0.82497551
       5290.2563      0.94662549
       5290.9472      0.72757912
       5291.6382      0.82056234
       5292.3291      0.84861974
       5293.0201      0.83055626
       5293.7110      0.86414083
       5294.4020      0.89557249
       5295.0929      0.93131837
       5295.7838      0.77104723
       5296.4748      0.94650122
       5297.1657      0.89277109
       5297.8567      0.90315146
       5298.5476      0.83480371
       5299.2386      0.91890783
       5299.9295      0.91127813
       5300.6205      0.88772113
       5301.3114      0.88426990
       5302.0024      0.95126201
       5302.6933      0.89785328
       5303.3842       1.0638198
       5304.0752      0.92182768
       5304.7661      0.88590631
       5305.4571       1.0567476
       5306.1480       1.0564786
       5306.8390       1.0397850
       5307.5299      0.86764374
       5308.2209      0.91475002
       5308.9118      0.88294733
       5309.6028      0.86621795
       5310.2937      0.97241305
       5310.9847      0.74129783
       5311.6756      0.98237764
       5312.3665      0.83903985
       5313.0575      0.77808295
       5313.7484      0.99839289
       5314.4394      0.94244643
       5315.1303      0.87351881
       5315.8213      0.96180780
       5316.5122      0.94075128
       5317.2032      0.99904402
       5317.8941      0.83561418
       5318.5851       1.0915109
       5319.2760      0.86124096
       5319.9670      0.96528510
       5320.6579      0.95881600
       5321.3488      0.93083212
       5322.0398      0.73200681
       5322.7307      0.71931871
       5323.4217      0.85416067
       5324.1126      0.85209444
       5324.8036      0.98065577
       5325.4945      0.83711432
       5326.1855      0.83185921
       5326.8764      0.89644964
       5327.5674      0.95552732
       5328.2583      0.91785039
       5328.9492      0.96598609
       5329.6402      0.80121769
       5330.3311       1.0522395
       5331.0221       1.0511509
       5331.7130      0.97504675
       5332.4040      0.82052342
       5333.0949      0.92425402
       5333.7859      0.91333052
       5334.4768      0.87310746
       5335.1678      0.88299401
       5335.8587      0.95231943
       5336.5497       1.0854724
       5337.2406      0.95501207
       5337.9315      0.88210682
       5338.6225      0.92038532
       5339.3134      0.85212433
       5340.0044      0.88517561
       5340.6953       1.0033286
       5341.3863      0.84895061
       5342.0772      0.92509763
       5342.7682      0.89934957
       5343.4591      0.97944224
       5344.1501      0.91149568
       5344.8410       1.0181343
       5345.5320      0.86191961
       5346.2229      0.79439892
       5346.9138      0.86950458
       5347.6048      0.80847392
       5348.2957      0.96886402
       5348.9867      0.81961645
       5349.6776      0.98238858
       5350.3686       1.0485732
       5351.0595      0.77840271
       5351.7505      0.84155018
       5352.4414      0.94850463
       5353.1324      0.85031776
       5353.8233       1.0386856
       5354.5142      0.96088848
       5355.2052      0.96674860
       5355.8961       1.0266436
       5356.5871      0.86480119
       5357.2780       1.0291615
       5357.9690      0.86223124
       5358.6599      0.97065745
       5359.3509      0.98907344
       5360.0418       1.0178385
       5360.7328      0.92259496
       5361.4237       1.0372780
       5362.1147       1.0073210
       5362.8056       1.0248315
       5363.4965      0.96823710
       5364.1875      0.98411822
       5364.8784      0.81983410
       5365.5694       1.0309842
       5366.2603      0.89862482
       5366.9513       1.1135056
       5367.6422      0.83554143
       5368.3332       1.0673789
       5369.0241       1.0480362
       5369.7151      0.88993591
       5370.4060      0.84678130
       5371.0970      0.90272370
       5371.7879      0.93109519
       5372.4788       1.2020523
       5373.1698      0.94009132
       5373.8607       1.1427724
       5374.5517      0.79665761
       5375.2426       1.1873119
       5375.9336      0.94375167
       5376.6245       1.0191690
       5377.3155       1.1171624
       5378.0064      0.91173232
       5378.6974       1.0766621
       5379.3883       1.0684597
       5380.0792       1.1084987
       5380.7702       1.0090461
       5381.4611       1.2127954
       5382.1521       1.0901871
       5382.8430      0.91664293
       5383.5340       1.0598666
       5384.2249       1.0401294
       5384.9159      0.93817246
       5385.6068       1.2136593
       5386.2978      0.90883126
       5386.9887      0.88272459
       5387.6797      0.85922304
       5388.3706       1.0061046
       5389.0615      0.93430428
       5389.7525      0.89506855
       5390.4434       1.0223317
       5391.1344       1.0394383
       5391.8253       1.0004096
       5392.5163       1.0283557
       5393.2072      0.94693882
       5393.8982      0.85493488
       5394.5891      0.90442651
       5395.2801       1.0214218
       5395.9710      0.97945151
       5396.6620       1.0105823
       5397.3529      0.94378982
       5398.0438      0.75402387
       5398.7348       1.0237039
       5399.4257      0.92080333
       5400.1167      0.87259034
       5400.8076      0.93276394
       5401.4986       1.0033600
       5402.1895      0.93903722
       5402.8805      0.95826147
       5403.5714       1.0269352
       5404.2624      0.89595132
       5404.9533      0.98856173
       5405.6442      0.97466941
       5406.3352      0.96990094
       5407.0261      0.85308357
       5407.7171      0.92744218
       5408.4080      0.74107836
       5409.0990      0.72272158
       5409.7899       1.2640819
       5410.4809      0.97260271
       5411.1718      0.85107849
       5411.8628      0.88698388
       5412.5537      0.93619722
       5413.2447      0.64016443
       5413.9356      0.87830868
       5414.6265      0.71927486
       5415.3175       1.0011424
       5416.0084      0.80558799
       5416.6994      0.30796831
       5417.3903      0.23850923
       5418.0813      0.14277054
       5418.7722     -0.10759235
       5419.4632       1.4831715
       5420.1541       1.0018292
       5420.8451      0.87629967
       5421.5360      0.94301762
       5422.2270    -0.087443295
       5422.9179      0.22234197
       5423.6088      0.35128465
       5424.2998      0.79200416
       5424.9907      0.81120814
       5425.6817      0.76410655
       5426.3726      0.56012818
       5427.0636      0.61674263
       5427.7545      0.91042134
       5428.4455      0.75893821
       5429.1364      0.70991178
       5429.8274      0.72726919
       5430.5183      0.44540344
       5431.2092      0.25782420
       5431.9002      0.44789235
       5432.5911      0.53335131
       5433.2821      0.54484901
       5433.9730      0.58756729
       5434.6640      0.79553824
       5435.3549      0.94351263
       5436.0459      0.99067257
       5436.7368      0.81500289
       5437.4278      0.61774124
       5438.1187      0.57495778
       5438.8097      0.49999394
       5439.5006      0.51254629
       5440.1915      0.58623450
       5440.8825      0.54931855
       5441.5734      0.77311003
       5442.2644      0.75014699
       5442.9553      0.79137359
       5443.6463      0.78890606
       5444.3372      0.92050134
       5445.0282      0.80998543
       5445.7191      0.79206192
       5446.4101      0.61274403
       5447.1010      0.69239299
       5447.7920      0.51044166
       5448.4829      0.13270300
       5449.1738       1.1118835
       5449.8648      0.99094924
       5450.5557       1.1391389
       5451.2467       1.4722416
       5451.9376      0.74412439
       5452.6286     0.062541385
       5453.3195     -0.57287453
       5454.0105      0.21756897
       5454.7014      0.66582595
       5455.3924      0.87460596
       5456.0833      0.72204440
       5456.7742      0.88614287
       5457.4652      0.83964907
       5458.1561      0.91147723
       5458.8471      0.90568102
       5459.5380       1.0020786
       5460.2290      0.96129813
       5460.9199       1.0397748
       5461.6109       1.0730244
       5462.3018      0.86275837
       5462.9928      0.92555816
       5463.6837      0.79679234
       5464.3747      0.66411946
       5465.0656       1.0587126
       5465.7565       1.0103499
       5466.4475       1.1761680
       5467.1384      0.77662724
       5467.8294      0.75598351
       5468.5203      0.74222707
       5469.2113      0.74494942
       5469.9022      0.67345936
       5470.5932      0.84728513
       5471.2841      0.74525670
       5471.9751      0.76356995
       5472.6660       1.0195761
       5473.3570      0.86394903
       5474.0479      0.86093381
       5474.7388      0.92820975
       5475.4298       1.2998871
       5476.1207      0.80904707
       5476.8117       1.1696842
       5477.5026      0.85859274
       5478.1936      0.53292234
       5478.8845      0.47320110
       5479.5755      0.75004599
       5480.2664      0.75403591
       5480.9574      0.74958680
       5481.6483      0.69571860
       5482.3392      0.59810051
       5483.0302      0.83389574
       5483.7211      0.79659206
       5484.4121      0.87080436
       5485.1030      0.53997289
       5485.7940      0.94311421
       5486.4849       1.1422963
       5487.1759       1.4377960
       5487.8668       1.4135756
       5488.5578      0.78243375
       5489.2487      0.20767169
       5489.9397     -0.64740380
       5490.6306     0.094826837
       5491.3215      0.73627802
       5492.0125      0.84839548
       5492.7034      0.87374157
       5493.3944      0.95573998
       5494.0853      0.83237703
       5494.7763      0.79246914
       5495.4672      0.85472003
       5496.1582     0.083385991
       5496.8491      0.19147928
       5497.5401       2.1756563
       5498.2310       3.2998199
       5498.9220       1.8150506
       5499.6129      0.80999054
       5500.3038      0.30281466
       5500.9948      0.32549189
       5501.6857      0.71109825
       5502.3767      0.76906901
       5503.0676      0.76350162
       5503.7586      0.70736107
       5504.4495      0.75225906
       5505.1405      0.72458969
       5505.8314      0.73229109
       5506.5224      0.65131579
       5507.2133      0.50911999
       5507.9042       1.6705608
       5508.5952       1.9406049
       5509.2861       2.1434093
       5509.9771       2.0954063
       5510.6680       1.4239549
       5511.3590     -0.10939836
       5512.0499      0.43688226
       5512.7409      0.65540908
       5513.4318      0.78310938
       5514.1228      0.95383588
       5514.8137      0.87855078
       5515.5047      0.97120002
       5516.1956      0.84232017
       5516.8865      0.91467411
       5517.5775      0.90421903
       5518.2684      0.76833737
       5518.9594      0.87009396
       5519.6503      0.56652403
       5520.3413      0.76239722
       5521.0322      0.68985404
       5521.7232      0.97931541
       5522.4141      0.57520150
       5523.1051      0.92222714
       5523.7960       1.2995042
       5524.4870       1.1706602
       5525.1779       1.1113068
       5525.8688      0.63284714
       5526.5598      0.42960064
       5527.2507      0.98573796
       5527.9417      0.98420955
       5528.6326      0.80391558
       5529.3236       1.0781461
       5530.0145      0.86569438
       5530.7055      0.99098566
       5531.3964      0.84423753
       5532.0874       1.1819583
       5532.7783       1.5010579
       5533.4692       1.5826014
       5534.1602       1.4850380
       5534.8511      0.46946458
       5535.5421      0.91206560
       5536.2330       1.0115094
       5536.9240      0.81583913
       5537.6149      0.81240515
       5538.3059      0.82779789
       5538.9968      0.71266678
       5539.6878      0.72369959
       5540.3787      0.92941803
       5541.0697      0.90769907
       5541.7606       1.0155227
       5542.4515      0.91928363
       5543.1425      0.75312486
       5543.8334      0.89931520
       5544.5244       1.0397133
       5545.2153      0.99989504
       5545.9063      0.85065143
       5546.5972      0.89440278
       5547.2882      0.76645803
       5547.9791      0.79940320
       5548.6701      0.87336514
       5549.3610      0.98339853
       5550.0520      0.86195209
       5550.7429      0.83534253
       5551.4338       1.0385355
       5552.1248      0.87808147
       5552.8157      0.81051468
       5553.5067      0.76662436
       5554.1976       1.0008353
       5554.8886      0.50670932
       5555.5795      0.72917893
       5556.2705      0.68433935
       5556.9614      0.93645280
       5557.6524      0.88386501
       5558.3433      0.59977596
       5559.0342      0.60354862
       5559.7252      0.88260113
       5560.4161      0.82903691
       5561.1071      0.88649375
       5561.7980      0.87652445
       5562.4890      0.44304299
       5563.1799      0.56744122
       5563.8709      0.36711016
       5564.5618      0.76105214
       5565.2528      0.95739137
       5565.9437       1.0230405
       5566.6347      0.96626730
       5567.3256       1.0518645
       5568.0165      0.88947893
       5568.7075       1.0300831
       5569.3984      0.83333675
       5570.0894      0.81858261
       5570.7803      0.83886533
       5571.4713      0.94042556
       5572.1622      0.93348989
       5572.8532      0.88773985
       5573.5441      0.98121016
       5574.2351      0.97931130
       5574.9260      0.82986034
       5575.6170      0.77360930
       5576.3079      0.89751495
       5576.9988      0.74060629
       5577.6898      0.90749966
       5578.3807      0.87735245
       5579.0717       1.1161145
       5579.7626      0.93039645
       5580.4536       1.1993077
       5581.1445      0.90874757
       5581.8355     0.075983193
       5582.5264      0.71577524
       5583.2174      0.87632311
       5583.9083       1.0754681
       5584.5992       1.1442223
       5585.2902       1.1209731
       5585.9811       1.0792402
       5586.6721      0.76699472
       5587.3630      0.82078466
       5588.0540      0.83609868
       5588.7449      0.90226825
       5589.4359      0.93874062
       5590.1268       1.0485933
       5590.8178      0.88614356
       5591.5087       1.0801915
       5592.1997       1.0452255
       5592.8906      0.54057710
       5593.5815      0.94796056
       5594.2725      0.52807999
       5594.9634      0.83834784
       5595.6544      0.79252159
       5596.3453      0.89668905
       5597.0363      0.74159693
       5597.7272      0.93141500
       5598.4182      0.92505981
       5599.1091       1.0779345
       5599.8001      0.90941438
       5600.4910      0.76544936
       5601.1820      0.80691233
       5601.8729      0.93050831
       5602.5638      0.92731885
       5603.2548      0.97715843
       5603.9457       1.0065936
       5604.6367       1.0225414
       5605.3276      0.93638609
       5606.0186      0.89882475
       5606.7095      0.86204574
       5607.4005      0.92569756
       5608.0914      0.80346047
       5608.7824      0.97747515
       5609.4733       1.0677016
       5610.1642       1.0505768
       5610.8552       1.0523391
       5611.5461      0.93237044
       5612.2371      0.92018859
       5612.9280       1.0795143
       5613.6190       1.0534926
       5614.3099      0.88073004
       5615.0009      0.90977108
       5615.6918      0.93324351
       5616.3828      0.83726360
       5617.0737      0.96692718
       5617.7647      0.62173946
       5618.4556      0.93724687
       5619.1465       1.0758293
       5619.8375       1.1314920
       5620.5284       1.1580775
       5621.2194       1.0828640
       5621.9103      0.84949367
       5622.6013       1.0921121
       5623.2922       1.1679086
       5623.9832      0.96299498
       5624.6741      0.91181578
       5625.3651      0.76616897
       5626.0560       1.5867943
       5626.7470      0.85127015
       5627.4379       1.0379150
       5628.1288       1.3509811
       5628.8198      0.94662176
       5629.5107      0.72298200
       5630.2017      0.66277876
       5630.8926      0.87475361
       5631.5836       1.0157738
       5632.2745      0.95210224
       5632.9655      0.96512053
       5633.6564       1.2121146
       5634.3474       1.0660501
       5635.0383      0.82654291
       5635.7292      0.83661385
       5636.4202       1.2032615
       5637.1111       1.1686728
       5637.8021       1.3473887
       5638.4930       1.1192722
       5639.1840      0.78542769
       5639.8749      0.87327098
       5640.5659      0.91232749
       5641.2568      0.96171119
       5641.9478      0.79957209
       5642.6387      0.89404067
       5643.3297      0.95880384
       5644.0206       1.0095549
       5644.7115       1.0769026
       5645.4025       1.0664017
       5646.0934       1.2307898
       5646.7844      0.79397114
       5647.4753      0.70898311
       5648.1663      0.82503072
       5648.8572      0.88707012
       5649.5482       1.1435069
       5650.2391      0.74697846
       5650.9301      0.66930334
       5651.6210      0.85119527
       5652.3120      0.96018207
       5653.0029      0.78947859
       5653.6938       1.2210762
       5654.3848       1.1553726
       5655.0757      0.99648999
       5655.7667      0.90525859
       5656.4576      0.95125670
       5657.1486      0.90830694
       5657.8395       1.1009446
       5658.5305      0.88129371
       5659.2214       1.1740554
       5659.9124       1.0508088
       5660.6033       1.1220495
       5661.2942      0.81292814
       5661.9852      0.84217122
       5662.6761      0.92400417
       5663.3671      0.69289403
       5664.0580      0.90383741
       5664.7490      0.89382618
       5665.4399       1.0013051
       5666.1309      0.99010989
       5666.8218      0.90525100
       5667.5128      0.77576788
       5668.2037      0.92153152
       5668.8947       1.0465827
       5669.5856       1.0724700
       5670.2765      0.95272513
       5670.9675      0.92229877
       5671.6584      0.97849852
       5672.3494      0.98445608
       5673.0403      0.98162404
       5673.7313      0.83172697
       5674.4222       1.2028672
       5675.1132      0.91020769
       5675.8041       1.0578264
       5676.4951       1.1721615
       5677.1860       1.0514802
       5677.8770       1.0006131
       5678.5679       1.0509507
       5679.2588       1.0641134
       5679.9498       1.0381446
       5680.6407       1.1117760
       5681.3317       1.0226665
       5682.0226       1.0696375
       5682.7136       1.0040524
       5683.4045      0.93947756
       5684.0955      0.94202524
       5684.7864       1.1263245
       5685.4774       1.1162351
       5686.1683       1.0431794
       5686.8592       1.0690428
       5687.5502       1.0094529
       5688.2411      0.79584500
       5688.9321      0.88852071
       5689.6230       1.6274291
       5690.3140       1.2653191
       5691.0049       1.2724339
       5691.6959     0.010592396
       5692.3868     -0.19613948
       5693.0778     -0.10115247
       5693.7687      0.30679876
       5694.4597       1.5220124
       5695.1506       1.3991986
       5695.8415       1.3771768
       5696.5325       1.0097382
       5697.2234      0.79775551
       5697.9144      0.92095433
       5698.6053      0.76963073
       5699.2963      0.90427344
       5699.9872       1.2593031
       5700.6782       1.1058270
       5701.3691      0.85598279
       5702.0601      0.65116511
       5702.7510       1.0284131
       5703.4420       1.2707810
       5704.1329       1.1078321
       5704.8238       1.2593649
       5705.5148      0.82349836
       5706.2057       1.0369034
       5706.8967      0.98668175
       5707.5876      0.92706531
       5708.2786      0.74429573
       5708.9695      0.94776467
       5709.6605       1.0067432
       5710.3514      0.95648521
       5711.0424      0.97026385
       5711.7333       1.0942891
       5712.4242       1.1227034
       5713.1152       1.0203337
       5713.8061       1.0241391
       5714.4971       1.1341598
       5715.1880       1.0677095
       5715.8790      0.94159602
       5716.5699      0.97336563
       5717.2609      0.95767852
       5717.9518      0.93183511
       5718.6428      0.95148128
       5719.3337       1.0986094
       5720.0247      0.89021782
       5720.7156       1.0968216
       5721.4065      0.92450584
       5722.0975      0.80542470
       5722.7884       1.6905095
       5723.4794       1.4022792
       5724.1703       1.1020277
       5724.8613      0.81375954
       5725.5522      0.65076755
       5726.2432      0.70318006
       5726.9341      0.67413000
       5727.6251      0.91988611
       5728.3160      0.85394870
       5729.0070       1.0988906
       5729.6979      0.85745523
       5730.3888       1.0140203
       5731.0798      0.93492930
       5731.7707       1.0223579
       5732.4617      0.88336261
       5733.1526       1.0617466
       5733.8436      0.90492940
       5734.5345      0.99400220
       5735.2255      0.73071558
       5735.9164      0.93525932
       5736.6074       2.1111467
       5737.2983      0.99052888
       5737.9892      0.79057156
       5738.6802      0.80911343
       5739.3711     0.019399437
       5740.0621      0.22273148
       5740.7530      0.86812990
       5741.4440       1.0601736
       5742.1349       1.0502823
       5742.8259      0.98585266
       5743.5168      0.81276964
       5744.2078      0.94562269
       5744.8987      0.80493878
       5745.5897      0.95857485
       5746.2806      0.94962060
       5746.9715       1.0255275
       5747.6625      0.97337956
       5748.3534      0.83427625
       5749.0444       1.1832043
       5749.7353       1.2485260
       5750.4263       1.1400493
       5751.1172      0.99103529
       5751.8082      0.50245615
       5752.4991       1.1111013
       5753.1901      0.86743354
       5753.8810      0.98601035
       5754.5720      0.94658298
       5755.2629      0.84088306
       5755.9538      0.92891839
       5756.6448      0.82608383
       5757.3357      0.83204972
       5758.0267      0.90777523
       5758.7176       1.0147302
       5759.4086      0.68938769
       5760.0995       1.1670009
       5760.7905      0.91263786
       5761.4814       1.5010659
       5762.1724       1.6428539
       5762.8633      0.92511242
       5763.5542      0.72525489
       5764.2452      0.53261499
       5764.9361      0.80962957
       5765.6271      0.95292578
       5766.3180      0.95895434
       5767.0090      0.79790104
       5767.6999      0.86009423
       5768.3909      0.90062452
       5769.0818      0.74963357
       5769.7728       1.0304905
       5770.4637      0.92497599
       5771.1547       1.1570675
       5771.8456      0.97207758
       5772.5365      0.91864746
       5773.2275      0.79685393
       5773.9184      0.94957246
       5774.6094       1.1392034
       5775.3003       1.0043136
       5775.9913      0.92974944
