# wavelength flux
       2335.2154     0.079239267
       2336.0189      0.10172743
       2336.8224    -0.020816479
       2337.6259     0.044887519
       2338.4294    -0.035438928
       2339.2329    -0.036043442
       2340.0364     0.056152719
       2340.8399     0.021133779
       2341.6434     0.058885128
       2342.4469     0.060396284
       2343.2504    0.0063908950
       2344.0539     0.098473219
       2344.8574     0.086413894
       2345.6609    0.0072093940
       2346.4644     0.036036535
       2347.2679     0.051877133
       2348.0714    0.0040415434
       2348.8749    -0.012394651
       2349.6784   -0.0089654666
       2350.4819     0.086371164
       2351.2854     0.053032056
       2352.0889     0.010784577
       2352.8924     0.072227879
       2353.6959    -0.026768127
       2354.4994    -0.011576214
       2355.3029     0.058390509
       2356.1064     0.027839548
       2356.9099     0.076201187
       2357.7134     0.086093984
       2358.5169   -0.0086988431
       2359.3204     0.030146600
       2360.1239     0.056565126
       2360.9274    -0.017758514
       2361.7309    -0.029091509
       2362.5344     0.020172452
       2363.3379    -0.030106397
       2364.1414     0.050721833
       2364.9449     0.031071090
       2365.7484     0.073804090
       2366.5519     0.089711154
       2367.3554     0.059658478
       2368.1589    -0.012114998
       2368.9624    0.0039389159
       2369.7659     0.072195668
       2370.5694     0.077063479
       2371.3729     0.060013118
       2372.1764     0.082119514
       2372.9799    -0.022916819
       2373.7834     0.020466993
       2374.5869     0.062832494
       2375.3904     0.048266644
       2376.1939      0.10280363
       2376.9974     0.062704289
       2377.8009     0.050093148
       2378.6044     0.087540958
       2379.4079     0.023272357
       2380.2114     0.063312103
       2381.0149    -0.042019523
       2381.8184   -0.0027044421
       2382.6219    -0.014481043
       2383.4254     0.048962478
       2384.2289     0.083522132
       2385.0324     0.012386225
       2385.8359     0.035360556
       2386.6394     0.076597262
       2387.4429    0.0033541289
       2388.2464     0.027152290
       2389.0500     0.071411359
       2389.8535     0.087685805
       2390.6570     0.071092097
       2391.4605     0.032710318
       2392.2640     0.019362414
       2393.0675     0.033734981
       2393.8710     0.012465305
       2394.6745     0.017860819
       2395.4780     0.045784191
       2396.2815     0.045069940
       2397.0850     0.067461032
       2397.8885     0.021614566
       2398.6920    -0.013668427
       2399.4955     0.072880404
       2400.2990    0.0075545614
       2401.1025     0.031069113
       2401.9060     0.029754894
       2402.7095     0.063137470
       2403.5130    0.0077868913
       2404.3165     0.014371093
       2405.1200     0.022352791
       2405.9235     0.074629029
       2406.7270   -0.0014382628
       2407.5305    0.0058257886
       2408.3340     0.016785001
       2409.1375    0.0028072043
       2409.9410    0.0021037009
       2410.7445     0.030230156
       2411.5480     0.025391556
       2412.3515     0.038994873
       2413.1550     0.012440561
       2413.9585    -0.017235653
       2414.7620    0.0079809995
       2415.5655     0.015926262
       2416.3690     0.049706506
       2417.1725    -0.026726903
       2417.9760     0.038302369
       2418.7795     0.082736586
       2419.5830     0.032848036
       2420.3865     0.051322222
       2421.1900     0.054103274
       2421.9935     0.038853508
       2422.7970  -9.4242449e-05
       2423.6005      0.11199846
       2424.4040     0.041975209
       2425.2075     0.036562945
       2426.0110     0.065739608
       2426.8145     0.024995571
       2427.6180     0.046221197
       2428.4215    -0.027471738
       2429.2250     0.060990153
       2430.0285     0.035309633
       2430.8320   -0.0087281490
       2431.6355     0.040074157
       2432.4390     0.063253366
       2433.2425     0.045189181
       2434.0460     0.079076299
       2434.8495    0.0085021856
       2435.6530     0.086947683
       2436.4565     0.024177606
       2437.2600     0.035803435
       2438.0635     0.040970943
       2438.8670     0.036477354
       2439.6705    0.0040194510
       2440.4740   -0.0055002051
       2441.2775    0.0010380618
       2442.0810    -0.013212879
       2442.8845     0.063183046
       2443.6880     0.028097694
       2444.4915    0.0024045859
       2445.2950     0.027571780
       2446.0985     0.078690655
       2446.9020      0.12901725
       2447.7055     0.055417874
       2448.5090     0.019018986
       2449.3126      0.10786572
       2450.1161     0.032081371
       2450.9196     0.094884622
       2451.7231     0.058430633
       2452.5266      0.10192330
       2453.3301     0.028279068
       2454.1336     0.058155332
       2454.9371     0.045578216
       2455.7406    0.0055646545
       2456.5441     0.072890602
       2457.3476     0.033648390
       2458.1511     0.025230998
       2458.9546     0.030638868
       2459.7581     0.015231271
       2460.5616     0.089587361
       2461.3651     0.034910585
       2462.1686     0.020916893
       2462.9721    0.0010537243
       2463.7756     0.041207542
       2464.5791    0.0084220253
       2465.3826     0.088437887
       2466.1861   -0.0034308834
       2466.9896     0.035911574
       2467.7931     0.057399922
       2468.5966     0.059563415
       2469.4001     0.042364265
       2470.2036     0.043750591
       2471.0071     0.057579782
       2471.8106     0.064650191
       2472.6141     0.063584594
       2473.4176     0.078363275
       2474.2211    0.0041208765
       2475.0246     0.037563233
       2475.8281    -0.011833158
       2476.6316      0.12628600
       2477.4351     0.021910761
       2478.2386   -0.0022824199
       2479.0421     0.033830809
       2479.8456     0.043522681
       2480.6491    -0.037972375
       2481.4526     0.084670434
       2482.2561    -0.013929958
       2483.0596     0.036524662
       2483.8631     0.043660821
       2484.6666     0.045800009
       2485.4701     0.045030796
       2486.2736     0.011650857
       2487.0771     0.031830546
       2487.8806     0.020053318
       2488.6841     0.072874757
       2489.4876     0.037728397
       2490.2911     0.040161263
       2491.0946     0.014047203
       2491.8981     0.058389643
       2492.7016     0.045678609
       2493.5051     0.023859751
       2494.3086     0.056103667
       2495.1121    -0.028281781
       2495.9156     0.025641369
       2496.7191     0.030722197
       2497.5226     0.062940803
       2498.3261     0.021014651
       2499.1296     0.082438348
       2499.9331     0.020608032
       2500.7366     0.020263757
       2501.5401    0.0080510702
       2502.3436     0.081461721
       2503.1471     0.058364165
       2503.9506    0.0089868404
       2504.7541   -0.0012716223
       2505.5576     0.043109073
       2506.3611     0.038933997
       2507.1646     0.011339946
       2507.9681     0.070467648
       2508.7716     0.057247923
       2509.5752     0.038498209
       2510.3787     0.050141729
       2511.1822     0.070157055
       2511.9857    -0.021514717
       2512.7892     0.034280907
       2513.5927     0.024776815
       2514.3962     0.028525085
       2515.1997     0.031413742
       2516.0032     0.045455729
       2516.8067     0.042138630
       2517.6102    -0.010835074
       2518.4137     0.026991789
       2519.2172     0.057919028
       2520.0207     0.028355400
       2520.8242     0.064111986
       2521.6277     0.028759743
       2522.4312     0.034782190
       2523.2347     0.032454280
       2524.0382     0.026010212
       2524.8417    0.0093164070
       2525.6452     0.026249252
       2526.4487     0.030650716
       2527.2522    0.0021793803
       2528.0557    0.0053572123
       2528.8592     0.025161306
       2529.6627     0.036796346
       2530.4662     0.026935721
       2531.2697    0.0043203948
       2532.0732    -0.031077244
       2532.8767     0.023158258
       2533.6802     0.047979554
       2534.4837   -0.0021925715
       2535.2872     0.050445457
       2536.0907    -0.040972572
       2536.8942     0.031089207
       2537.6977     0.054170921
       2538.5012     0.022499500
       2539.3047     0.039092244
       2540.1082    0.0012950443
       2540.9117     0.083682186
       2541.7152    -0.015352589
       2542.5187    -0.029434658
       2543.3222     0.022384997
       2544.1257    0.0067474257
       2544.9292     0.029919010
       2545.7327   -0.0067671101
       2546.5362     0.010995486
       2547.3397     0.044357088
       2548.1432     0.034031853
       2548.9467     0.045509246
       2549.7502     0.014166689
       2550.5537     0.035546539
       2551.3572     0.013659737
       2552.1607     0.060281039
       2552.9642     0.073536945
       2553.7677    -0.014115759
       2554.5712     0.038475579
       2555.3747    0.0048677671
       2556.1782     0.013863893
       2556.9817     0.016033996
       2557.7852   -0.0015797671
       2558.5887     0.055638052
       2559.3922     0.029075041
       2560.1957  -1.7335166e-05
       2560.9992     0.014873640
       2561.8027     0.024902326
       2562.6062    -0.011565090
       2563.4097     0.042250552
       2564.2132     0.018206771
       2565.0167     0.051177541
       2565.8202   0.00096127443
       2566.6237     0.045636307
       2567.4272     0.045685592
       2568.2307     0.079612448
       2569.0342     0.011064986
       2569.8378     0.020846620
       2570.6413     0.026196895
       2571.4448     0.035982245
       2572.2483     0.028330218
       2573.0518     0.049470427
       2573.8553     0.042215830
       2574.6588     0.037094545
       2575.4623     0.049589704
       2576.2658     0.082159683
       2577.0693    -0.017296445
       2577.8728     0.018184131
       2578.6763     0.049364089
       2579.4798     0.018517762
       2580.2833    0.0038804621
       2581.0868    0.0072850456
       2581.8903     0.035697158
       2582.6938    -0.021239880
       2583.4973     0.019664068
       2584.3008     0.023566805
       2585.1043     0.012649236
       2585.9078     0.051901887
       2586.7113     0.017981312
       2587.5148     0.042493153
       2588.3183     0.049677838
       2589.1218     0.079507620
       2589.9253     0.059182540
       2590.7288    -0.022307596
       2591.5323     0.037039731
       2592.3358    0.0071477796
       2593.1393     0.028349768
       2593.9428    0.0043188462
       2594.7463  -4.0854656e-05
       2595.5498     0.039186568
       2596.3533     0.022959396
       2597.1568     0.013819786
       2597.9603     0.023901739
       2598.7638     0.018824141
       2599.5673     0.051216836
       2600.3708     0.041396862
       2601.1743     0.050553973
       2601.9778     0.014107527
       2602.7813     0.057495166
       2603.5848     0.031653389
       2604.3883     0.030431507
       2605.1918     0.031472171
       2605.9953     0.021477325
       2606.7988     0.034677940
       2607.6023    0.0092970506
       2608.4058     0.037187840
       2609.2093     0.024265465
       2610.0128     0.034382851
       2610.8163     0.035643352
       2611.6198     0.051795651
       2612.4233     0.023725509
       2613.2268     0.032363698
       2614.0303     0.046456739
       2614.8338     0.066151620
       2615.6373     0.060061399
       2616.4408     0.025368978
       2617.2443     0.028301252
       2618.0478     0.045932219
       2618.8513     0.044635823
       2619.6548    0.0081583066
       2620.4583     0.016062710
       2621.2618     0.020388962
       2622.0653     0.020983363
       2622.8688     0.034066219
       2623.6723     0.036262712
       2624.4758   -0.0066949202
       2625.2793     0.037551789
       2626.0828     0.045055442
       2626.8863     0.052485676
       2627.6898     0.043796748
       2628.4933     0.028003099
       2629.2968     0.022657462
       2630.1004     0.046700349
       2630.9039     0.024120436
       2631.7074   0.00092081041
       2632.5109     0.026299594
       2633.3144     0.039169811
       2634.1179     0.039971732
       2634.9214     0.016998670
       2635.7249    0.0064410486
       2636.5284     0.043451603
       2637.3319     0.029990373
       2638.1354     0.013781476
       2638.9389     0.019337968
       2639.7424     0.073232953
       2640.5459     0.014111989
       2641.3494     0.048413369
       2642.1529    0.0063969902
       2642.9564     0.023279474
       2643.7599     0.024540978
       2644.5634     0.027864031
       2645.3669    0.0048381429
       2646.1704     0.082173581
       2646.9739     0.042240895
       2647.7774     0.062717284
       2648.5809     0.043128194
       2649.3844     0.033508697
       2650.1879     0.024453987
       2650.9914     0.027551484
       2651.7949    0.0072113040
       2652.5984     0.012323302
       2653.4019   -0.0096392883
       2654.2054     0.037417118
       2655.0089     0.047707305
       2655.8124     0.036961980
       2656.6159     0.046971437
       2657.4194     0.022432472
       2658.2229     0.039176270
       2659.0264    0.0096800504
       2659.8299     0.045480105
       2660.6334     0.025943501
       2661.4369    0.0082767608
       2662.2404     0.075978748
       2663.0439    0.0046222429
       2663.8474   -0.0057878465
       2664.6509     0.047467112
       2665.4544     0.041278391
       2666.2579     0.037298625
       2667.0614     0.033632493
       2667.8649     0.031273347
       2668.6684     0.027142406
       2669.4719     0.025264149
       2670.2754    0.0069258387
       2671.0789     0.019661588
       2671.8824     0.051031592
       2672.6859     0.027266148
       2673.4894     0.022752713
       2674.2929     0.030976576
       2675.0964     0.012674238
       2675.8999     0.040892631
       2676.7034     0.037688838
       2677.5069     0.048352693
       2678.3104     0.053047395
       2679.1139     0.033146443
       2679.9174     0.044228051
       2680.7209    0.0073461252
       2681.5244     0.046622186
       2682.3279     0.021811408
       2683.1314     0.022259342
       2683.9349     0.054706722
       2684.7384     0.036003951
       2685.5419    0.0077847184
       2686.3454     0.041453616
       2687.1489     0.016507180
       2687.9524     0.071358423
       2688.7559     0.028012932
       2689.5595     0.027562655
       2690.3630     0.016637640
       2691.1665   -0.0054206284
       2691.9700   -0.0031179038
       2692.7735     0.040830290
       2693.5770     0.052514421
       2694.3805     0.041100802
       2695.1840     0.080509711
       2695.9875     0.025190807
       2696.7910     0.037021789
       2697.5945     0.034367888
       2698.3980     0.042297166
       2699.2015     0.088939166
       2700.0050     0.032170126
       2700.8085     0.028083408
       2701.6120     0.018881704
       2702.4155     0.030990131
       2703.2190     0.011130857
       2704.0225    0.0044704132
       2704.8260     0.030927708
       2705.6295     0.036266383
       2706.4330     0.014510781
       2707.2365   -0.0097346785
       2708.0400   -0.0053886064
       2708.8435    0.0044375888
       2709.6470    0.0067663069
       2710.4505     0.061649925
       2711.2540     0.047775735
       2712.0575     0.055320710
       2712.8610   -0.0096958839
       2713.6645     0.010915407
       2714.4680     0.022429701
       2715.2715     0.026774105
       2716.0750    0.0018656268
       2716.8785      0.10365763
       2717.6820     0.041471384
       2718.4855     0.047730666
       2719.2890     0.021211584
       2720.0925     0.067507774
       2720.8960     0.046325588
       2721.6995     0.054139160
       2722.5030     0.070170021
       2723.3065     0.053859066
       2724.1100     0.019194472
       2724.9135     0.046708636
       2725.7170     0.019903440
       2726.5205     0.024949386
       2727.3240   -0.0082839657
       2728.1275     0.036897043
       2728.9310     0.031613055
       2729.7345     0.062787108
       2730.5380     0.059115928
       2731.3415     0.065110575
       2732.1450     0.035661456
       2732.9485     0.059037484
       2733.7520     0.074334538
       2734.5555     0.073020486
       2735.3590     0.054503798
       2736.1625     0.029683899
       2736.9660     0.039079318
       2737.7695     0.037580112
       2738.5730     0.062439157
       2739.3765     0.026790926
       2740.1800    -0.018211726
       2740.9835     0.037174343
       2741.7870     0.022605626
       2742.5905     0.051048867
       2743.3940     0.019674335
       2744.1975     0.023864941
       2745.0010     0.017978621
       2745.8045     0.050155859
       2746.6080     0.052070994
       2747.4115     0.027983924
       2748.2150     0.061944867
       2749.0185     0.027703636
       2749.8221     0.045915697
       2750.6256     0.055661016
       2751.4291     0.011067184
       2752.2326     0.035568583
       2753.0361    -0.019899382
       2753.8396     0.044274113
       2754.6431     0.030439646
       2755.4466     0.019606852
       2756.2501     0.017729747
       2757.0536     0.021608941
       2757.8571     0.047624369
       2758.6606     0.030716047
       2759.4641     0.035823269
       2760.2676     0.047968472
       2761.0711     0.037951346
       2761.8746     0.062366093
       2762.6781    0.0073803757
       2763.4816     0.033661234
       2764.2851     0.032157465
       2765.0886     0.066586876
       2765.8921     0.041685649
       2766.6956     0.025419007
       2767.4991     0.033491913
       2768.3026     0.054508751
       2769.1061     0.054054993
       2769.9096     0.025999092
       2770.7131     0.042103396
       2771.5166     0.024017008
       2772.3201     0.054028655
       2773.1236     0.044358251
       2773.9271     0.037853012
       2774.7306     0.070323606
       2775.5341     0.019627160
       2776.3376     0.045976206
       2777.1411     0.044625464
       2777.9446     0.049525777
       2778.7481     0.060747831
       2779.5516     0.021593263
       2780.3551     0.031044521
       2781.1586     0.021080099
       2781.9621     0.045231632
       2782.7656     0.016556930
       2783.5691     0.040968127
       2784.3726     0.018158134
       2785.1761     0.067138555
       2785.9796     0.030279970
       2786.7831    0.0079066476
       2787.5866    0.0071102768
       2788.3901     0.070399912
       2789.1936     0.037076399
       2789.9971     0.040506141
       2790.8006     0.075571030
       2791.6041     0.048907225
       2792.4076     0.045094048
       2793.2111     0.049704607
       2794.0146     0.025740757
       2794.8181    0.0035044949
       2795.6216   -0.0014104254
       2796.4251     0.064679441
       2797.2286     0.037151175
       2798.0321     0.021537173
       2798.8356     0.042327653
       2799.6391     0.012756452
       2800.4426     0.013256824
       2801.2461    0.0058241629
       2802.0496     0.013354230
       2802.8531     0.027456245
       2803.6566     0.015306670
       2804.4601     0.010304113
       2805.2636     0.052751200
       2806.0671     0.050396693
       2806.8706     0.020506966
       2807.6741     0.031130258
       2808.4776     0.019076770
       2809.2811   -0.0065478645
       2810.0847     0.019355897
       2810.8882     0.023359277
       2811.6917     0.032136829
       2812.4952     0.017685765
       2813.2987     0.015733297
       2814.1022     0.051002078
       2814.9057     0.030117039
       2815.7092     0.031998014
       2816.5127     0.067325650
       2817.3162     0.048259505
       2818.1197     0.019734987
       2818.9232     0.036304875
       2819.7267     0.033318388
       2820.5302     0.019806366
       2821.3337     0.015422819
       2822.1372     0.042998979
       2822.9407     0.051544204
       2823.7442     0.034395953
       2824.5477     0.023205373
       2825.3512     0.055881893
       2826.1547     0.062613778
       2826.9582     0.068258964
       2827.7617     0.053089446
       2828.5652     0.044434268
       2829.3687     0.048101070
       2830.1722     0.066670929
       2830.9757     0.040511567
       2831.7792     0.021552311
       2832.5827     0.047554436
       2833.3862     0.011161955
       2834.1897     0.024700403
       2834.9932     0.050033463
       2835.7967     0.046932309
       2836.6002     0.052870902
       2837.4037     0.040831745
       2838.2072     0.061599132
       2839.0107     0.039646813
       2839.8142     0.032911673
       2840.6177     0.067349076
       2841.4212     0.020755703
       2842.2247     0.033653644
       2843.0282     0.041227226
       2843.8317     0.029922111
       2844.6352     0.036387348
       2845.4387     0.037066219
       2846.2422     0.037175505
       2847.0457     0.054921504
       2847.8492     0.020240173
       2848.6527     0.012584304
       2849.4562     0.039023858
       2850.2597     0.029918665
       2851.0632     0.038365401
       2851.8667     0.041005088
       2852.6702    -0.025870738
       2853.4737    0.0095741668
       2854.2772   -0.0012699861
       2855.0807     0.061877477
       2855.8842     0.050642962
       2856.6877     0.024452586
       2857.4912     0.057318757
       2858.2947   -0.0032076623
       2859.0982     0.052702043
       2859.9017     0.012970681
       2860.7052     0.042216476
       2861.5087     0.015011795
       2862.3122     0.051480424
       2863.1157     0.030613240
       2863.9192     0.010764247
       2864.7227     0.012692964
       2865.5262     0.011094386
       2866.3297     0.039808048
       2867.1332     0.067173597
       2867.9367     0.032093850
       2868.7402     0.048638142
       2869.5437     0.025741732
       2870.3473     0.045894620
       2871.1508     0.014044536
       2871.9543     0.033023826
       2872.7578     0.034573086
       2873.5613     0.044199614
       2874.3648     0.057417429
       2875.1683     0.053042343
       2875.9718     0.064914253
       2876.7753     0.025305485
       2877.5788     0.038629673
       2878.3823     0.028141930
       2879.1858     0.050348768
       2879.9893     0.038957334
       2880.7928     0.054433410
       2881.5963     0.041794047
       2882.3998     0.036360531
       2883.2033     0.039573841
       2884.0068     0.035345919
       2884.8103     0.041625420
       2885.6138     0.035003353
       2886.4173     0.061291933
       2887.2208     0.054001003
       2888.0243     0.047020180
       2888.8278     0.029064950
       2889.6313     0.062756643
       2890.4348     0.045187770
       2891.2383     0.045214565
       2892.0418     0.035398423
       2892.8453     0.054181559
       2893.6488     0.059014660
       2894.4523     0.065331693
       2895.2558     0.039675738
       2896.0593     0.037363941
       2896.8628     0.047107610
       2897.6663     0.059604865
       2898.4698     0.032876014
       2899.2733     0.047262850
       2900.0768     0.026319215
       2900.8803     0.049562066
       2901.6838     0.024841984
       2902.4873     0.047934053
       2903.2908     0.066452177
       2904.0943     0.068874948
       2904.8978     0.058992432
       2905.7013     0.033927856
       2906.5048     0.070630552
       2907.3083     0.031644493
       2908.1118     0.059276871
       2908.9153     0.056657317
       2909.7188     0.044582888
       2910.5223     0.049992118
       2911.3258     0.050976537
       2912.1293    0.0043637204
       2912.9328     0.056289206
       2913.7363     0.057655766
       2914.5398     0.075351530
       2915.3433     0.045131399
       2916.1468     0.041447616
       2916.9503     0.039486653
       2917.7538     0.047661113
       2918.5573     0.042593535
       2919.3608     0.068289377
       2920.1643     0.030143297
       2920.9678     0.067276755
       2921.7713     0.060285134
       2922.5748     0.027081883
       2923.3783     0.045565545
       2924.1818     0.038248719
       2924.9853     0.061445588
       2925.7888     0.051527236
       2926.5923     0.046773101
       2927.3958     0.051877740
       2928.1993     0.039301535
       2929.0028     0.060009315
       2929.8063     0.061031535
       2930.6099     0.039792770
       2931.4134     0.056954329
       2932.2169     0.046300547
       2933.0204     0.071937104
       2933.8239     0.052395654
       2934.6274     0.042295541
       2935.4309     0.043698400
       2936.2344     0.044645621
       2937.0379     0.046900949
       2937.8414     0.051240134
       2938.6449     0.059090107
       2939.4484     0.045472238
       2940.2519     0.032070042
       2941.0554     0.022767872
       2941.8589     0.053886616
       2942.6624     0.046468947
       2943.4659     0.016186454
       2944.2694     0.036402506
       2945.0729     0.025811735
       2945.8764     0.061535525
       2946.6799     0.069199272
       2947.4834     0.066177426
       2948.2869     0.044586857
       2949.0904     0.050704023
       2949.8939     0.050925841
       2950.6974     0.043339973
       2951.5009     0.054168107
       2952.3044     0.039610019
       2953.1079     0.034637494
       2953.9114     0.032999676
       2954.7149     0.049072291
       2955.5184     0.050171650
       2956.3219     0.038829988
       2957.1254     0.052398397
       2957.9289     0.032278589
       2958.7324     0.049511563
       2959.5359     0.015872788
       2960.3394     0.037187836
       2961.1429     0.031089927
       2961.9464     0.037178831
       2962.7499     0.037172174
       2963.5534     0.045046050
       2964.3569     0.042211939
       2965.1604     0.047896985
       2965.9639     0.038516908
       2966.7674     0.061679838
       2967.5709     0.065672014
       2968.3744     0.046154847
       2969.1779     0.044523724
       2969.9814     0.077394598
       2970.7849     0.044320352
       2971.5884     0.043570058
       2972.3919     0.054790413
       2973.1954     0.050976603
       2973.9989     0.050894167
       2974.8024     0.066245501
       2975.6059     0.078331654
       2976.4094     0.014075883
       2977.2129     0.037545929
       2978.0164     0.060573540
       2978.8199     0.043895395
       2979.6234     0.039088912
       2980.4269     0.029494115
       2981.2304     0.062155034
       2982.0339     0.051610746
       2982.8374     0.029936891
       2983.6409     0.051629280
       2984.4444     0.042162159
       2985.2479     0.043587160
       2986.0514     0.032075303
       2986.8549     0.063387533
       2987.6584     0.075390979
       2988.4619     0.055103869
       2989.2654     0.053317083
       2990.0689     0.059182189
       2990.8725     0.055367314
       2991.6760     0.033191782
       2992.4795     0.022316569
       2993.2830     0.034038639
       2994.0865     0.028074146
       2994.8900     0.050291183
       2995.6935     0.031918370
       2996.4970     0.018058901
       2997.3005     0.056690157
       2998.1040     0.078505644
       2998.9075     0.039970363
       2999.7110     0.067078307
       3000.5145     0.041704034
       3001.3180     0.065947516
       3002.1215     0.059080389
       3002.9250     0.041152867
       3003.7285     0.055787199
       3004.5320     0.058719242
       3005.3355     0.049889936
       3006.1390     0.036322513
       3006.9425     0.048154815
       3007.7460     0.058201597
       3008.5495     0.024568097
       3009.3530     0.018846750
       3010.1565     0.046960987
       3010.9600     0.046627276
       3011.7635     0.056074332
       3012.5670     0.044167357
       3013.3705     0.045174823
       3014.1740     0.065419300
       3014.9775     0.096003638
       3015.7810     0.034223834
       3016.5845     0.019573868
       3017.3880     0.027810093
       3018.1915     0.030245195
       3018.9950     0.042265855
       3019.7985     0.071369359
       3020.6020     0.050065733
       3021.4055     0.076601105
       3022.2090     0.066576739
       3023.0125     0.060937608
       3023.8160     0.056986259
       3024.6195     0.069352789
       3025.4230     0.053108081
       3026.2265     0.031775182
       3027.0300     0.079860789
       3027.8335     0.044497838
       3028.6370    0.0055607727
       3029.4405     0.027478602
       3030.2440     0.055823840
       3031.0475     0.073743927
       3031.8510     0.067538230
       3032.6545     0.026703657
       3033.4580     0.029932719
       3034.2615     0.033427072
       3035.0650     0.076947958
       3035.8685     0.051658548
       3036.6720     0.029719713
       3037.4755     0.045606596
       3038.2790     0.043305783
       3039.0825     0.051829489
       3039.8860     0.062402100
       3040.6895     0.047812909
       3041.4930     0.066222163
       3042.2965     0.085634482
       3043.1000     0.060946268
       3043.9035     0.063403390
       3044.7070     0.066798332
       3045.5105     0.029718223
       3046.3140     0.037214046
       3047.1175     0.071860359
       3047.9210     0.040203033
       3048.7245     0.038713397
       3049.5280     0.024823523
       3050.3316     0.040937773
       3051.1351     0.067604989
       3051.9386     0.053769275
       3052.7421     0.042147738
       3053.5456     0.055143905
       3054.3491     0.040977321
       3055.1526     0.062506154
       3055.9561     0.033329138
       3056.7596     0.039199223
       3057.5631     0.078228019
       3058.3666     0.049200195
       3059.1701     0.061233321
       3059.9736     0.050090739
       3060.7771     0.068548903
       3061.5806     0.048611290
       3062.3841     0.062362786
       3063.1876     0.069049137
       3063.9911     0.046919724
       3064.7946     0.055987073
       3065.5981     0.069113884
       3066.4016     0.073087563
       3067.2051     0.067144367
       3068.0086     0.023776966
       3068.8121     0.036355026
       3069.6156     0.056062279
       3070.4191     0.047247654
       3071.2226     0.050922940
       3072.0261     0.049998774
       3072.8296     0.067418994
       3073.6331     0.070236542
       3074.4366     0.039492394
       3075.2401     0.065408615
       3076.0436     0.069151015
       3076.8471     0.052349479
       3077.6506     0.019536765
       3078.4541     0.052147396
       3079.2576     0.010450826
       3080.0611     0.073437933
       3080.8646     0.079048088
       3081.6681     0.058953454
       3082.4716     0.054111360
       3083.2751     0.036049213
       3084.0786     0.064555583
       3084.8821     0.047499578
       3085.6856     0.032293522
       3086.4891     0.038912024
       3087.2926     0.063671998
       3088.0961     0.065154586
       3088.8996     0.068035567
       3089.7031     0.063564390
       3090.5066     0.042663671
       3091.3101     0.061227684
       3092.1136     0.083986916
       3092.9171     0.044356809
       3093.7206     0.084398367
       3094.5241     0.068864237
       3095.3276     0.039266789
       3096.1311     0.067507902
       3096.9346     0.061680598
       3097.7381     0.048303150
       3098.5416     0.063057633
       3099.3451     0.069121038
       3100.1486     0.038962103
       3100.9521     0.061094598
       3101.7556     0.049617137
       3102.5591     0.053469962
       3103.3626     0.048639124
       3104.1661     0.046911594
       3104.9696     0.045303227
       3105.7731     0.058674875
       3106.5766     0.033395948
       3107.3801     0.058527172
       3108.1836     0.064113213
       3108.9871     0.039580129
       3109.7906     0.051392289
       3110.5942     0.072287719
       3111.3977     0.061126749
       3112.2012     0.060662902
       3113.0047     0.077904324
       3113.8082     0.078223560
       3114.6117     0.085073580
       3115.4152     0.075479719
       3116.2187     0.043514813
       3117.0222     0.080057535
       3117.8257     0.072339767
       3118.6292     0.052628587
       3119.4327     0.079604714
       3120.2362     0.068878434
       3121.0397     0.036406019
       3121.8432     0.055118223
       3122.6467     0.063854503
       3123.4502     0.074771090
       3124.2537     0.064791526
       3125.0572     0.038582688
       3125.8607     0.060986501
       3126.6642     0.078446454
       3127.4677     0.050110858
       3128.2712     0.051548904
       3129.0747     0.058346214
       3129.8782     0.082659960
       3130.6817     0.070781598
       3131.4852     0.048391099
       3132.2887     0.063337125
       3133.0922     0.069600222
       3133.8957     0.035163289
       3134.6992     0.049275334
       3135.5027     0.058597370
       3136.3062     0.058297818
       3137.1097     0.048260656
       3137.9132     0.046079098
       3138.7167     0.079193946
       3139.5202     0.063121330
       3140.3237     0.043436245
       3141.1272     0.049407123
       3141.9307     0.044257099
       3142.7342     0.040773520
       3143.5377     0.053101942
       3144.3412     0.086627621
       3145.1447     0.069931440
       3145.9482     0.091302506
       3146.7517     0.072658268
       3147.5552     0.055191260
       3148.3587     0.060550750
       3149.1622     0.057718228
       3149.9657     0.053318504
       3150.7692     0.051193250
       3151.5727     0.046501822
       3152.3762     0.045413290
       3153.1797     0.052256760
       3153.9832     0.068476901
       3154.7867     0.043257269
       3155.5902     0.053609413
       3156.3937     0.081473749
       3157.1972     0.054584915
       3158.0007     0.066356127
       3158.8042     0.058154240
       3159.6077     0.080310069
       3160.4112     0.046007098
       3161.2147     0.044851423
       3162.0182     0.048080716
       3162.8217     0.084588087
       3163.6252     0.070831197
       3164.4287     0.055764511
       3165.2322     0.077056030
       3166.0357     0.039393637
       3166.8392     0.065794571
       3167.6427     0.041443784
       3168.4462     0.065277349
       3169.2497     0.041806088
       3170.0532     0.050165658
       3170.8568    0.0095547866
       3171.6603     0.034892144
       3172.4638     0.055569267
       3173.2673     0.064789968
       3174.0708     0.070607792
       3174.8743     0.071911157
       3175.6778     0.082630676
       3176.4813     0.060082887
       3177.2848     0.042107772
       3178.0883     0.096760695
       3178.8918     0.079323851
       3179.6953     0.055943188
       3180.4988     0.064196535
       3181.3023     0.091926454
       3182.1058     0.070202167
       3182.9093     0.028759940
       3183.7128     0.061788141
       3184.5163     0.053668754
       3185.3198     0.069461208
       3186.1233     0.060986484
       3186.9268     0.070615290
       3187.7303     0.067153663
       3188.5338     0.059382425
       3189.3373     0.045569305
       3190.1408     0.066585513
       3190.9443     0.066462888
       3191.7478     0.064193501
       3192.5513     0.057174326
       3193.3548     0.071770543
       3194.1583     0.074099490
       3194.9618     0.085321461
       3195.7653     0.077444529
       3196.5688     0.057855068
       3197.3723     0.092588616
       3198.1758     0.060479969
       3198.9793     0.070945995
       3199.7828     0.073327808
       3200.5863     0.049906968
       3201.3898     0.056676329
       3202.1933     0.064273313
       3202.9968     0.066253684
       3203.8003     0.079312550
       3204.6038     0.072761327
       3205.4073     0.067141040
       3206.2108     0.052759603
       3207.0143     0.064723135
       3207.8178     0.065584572
       3208.6213     0.091317039
       3209.4248     0.091518411
       3210.2283     0.078897335
       3211.0318     0.091039807
       3211.8353     0.072701771
       3212.6388     0.077772944
       3213.4423     0.074902058
       3214.2458     0.070344351
       3215.0493     0.084559149
       3215.8528     0.072709144
       3216.6563     0.040176796
       3217.4598     0.056790292
       3218.2633     0.031082749
       3219.0668     0.037683719
       3219.8703     0.079157293
       3220.6738     0.070263764
       3221.4773     0.071393284
       3222.2808     0.078903818
       3223.0843     0.042474068
       3223.8878     0.059051449
       3224.6913     0.059589671
       3225.4948     0.063262953
       3226.2983     0.075735498
       3227.1018     0.093726469
       3227.9053     0.069415827
       3228.7088     0.073396569
       3229.5123     0.043940781
       3230.3158     0.066530027
       3231.1194     0.067149255
       3231.9229     0.064182589
       3232.7264     0.090817840
       3233.5299     0.068468592
       3234.3334     0.086080418
       3235.1369     0.081718735
       3235.9404     0.066605600
       3236.7439     0.082522114
       3237.5474     0.070088198
       3238.3509     0.074019212
       3239.1544     0.048130080
       3239.9579     0.045008975
       3240.7614     0.053849009
       3241.5649     0.057092816
       3242.3684     0.048024353
       3243.1719     0.052678334
       3243.9754     0.052886612
       3244.7789     0.051203409
       3245.5824     0.063297378
       3246.3859     0.097027305
       3247.1894     0.067259431
       3247.9929     0.068813396
       3248.7964     0.072379475
       3249.5999     0.075555460
       3250.4034     0.081371112
       3251.2069     0.089245875
       3252.0104     0.089709996
       3252.8139     0.089845579
       3253.6174     0.084394641
       3254.4209      0.10284854
       3255.2244     0.066833325
       3256.0279     0.081280875
       3256.8314     0.058126867
       3257.6349     0.063066336
       3258.4384     0.071112120
       3259.2419     0.083188203
       3260.0454     0.059133870
       3260.8489     0.060109732
       3261.6524     0.067813300
       3262.4559     0.076235524
       3263.2594     0.080695435
       3264.0629     0.079700707
       3264.8664     0.074816069
       3265.6699     0.092024138
       3266.4734     0.087364302
       3267.2769     0.056593125
       3268.0804     0.070488618
       3268.8839     0.069413365
       3269.6874     0.098140868
       3270.4909     0.097026291
       3271.2944     0.064058343
       3272.0979     0.076210364
       3272.9014     0.057185048
       3273.7049     0.076100562
       3274.5084     0.051317098
       3275.3119     0.071148921
       3276.1154     0.088123230
       3276.9189     0.069276978
       3277.7224     0.076365983
       3278.5259     0.070132333
       3279.3294     0.065380911
       3280.1329     0.071610355
       3280.9364     0.074545205
       3281.7399     0.072122710
       3282.5434     0.070507770
       3283.3469      0.10075931
       3284.1504     0.095353967
       3284.9539     0.083594226
       3285.7574     0.094370913
       3286.5609     0.061973108
       3287.3644     0.058039267
       3288.1679     0.063817471
       3288.9714     0.071614963
       3289.7749     0.047605763
       3290.5784     0.068937039
       3291.3820     0.083132230
       3292.1855     0.057837409
       3292.9890     0.059634651
       3293.7925     0.040922234
       3294.5960     0.070357974
       3295.3995      0.10292564
       3296.2030     0.081166515
       3297.0065     0.054505925
       3297.8100     0.085632819
       3298.6135     0.060085655
       3299.4170     0.071066666
       3300.2205     0.094357673
       3301.0240      0.10647895
       3301.8275      0.11642549
       3302.6310      0.11255071
       3303.4345     0.098858877
       3304.2380     0.085265081
       3305.0415     0.093832549
       3305.8450     0.070196599
       3306.6485      0.10927210
       3307.4520     0.086992513
       3308.2555     0.086721982
       3309.0590     0.064125246
       3309.8625     0.072856383
       3310.6660     0.074982430
       3311.4695     0.075593764
       3312.2730     0.070015764
       3313.0765     0.062354533
       3313.8800     0.073469716
       3314.6835      0.13084015
       3315.4870     0.087093418
       3316.2905     0.074653178
       3317.0940     0.057401689
       3317.8975     0.042818968
       3318.7010     0.071648717
       3319.5045     0.073538583
       3320.3080     0.059341948
       3321.1115     0.058959524
       3321.9150     0.073981152
       3322.7185     0.098941622
       3323.5220     0.088449897
       3324.3255     0.083763791
       3325.1290     0.062337552
       3325.9325     0.070438007
       3326.7360     0.077820513
       3327.5395     0.081406485
       3328.3430     0.075264620
       3329.1465     0.047036221
       3329.9500     0.045002648
       3330.7535     0.079193198
       3331.5570     0.075212346
       3332.3605     0.090404190
       3333.1640      0.12469864
       3333.9675     0.094564931
       3334.7710     0.099409432
       3335.5745     0.049991667
       3336.3780     0.085592021
       3337.1815     0.058914311
       3337.9850     0.041755126
       3338.7885     0.076509106
       3339.5920     0.069562769
       3340.3955     0.054792987
       3341.1990     0.056946064
       3342.0025     0.083320046
       3342.8060     0.040084690
       3343.6095     0.051025532
       3344.4130     0.055021639
       3345.2165     0.079924802
       3346.0200     0.068074233
       3346.8235     0.089003509
       3347.6270     0.079729438
       3348.4305     0.079674539
       3349.2340     0.084875220
       3350.0375     0.095185318
       3350.8410     0.075436341
       3351.6446     0.075994044
       3352.4481     0.064894885
       3353.2516     0.092895594
       3354.0551     0.053937207
       3354.8586     0.037844294
       3355.6621     0.058203947
       3356.4656     0.082465685
       3357.2691     0.078173524
       3358.0726     0.098665719
       3358.8761     0.051151430
       3359.6796     0.074431090
       3360.4831     0.080704332
       3361.2866     0.097734166
       3362.0901      0.10157000
       3362.8936     0.071594091
       3363.6971      0.11091160
       3364.5006     0.067418763
       3365.3041     0.096575917
       3366.1076     0.090763144
       3366.9111     0.074976792
       3367.7146     0.050867187
       3368.5181     0.055056552
       3369.3216     0.067577804
       3370.1251     0.093273107
       3370.9286     0.074701977
       3371.7321     0.094890855
       3372.5356     0.070727147
       3373.3391     0.066616096
       3374.1426     0.090364564
       3374.9461     0.060137788
       3375.7496     0.055626813
       3376.5531     0.071498753
       3377.3566     0.069477445
       3378.1601     0.073358332
       3378.9636     0.063170304
       3379.7671     0.064590481
       3380.5706     0.098721134
       3381.3741     0.056597160
       3382.1776     0.027446536
       3382.9811     0.065140203
       3383.7846     0.081452047
       3384.5881     0.056845134
       3385.3916     0.095357359
       3386.1951     0.078290668
       3386.9986     0.079011107
       3387.8021     0.049844819
       3388.6056     0.073388026
       3389.4091     0.077856947
       3390.2126     0.076469851
       3391.0161     0.087009840
       3391.8196     0.091417524
       3392.6231     0.052916494
       3393.4266     0.069276935
       3394.2301     0.070010797
       3395.0336     0.086621060
       3395.8371      0.10025565
       3396.6406     0.065917473
       3397.4441     0.057904428
       3398.2476     0.072847169
       3399.0511     0.070028539
       3399.8546     0.080889075
       3400.6581     0.046762378
       3401.4616     0.067755835
       3402.2651     0.086791131
       3403.0686     0.090161196
       3403.8721      0.10480087
       3404.6756     0.090512102
       3405.4791     0.088821362
       3406.2826     0.072907411
       3407.0861     0.097238450
       3407.8896     0.079486348
       3408.6931     0.066210967
       3409.4966     0.089587523
       3410.3001     0.088886320
       3411.1036     0.062984406
       3411.9072     0.072448579
       3412.7107     0.098788584
       3413.5142     0.076720298
       3414.3177     0.095732122
       3415.1212     0.097952345
       3415.9247     0.053878279
       3416.7282     0.073547908
       3417.5317     0.070390178
       3418.3352     0.083599038
       3419.1387     0.069526874
       3419.9422     0.056210139
       3420.7457     0.078135670
       3421.5492     0.073073929
       3422.3527     0.058127328
       3423.1562      0.10229821
       3423.9597     0.097090373
       3424.7632     0.080921956
       3425.5667      0.10185945
       3426.3702      0.10941052
       3427.1737     0.057008103
       3427.9772     0.069487563
       3428.7807     0.082166026
       3429.5842      0.11059537
       3430.3877      0.11000564
       3431.1912     0.079133023
       3431.9947     0.079304375
       3432.7982     0.074177701
       3433.6017      0.11396459
       3434.4052      0.10930636
       3435.2087     0.085473959
       3436.0122      0.10190297
       3436.8157      0.11253919
       3437.6192     0.089176531
       3438.4227     0.067835160
       3439.2262      0.11485638
       3440.0297     0.076695863
       3440.8332     0.087655103
       3441.6367     0.078051527
       3442.4402     0.089067112
       3443.2437     0.085354890
       3444.0472      0.10714050
       3444.8507     0.067883983
       3445.6542     0.071363509
       3446.4577      0.10355869
       3447.2612     0.098642459
       3448.0647     0.098543651
       3448.8682     0.080552929
       3449.6717     0.090894301
       3450.4752     0.088088962
       3451.2787     0.087959581
       3452.0822     0.088210172
       3452.8857     0.083247712
       3453.6892     0.092274488
       3454.4927      0.11169843
       3455.2962      0.10162346
       3456.0997     0.072710596
       3456.9032     0.070988493
       3457.7067     0.093947884
       3458.5102     0.059483115
       3459.3137     0.080829973
       3460.1172     0.091758682
       3460.9207     0.086847193
       3461.7242     0.096197370
       3462.5277     0.087036290
       3463.3312     0.048926770
       3464.1347     0.076689772
       3464.9382     0.064442395
       3465.7417     0.061132427
       3466.5452      0.10077281
       3467.3487      0.10447032
       3468.1522      0.11021499
       3468.9557     0.057736322
       3469.7592     0.085436997
       3470.5627     0.078978061
       3471.3663     0.079745464
       3472.1698     0.065500254
       3472.9733     0.071715198
       3473.7768     0.084860087
       3474.5803     0.049150666
       3475.3838     0.070883663
       3476.1873     0.092201816
       3476.9908     0.082389659
       3477.7943     0.069669262
       3478.5978     0.076321495
       3479.4013     0.087495997
       3480.2048     0.092008327
       3481.0083     0.061509044
       3481.8118     0.077891185
       3482.6153     0.085448218
       3483.4188     0.083189426
       3484.2223     0.082520722
       3485.0258     0.061934366
       3485.8293     0.090891835
       3486.6328     0.097182244
       3487.4363     0.099064428
       3488.2398      0.10792539
       3489.0433     0.098312801
       3489.8468     0.096770288
       3490.6503     0.068029073
       3491.4538     0.075599834
       3492.2573     0.078748589
       3493.0608      0.10823262
       3493.8643     0.097059769
       3494.6678     0.058231384
       3495.4713     0.073364286
       3496.2748     0.062036360
       3497.0783     0.077173018
       3497.8818     0.070679852
       3498.6853     0.093120823
       3499.4888     0.081633070
       3500.2923     0.075264629
       3501.0958     0.087801513
       3501.8993     0.064503967
       3502.7028      0.11038922
       3503.5063     0.092369770
       3504.3098     0.078703176
       3505.1133     0.084324130
       3505.9168      0.10691345
       3506.7203     0.088718813
       3507.5238     0.087437789
       3508.3273     0.071241533
       3509.1308     0.087459660
       3509.9343     0.091954486
       3510.7378      0.10108477
       3511.5413      0.10608950
       3512.3448     0.079200190
       3513.1483     0.099211859
       3513.9518     0.097693827
       3514.7553     0.079321319
       3515.5588     0.086600026
       3516.3623      0.10504236
       3517.1658     0.090708567
       3517.9693     0.089553480
       3518.7728      0.10451371
       3519.5763     0.094521344
       3520.3798     0.096115671
       3521.1833      0.10316541
       3521.9868     0.078160597
       3522.7903     0.086836883
       3523.5938      0.11017020
       3524.3973     0.098202303
       3525.2008     0.093847180
       3526.0043     0.098325418
       3526.8078     0.095738024
       3527.6113      0.10741023
       3528.4148      0.10860466
       3529.2183     0.078463738
       3530.0218     0.058088803
       3530.8253      0.10486059
       3531.6289     0.077597969
       3532.4324      0.11384062
       3533.2359     0.083848315
       3534.0394     0.063700034
       3534.8429      0.13079708
       3535.6464      0.10592761
       3536.4499      0.10992282
       3537.2534      0.10775218
       3538.0569      0.11444475
       3538.8604     0.093609953
       3539.6639      0.10345757
       3540.4674      0.11547344
       3541.2709      0.10096361
       3542.0744      0.11131738
       3542.8779     0.099805467
       3543.6814     0.088589523
       3544.4849      0.10967709
       3545.2884     0.085250983
       3546.0919     0.078492362
       3546.8954     0.057136465
       3547.6989     0.092595134
       3548.5024     0.094775864
       3549.3059     0.089362672
       3550.1094     0.056724190
       3550.9129     0.071364875
       3551.7164      0.10504278
       3552.5199     0.090991452
       3553.3234     0.092093031
       3554.1269     0.091459807
       3554.9304     0.087308245
       3555.7339     0.081142222
       3556.5374     0.055578707
       3557.3409     0.090333411
       3558.1444      0.10107593
       3558.9479     0.098678739
       3559.7514     0.091612070
       3560.5549      0.11843282
       3561.3584     0.093144472
       3562.1619     0.071141690
       3562.9654      0.10068363
       3563.7689     0.089360116
       3564.5724     0.062080695
       3565.3759     0.085551325
       3566.1794     0.085374072
       3566.9829     0.083863711
       3567.7864     0.086559194
       3568.5899     0.068564452
       3569.3934     0.079814450
       3570.1969      0.11475347
       3571.0004      0.12376853
       3571.8039     0.088705008
       3572.6074     0.080554162
       3573.4109     0.057239871
       3574.2144     0.040484442
       3575.0179     0.080216851
       3575.8214     0.070751283
       3576.6249     0.085095425
       3577.4284     0.089906024
       3578.2319     0.096233340
       3579.0354     0.084931863
       3579.8389     0.071998281
       3580.6424     0.047237160
       3581.4459     0.067671617
       3582.2494     0.039295382
       3583.0529      0.10640906
       3583.8564     0.087155490
       3584.6599      0.12648091
       3585.4634      0.10847417
       3586.2669     0.087179195
       3587.0704     0.093031821
       3587.8739     0.099468451
       3588.6774      0.10934811
       3589.4809     0.056270623
       3590.2844     0.067680008
       3591.0879     0.071489357
       3591.8915      0.10533779
       3592.6950     0.085524595
       3593.4985     0.084824126
       3594.3020     0.083947456
       3595.1055     0.062742127
       3595.9090      0.10064261
       3596.7125      0.11004268
       3597.5160      0.11614911
       3598.3195      0.12451159
       3599.1230      0.10398970
       3599.9265     0.085370338
       3600.7300      0.11712225
       3601.5335     0.098254886
       3602.3370     0.094760754
       3603.1405     0.069791702
       3603.9440     0.067226201
       3604.7475     0.098525218
       3605.5510     0.081431796
       3606.3545     0.093868649
       3607.1580     0.093820474
       3607.9615     0.095914864
       3608.7650     0.070743995
       3609.5685     0.098645864
       3610.3720     0.052021600
       3611.1755     0.062537614
       3611.9790     0.062783277
       3612.7825     0.088209828
       3613.5860     0.080077621
       3614.3895     0.088564717
       3615.1930      0.10651304
       3615.9965      0.11505646
       3616.8000      0.12778086
       3617.6035      0.11634109
       3618.4070     0.087867572
       3619.2105     0.051709573
       3620.0140     0.067797347
       3620.8175     0.089972136
       3621.6210      0.10260508
       3622.4245     0.087465346
       3623.2280     0.086944014
       3624.0315     0.078035697
       3624.8350      0.10479270
       3625.6385     0.077402140
       3626.4420      0.10524528
       3627.2455     0.085717178
       3628.0490     0.077976390
       3628.8525     0.087771885
       3629.6560     0.075920850
       3630.4595      0.10316259
       3631.2630      0.12308986
       3632.0665     0.087092080
       3632.8700     0.078443354
       3633.6735     0.089365482
       3634.4770     0.076210672
       3635.2805     0.093369768
       3636.0840     0.076697953
       3636.8875     0.095257917
       3637.6910      0.11134518
       3638.4945      0.10918535
       3639.2980     0.083610068
       3640.1015     0.078844868
       3640.9050     0.064794277
       3641.7085     0.082656064
       3642.5120      0.11580268
       3643.3155      0.10260088
       3644.1190      0.11645576
       3644.9225      0.11492287
       3645.7260      0.11694339
       3646.5295     0.086890721
       3647.3330     0.066699553
       3648.1365     0.084009123
       3648.9400      0.10191667
       3649.7435      0.11798994
       3650.5470      0.10274990
       3651.3505      0.10110059
       3652.1541      0.12169787
       3652.9576     0.099570535
       3653.7611     0.084205558
       3654.5646     0.092880107
       3655.3681      0.11369038
       3656.1716     0.082622010
       3656.9751      0.13185183
       3657.7786      0.15503575
       3658.5821      0.10472858
       3659.3856     0.077887126
       3660.1891     0.063689332
       3660.9926     0.078323789
       3661.7961      0.10711605
       3662.5996      0.11775665
       3663.4031     0.084082796
       3664.2066     0.096885517
       3665.0101     0.095770029
       3665.8136      0.10502847
       3666.6171      0.12760079
       3667.4206     0.077649233
       3668.2241      0.12593351
       3669.0276      0.11466418
       3669.8311     0.095226125
       3670.6346      0.10670659
       3671.4381      0.10612081
       3672.2416      0.10056622
       3673.0451      0.10380990
       3673.8486     0.063921908
       3674.6521     0.060350575
       3675.4556      0.10143686
       3676.2591      0.11321719
       3677.0626     0.091752089
       3677.8661      0.10254936
       3678.6696      0.11675469
       3679.4731      0.11768565
       3680.2766     0.097472173
       3681.0801     0.077199933
       3681.8836     0.088985391
       3682.6871      0.10197529
       3683.4906     0.068920481
       3684.2941      0.10099366
       3685.0976      0.10910883
       3685.9011      0.10035321
       3686.7046     0.094715823
       3687.5081     0.086811870
       3688.3116     0.093864078
       3689.1151     0.086022993
       3689.9186      0.10170825
       3690.7221      0.10185158
       3691.5256      0.10758809
       3692.3291     0.088978442
       3693.1326      0.10552803
       3693.9361      0.13016048
       3694.7396      0.12403620
       3695.5431      0.11228943
       3696.3466      0.12678810
       3697.1501      0.12596353
       3697.9536      0.10519026
       3698.7571     0.092450551
       3699.5606      0.11310856
       3700.3641      0.11544177
       3701.1676     0.072014326
       3701.9711     0.087087203
       3702.7746      0.10272466
       3703.5781      0.12988382
       3704.3816      0.12640715
       3705.1851      0.10997333
       3705.9886      0.11312621
       3706.7921      0.13150523
       3707.5956      0.10528659
       3708.3991      0.10233084
       3709.2026      0.10961126
       3710.0061      0.10270406
       3710.8096      0.12168381
       3711.6131      0.11925208
       3712.4167      0.12707194
       3713.2202     0.094906580
       3714.0237      0.11884798
       3714.8272      0.13239474
       3715.6307      0.10772320
       3716.4342     0.087429519
       3717.2377      0.10958282
       3718.0412     0.092017011
       3718.8447     0.081472214
       3719.6482      0.10993206
       3720.4517      0.13739565
       3721.2552      0.11829357
       3722.0587      0.15450107
       3722.8622      0.18358357
       3723.6657      0.22851625
       3724.4692      0.27234976
       3725.2727      0.34083778
       3726.0762      0.35185699
       3726.8797      0.32835778
       3727.6832      0.28692592
       3728.4867      0.25079929
       3729.2902      0.22114482
       3730.0937      0.14593571
       3730.8972      0.10657200
       3731.7007     0.083899855
       3732.5042     0.085513718
       3733.3077     0.074040553
       3734.1112     0.094719483
       3734.9147     0.087337411
       3735.7182      0.10465284
       3736.5217     0.083376633
       3737.3252      0.11735613
       3738.1287      0.11787342
       3738.9322      0.15290391
       3739.7357      0.13999171
       3740.5392      0.12590101
       3741.3427      0.11609379
       3742.1462      0.10643298
       3742.9497      0.10569738
       3743.7532      0.12413892
       3744.5567      0.10167060
       3745.3602     0.083963700
       3746.1637     0.080856965
       3746.9672     0.082167501
       3747.7707     0.083998764
       3748.5742      0.14724828
       3749.3777      0.21201458
       3750.1812      0.23438860
       3750.9847      0.17905770
       3751.7882      0.14936358
       3752.5917      0.11552391
       3753.3952      0.11471490
       3754.1987      0.13822675
       3755.0022     0.095446173
       3755.8057      0.11897875
       3756.6092      0.11584822
       3757.4127      0.12224014
       3758.2162      0.13127595
       3759.0197      0.11391929
       3759.8232      0.12946455
       3760.6267      0.11999035
       3761.4302      0.13088056
       3762.2337      0.12004924
       3763.0372      0.12977587
       3763.8407      0.11052471
       3764.6442      0.12629303
       3765.4477      0.13252895
       3766.2512      0.10189291
       3767.0547     0.084846149
       3767.8582     0.073604960
       3768.6617      0.12440903
       3769.4652      0.11714721
       3770.2687     0.092624325
       3771.0722     0.097431633
       3771.8757      0.10617852
       3772.6793      0.10223820
       3773.4828      0.12740978
       3774.2863      0.12595613
       3775.0898      0.11668669
       3775.8933      0.15826436
       3776.6968      0.14586266
       3777.5003      0.13711691
       3778.3038      0.16155128
       3779.1073      0.16526057
       3779.9108      0.18823450
       3780.7143      0.14174952
       3781.5178      0.14539954
       3782.3213      0.16103229
       3783.1248      0.20636265
       3783.9283      0.17924216
       3784.7318      0.15356708
       3785.5353      0.14357962
       3786.3388      0.10645542
       3787.1423      0.10632594
       3787.9458      0.11680293
       3788.7493      0.11471240
       3789.5528      0.13745259
       3790.3563     0.087974106
       3791.1598      0.10511943
       3791.9633     0.094724629
       3792.7668     0.097290138
       3793.5703      0.12739810
       3794.3738      0.11137332
       3795.1773      0.11953059
       3795.9808      0.12623152
       3796.7843      0.12126801
       3797.5878      0.12722784
       3798.3913      0.11665164
       3799.1948      0.10329306
       3799.9983      0.13631615
       3800.8018      0.13427261
       3801.6053      0.14693589
       3802.4088      0.13311435
       3803.2123      0.14517541
       3804.0158      0.16754605
       3804.8193      0.15477275
       3805.6228      0.13029327
       3806.4263      0.17312704
       3807.2298      0.15422329
       3808.0333      0.14070630
       3808.8368      0.16816361
       3809.6403      0.13272043
       3810.4438      0.13306184
       3811.2473      0.14151702
       3812.0508      0.14161254
       3812.8543      0.16419630
       3813.6578      0.17423441
       3814.4613      0.15940421
       3815.2648      0.13919589
       3816.0683      0.14694716
       3816.8718      0.14859973
       3817.6753      0.12928990
       3818.4788      0.13933075
       3819.2823      0.17222023
       3820.0858      0.11041781
       3820.8893      0.12124593
       3821.6928      0.13902895
       3822.4963      0.13165994
       3823.2998      0.11758032
       3824.1033      0.14482132
       3824.9068      0.10283037
       3825.7103     0.064537149
       3826.5138     0.090296302
       3827.3173      0.11994475
       3828.1208     0.084727748
       3828.9243      0.11499597
       3829.7278     0.072224715
       3830.5313      0.11143474
       3831.3348      0.10399609
       3832.1384     0.050193423
       3832.9419     0.099492596
       3833.7454      0.10535017
       3834.5489     0.076959268
       3835.3524      0.10627545
       3836.1559      0.12633268
       3836.9594      0.11297018
       3837.7629      0.12418659
       3838.5664      0.15655206
       3839.3699      0.14622964
       3840.1734      0.13647825
       3840.9769      0.15892455
       3841.7804      0.17019214
       3842.5839      0.16447822
       3843.3874      0.14733162
       3844.1909      0.15066167
       3844.9944      0.15785694
       3845.7979      0.16751758
       3846.6014      0.17430068
       3847.4049      0.15101390
       3848.2084      0.16361923
       3849.0119      0.15434279
       3849.8154      0.16562368
       3850.6189      0.13567973
       3851.4224      0.13845383
       3852.2259      0.13262496
       3853.0294      0.12675216
       3853.8329      0.14478328
       3854.6364      0.15379919
       3855.4399      0.14458940
       3856.2434      0.15057233
       3857.0469      0.16237157
       3857.8504      0.16794174
       3858.6539      0.17033884
       3859.4574      0.13774835
       3860.2609      0.17460082
       3861.0644      0.17973174
       3861.8679      0.17951594
       3862.6714      0.16716194
       3863.4749      0.14782936
       3864.2784      0.16014541
       3865.0819      0.16724902
       3865.8854      0.13677362
       3866.6889      0.14626754
       3867.4924      0.13827904
       3868.2959      0.14060588
       3869.0994      0.15815939
       3869.9029      0.16841190
       3870.7064      0.16743394
       3871.5099      0.16356970
       3872.3134      0.17907234
       3873.1169      0.12453999
       3873.9204     0.098109968
       3874.7239      0.16504210
       3875.5274      0.13172247
       3876.3309      0.14906062
       3877.1344      0.14942056
       3877.9379      0.14147553
       3878.7414      0.11928046
       3879.5449      0.10369355
       3880.3484     0.098099061
       3881.1519     0.092454346
       3881.9554      0.11350432
       3882.7589      0.12982290
       3883.5624      0.12473731
       3884.3659     0.096748148
       3885.1694      0.10680520
       3885.9729      0.10495548
       3886.7764      0.13840057
       3887.5799      0.14118350
       3888.3834      0.12763013
       3889.1869      0.15656383
       3889.9904      0.13932971
       3890.7939      0.13132586
       3891.5974      0.17229088
       3892.4010      0.15634980
       3893.2045      0.15161958
       3894.0080      0.14409305
       3894.8115      0.14858312
       3895.6150      0.13996380
       3896.4185      0.16724115
       3897.2220      0.13704302
       3898.0255      0.16214860
       3898.8290      0.13051010
       3899.6325      0.14529426
       3900.4360      0.16129009
       3901.2395      0.14761936
       3902.0430      0.15340087
       3902.8465      0.15223839
       3903.6500      0.17066668
       3904.4535      0.16103938
       3905.2570      0.15502933
       3906.0605      0.19151568
       3906.8640      0.15304473
       3907.6675      0.17653529
       3908.4710      0.15537031
       3909.2745      0.18999839
       3910.0780      0.15970591
       3910.8815      0.13461775
       3911.6850      0.17247761
       3912.4885      0.21685669
       3913.2920      0.19091954
       3914.0955      0.15397424
       3914.8990      0.12847714
       3915.7025      0.13646309
       3916.5060      0.15364974
       3917.3095      0.15752578
       3918.1130      0.15453783
       3918.9165      0.18335007
       3919.7200      0.17138237
       3920.5235      0.13970609
       3921.3270      0.13632221
       3922.1305      0.14878844
       3922.9340      0.17076574
       3923.7375      0.10830536
       3924.5410     0.076635217
       3925.3445     0.084429423
       3926.1480     0.090824792
       3926.9515     0.097035162
       3927.7550     0.072335762
       3928.5585      0.10096667
       3929.3620      0.10493913
       3930.1655      0.12882548
       3930.9690      0.11823695
       3931.7725      0.11295464
       3932.5760      0.12170771
       3933.3795      0.13743160
       3934.1830      0.14677662
       3934.9865      0.15395819
       3935.7900      0.14006441
       3936.5935      0.17441404
       3937.3970      0.14784920
       3938.2005      0.11704343
       3939.0040      0.15771014
       3939.8075      0.14179035
       3940.6110      0.14243305
       3941.4145      0.17084005
       3942.2180      0.18518350
       3943.0215      0.13091092
       3943.8250      0.13593981
       3944.6285      0.15281756
       3945.4320      0.14450978
       3946.2355      0.13797017
       3947.0390      0.16658905
       3947.8425      0.18046883
       3948.6460      0.17217353
       3949.4495      0.15962862
       3950.2530      0.14765267
       3951.0565      0.11477958
       3951.8600      0.14319116
       3952.6636      0.12047516
       3953.4671      0.13355671
       3954.2706      0.16417945
       3955.0741      0.12203336
       3955.8776     0.086062725
       3956.6811     0.098452522
       3957.4846     0.089864445
       3958.2881      0.10126277
       3959.0916      0.10332694
       3959.8951     0.065185194
       3960.6986     0.094977745
       3961.5021      0.11303475
       3962.3056      0.10033003
       3963.1091      0.13673896
       3963.9126      0.13267944
       3964.7161     0.085906431
       3965.5196     0.099023522
       3966.3231     0.076959103
       3967.1266      0.13633327
       3967.9301      0.10255446
       3968.7336      0.14134898
       3969.5371      0.13517689
       3970.3406      0.15278689
       3971.1441      0.12711878
       3971.9476      0.12611904
       3972.7511      0.14809703
       3973.5546      0.16804604
       3974.3581      0.15038465
       3975.1616      0.13768926
       3975.9651      0.19575165
       3976.7686      0.18350023
       3977.5721      0.15748523
       3978.3756      0.17451008
       3979.1791      0.16970295
       3979.9826      0.19615964
       3980.7861      0.21927598
       3981.5896      0.18863409
       3982.3931      0.15303765
       3983.1966      0.19253121
       3984.0001      0.18569226
       3984.8036      0.16187313
       3985.6071      0.16400515
       3986.4106      0.16062551
       3987.2141      0.16983397
       3988.0176      0.20820946
       3988.8211      0.20711566
       3989.6246      0.14369097
       3990.4281      0.14158185
       3991.2316      0.14754280
       3992.0351      0.17980288
       3992.8386      0.16532191
       3993.6421      0.17538053
       3994.4456      0.18888377
       3995.2491      0.17124557
       3996.0526      0.19163558
       3996.8561      0.16687046
       3997.6596      0.17830052
       3998.4631      0.19174127
       3999.2666      0.21816411
       4000.0701      0.21861610
       4000.8736      0.20496452
       4001.6771      0.18797197
       4002.4806      0.21058887
       4003.2841      0.17982420
       4004.0876      0.19875845
       4004.8911      0.17457251
       4005.6946      0.16263814
       4006.4981      0.17978156
       4007.3016      0.20100810
       4008.1051      0.16960830
       4008.9086      0.19948382
       4009.7121      0.18658220
       4010.5156      0.16447844
       4011.3191      0.16391275
       4012.1226      0.17069669
       4012.9262      0.18918321
       4013.7297      0.20537772
       4014.5332      0.19988143
       4015.3367      0.18198249
       4016.1402      0.21043520
       4016.9437      0.18174811
       4017.7472      0.19323156
       4018.5507      0.23152149
       4019.3542      0.18783015
       4020.1577      0.14139630
       4020.9612      0.14102905
       4021.7647      0.16846158
       4022.5682      0.17336445
       4023.3717      0.16554294
       4024.1752      0.16393874
       4024.9787      0.19306732
       4025.7822      0.22157258
       4026.5857      0.14296082
       4027.3892      0.16754558
       4028.1927      0.20281334
       4028.9962      0.19560751
       4029.7997      0.16886488
       4030.6032      0.20095707
       4031.4067      0.15800936
       4032.2102      0.17759251
       4033.0137      0.20474444
       4033.8172      0.21148956
       4034.6207      0.20290961
       4035.4242      0.17202762
       4036.2277      0.16489579
       4037.0312      0.18320577
       4037.8347      0.16773120
       4038.6382      0.17804035
       4039.4417      0.18478480
       4040.2452      0.17305899
       4041.0487      0.22135236
       4041.8522      0.19820245
       4042.6557      0.18143387
       4043.4592      0.19539960
       4044.2627      0.17583202
       4045.0662      0.16285920
       4045.8697      0.18855580
       4046.6732      0.18162009
       4047.4767      0.20320492
       4048.2802      0.16851670
       4049.0837      0.18903261
       4049.8872      0.18786877
       4050.6907      0.18433345
       4051.4942      0.17729116
       4052.2977      0.16830959
       4053.1012      0.17948490
       4053.9047      0.16226931
       4054.7082      0.15430983
       4055.5117      0.16105599
       4056.3152      0.22074293
       4057.1187      0.22959504
       4057.9222      0.18966227
       4058.7257      0.15447185
       4059.5292      0.21200245
       4060.3327      0.18411603
       4061.1362      0.17344644
       4061.9397      0.20001892
       4062.7432      0.21065244
       4063.5467      0.20157210
       4064.3502      0.17402274
       4065.1537      0.14806047
       4065.9572      0.17051781
       4066.7607      0.18365372
       4067.5642      0.20095144
       4068.3677      0.16091336
       4069.1712      0.19535318
       4069.9747      0.20408459
       4070.7782      0.17160761
       4071.5817      0.15344474
       4072.3852      0.19974224
       4073.1888      0.18297115
       4073.9923      0.18431926
       4074.7958      0.18503778
       4075.5993      0.18462633
       4076.4028      0.16438117
       4077.2063      0.19066425
       4078.0098      0.15673250
       4078.8133      0.16767704
       4079.6168      0.17625128
       4080.4203      0.16809418
       4081.2238      0.18869392
       4082.0273      0.17149253
       4082.8308      0.17662829
       4083.6343      0.12914148
       4084.4378      0.14325836
       4085.2413      0.13171519
       4086.0448      0.14287219
       4086.8483      0.13891939
       4087.6518      0.15679172
       4088.4553      0.15412438
       4089.2588      0.17045913
       4090.0623      0.15006891
       4090.8658      0.12854242
       4091.6693      0.13224404
       4092.4728      0.17617526
       4093.2763      0.13561383
       4094.0798      0.13465608
       4094.8833      0.13704719
       4095.6868      0.17979198
       4096.4903      0.16082599
       4097.2938      0.14496738
       4098.0973      0.14789366
       4098.9008      0.15624801
       4099.7043      0.15936527
       4100.5078      0.17534735
       4101.3113      0.20925251
       4102.1148      0.21066153
       4102.9183      0.18122998
       4103.7218      0.15457481
       4104.5253      0.15533769
       4105.3288      0.18030131
       4106.1323      0.20998419
       4106.9358      0.19142842
       4107.7393      0.17792043
       4108.5428      0.18744670
       4109.3463      0.19259266
       4110.1498      0.17158200
       4110.9533      0.15464038
       4111.7568      0.17863259
       4112.5603      0.17394566
       4113.3638      0.17262510
       4114.1673      0.19767897
       4114.9708      0.17901121
       4115.7743      0.19129948
       4116.5778      0.18217809
       4117.3813      0.18967874
       4118.1848      0.19232434
       4118.9883      0.19614836
       4119.7918      0.16566544
       4120.5953      0.18084342
       4121.3988      0.18929201
       4122.2023      0.19977125
       4123.0058      0.17439046
       4123.8093      0.13912372
       4124.6128      0.12585314
       4125.4163      0.15020872
       4126.2198      0.14958869
       4127.0233      0.18638802
       4127.8268      0.17300254
       4128.6303      0.17678111
       4129.4338      0.14167429
       4130.2373      0.13393704
       4131.0408      0.18581702
       4131.8443      0.19048170
       4132.6478      0.18808489
       4133.4514      0.18884724
       4134.2549      0.16216970
       4135.0584      0.17811902
       4135.8619      0.18254009
       4136.6654      0.17407871
       4137.4689      0.18665578
       4138.2724      0.19734195
       4139.0759      0.23343573
       4139.8794      0.26099266
       4140.6829      0.21982569
       4141.4864      0.15065239
       4142.2899      0.16535843
       4143.0934      0.20741354
       4143.8969      0.13142173
       4144.7004     0.042653867
       4145.5039     0.084026295
       4146.3074      0.12571911
       4147.1109     0.060260109
       4147.9144      0.11087994
       4148.7179      0.14265244
       4149.5214      0.16034496
       4150.3249      0.15803176
       4151.1284      0.16752409
       4151.9319      0.13792709
       4152.7354      0.19065867
       4153.5389      0.18939965
       4154.3424      0.20799665
       4155.1459      0.16087288
       4155.9494      0.17739584
       4156.7529      0.17174522
       4157.5564      0.21993195
       4158.3599      0.18409702
       4159.1634      0.14421389
       4159.9669      0.14950127
       4160.7704      0.11696536
       4300.0784      0.72777047
       4300.9675      0.71670652
       4301.8566      0.65749834
       4302.7456      0.49107317
       4303.6347      0.53345049
       4304.5238      0.43079361
       4305.4129      0.36531086
       4306.3019      0.64554482
       4307.1910      0.69382930
       4308.0801      0.71197456
       4308.9692      0.56259272
       4309.8583      0.53734021
       4310.7473      0.57671326
       4311.6364      0.48198581
       4312.5255      0.54345129
       4313.4146      0.54421811
       4314.3036      0.55320125
       4315.1927      0.59178734
       4316.0818      0.77706830
       4316.9709      0.79727313
       4317.8600      0.59884985
       4318.7490      0.54323700
       4319.6381      0.58279707
       4320.5272      0.47266504
       4321.4163      0.48143004
       4322.3053      0.60516270
       4323.1944      0.54219362
       4324.0835      0.48467438
       4324.9726      0.53109313
       4325.8617      0.54692502
       4326.7507      0.57185595
       4327.6398      0.59604274
       4328.5289      0.53107592
       4329.4180      0.57672314
       4330.3071      0.64159686
       4331.1961      0.60034199
       4332.0852      0.52678176
       4332.9743      0.46643092
       4333.8634      0.48733264
       4334.7524      0.53008082
       4335.6415      0.64299121
       4336.5306      0.75529591
       4337.4197      0.74153123
       4338.3088      0.60530881
       4339.1978      0.69971129
       4340.0869      0.59656903
       4340.9760      0.54272307
       4341.8651      0.60569266
       4342.7541      0.63714094
       4343.6432      0.58711104
       4344.5323      0.61462681
       4345.4214      0.50709437
       4346.3105      0.50843047
       4347.1995      0.65195458
       4348.0886      0.62727053
       4348.9777      0.56778183
       4349.8668      0.76960591
       4350.7558      0.79343374
       4351.6449      0.58244883
       4352.5340      0.53744993
       4353.4231      0.46552308
       4354.3122      0.64120007
       4355.2012      0.59284082
       4356.0903      0.60227595
       4356.9794      0.55108742
       4357.8685      0.50835260
       4358.7575      0.52713134
       4359.6466      0.58896453
       4360.5357      0.52070375
       4361.4248      0.52836789
       4362.3139      0.64893674
       4363.2029      0.69867900
       4364.0920      0.65841035
       4364.9811      0.54787701
       4365.8702      0.52069920
       4366.7593      0.47473522
       4367.6483      0.66350250
       4368.5374      0.65163440
       4369.4265      0.44424453
       4370.3156      0.53224968
       4371.2046      0.43937142
       4372.0937      0.57214340
       4372.9828      0.42641604
       4373.8719      0.34906204
       4374.7610      0.31303461
       4375.6500      0.44667469
       4376.5391      0.60398209
       4377.4282      0.60219172
       4378.3173      0.56520924
       4379.2063      0.58847393
       4380.0954      0.54771206
       4380.9845      0.52087141
       4381.8736      0.52047069
       4382.7627      0.63931262
       4383.6517      0.60910952
       4384.5408      0.51490805
       4385.4299      0.61571117
       4386.3190      0.62120007
       4387.2080      0.50810386
       4388.0971      0.56475732
       4388.9862      0.63549483
       4389.8753      0.57828303
       4390.7644      0.51112564
       4391.6534      0.53722817
       4392.5425      0.63901816
       4393.4316      0.53933244
       4394.3207      0.42793584
       4395.2097      0.36578187
       4396.0988      0.32282647
       4396.9879      0.53433863
       4397.8770      0.58915267
       4398.7661      0.61780581
       4399.6551      0.65662756
       4400.5442      0.62831635
       4401.4333      0.53546421
       4402.3224      0.55426872
       4403.2115      0.63068554
       4404.1005      0.73155056
       4404.9896      0.56114440
       4405.8787      0.59196830
       4406.7678      0.55577269
       4407.6568      0.47712452
       4408.5459      0.44487813
       4409.4350      0.51731923
       4410.3241      0.52251219
       4411.2132      0.56165029
       4412.1022      0.56611036
       4412.9913      0.54395511
       4413.8804      0.46910420
       4414.7695      0.44455064
       4415.6585      0.51741080
       4416.5476      0.62587314
       4417.4367      0.58588051
       4418.3258      0.54189371
       4419.2149      0.53241631
       4420.1039      0.56350137
       4420.9930      0.58529186
       4421.8821      0.63351164
       4422.7712      0.53956324
       4423.6602      0.52340861
       4424.5493      0.59684100
       4425.4384      0.49371058
       4426.3275      0.36950663
       4427.2166      0.41729566
       4428.1056      0.44273106
       4428.9947      0.50844674
       4429.8838      0.58618406
       4430.7729      0.60307276
       4431.6619      0.65738265
       4432.5510      0.57494181
       4433.4401      0.47569762
       4434.3292      0.50227088
       4435.2183      0.52343578
       4436.1073      0.58010843
       4436.9964      0.60809254
       4437.8855      0.60311167
       4438.7746      0.51022187
       4439.6637      0.52759863
       4440.5527      0.50717436
       4441.4418      0.44721579
       4442.3309      0.63347586
       4443.2200      0.59358820
       4444.1090      0.53807237
       4444.9981      0.63738695
       4445.8872      0.59927738
       4446.7763      0.53518579
       4447.6654      0.54032378
       4448.5544      0.64743652
       4449.4435      0.62676937
       4450.3326      0.47549186
       4451.2217      0.52639963
       4452.1107      0.66733984
       4452.9998      0.62518365
       4453.8889      0.51643297
       4454.7780      0.54072232
       4455.6671      0.47178483
       4456.5561      0.48172695
       4457.4452      0.50429065
       4458.3343      0.58100837
       4459.2234      0.49614543
       4460.1124      0.57967737
       4461.0015      0.58092041
       4461.8906      0.57690205
       4462.7797      0.58699887
       4463.6688      0.56040347
       4464.5578      0.49861767
       4465.4469      0.48825863
       4466.3360      0.56954572
       4467.2251      0.50238006
       4468.1141      0.58131903
       4469.0032      0.66513356
       4469.8923      0.55994068
       4470.7814      0.49307214
       4471.6705      0.53193790
       4472.5595      0.54034100
       4473.4486      0.58415535
       4474.3377      0.59966500
       4475.2268      0.50604082
       4476.1159      0.39164795
       4477.0049      0.48870431
       4477.8940      0.56079480
       4478.7831      0.54287998
       4479.6722      0.57556904
       4480.5612      0.54542921
       4481.4503      0.58043272
       4482.3394      0.58481154
       4483.2285      0.56865036
       4484.1176      0.55090921
       4485.0066      0.56087131
       4485.8957      0.57930067
       4486.7848      0.64034654
       4487.6739      0.68295651
       4488.5629      0.58486706
       4489.4520      0.67907111
       4490.3411      0.66581863
       4491.2302      0.71506808
       4492.1193      0.55773320
       4493.0083      0.63395425
       4493.8974      0.56964701
       4494.7865      0.62201490
       4495.6756      0.65707993
       4496.5646      0.61998227
       4497.4537      0.63299200
       4498.3428      0.61826579
       4499.2319      0.57620458
       4500.1210      0.52792998
       4501.0100      0.46749071
       4501.8991      0.63671887
       4502.7882      0.64328551
       4503.6773      0.64584377
       4504.5663      0.47913136
       4505.4554      0.47561639
       4506.3445      0.58746892
       4507.2336      0.58577585
       4508.1227      0.69463733
       4509.0117      0.62811620
       4509.9008      0.63467607
       4510.7899      0.47687802
       4511.6790      0.53949637
       4512.5681      0.49468921
       4513.4571      0.54006071
       4514.3462      0.63989240
       4515.2353      0.61867700
       4516.1244      0.61179247
       4517.0134      0.50918031
       4517.9025      0.47697294
       4518.7916      0.49038703
       4519.6807      0.47007766
       4520.5698      0.53858648
       4521.4588      0.56638653
       4522.3479      0.54710797
       4523.2370      0.47952397
       4524.1261      0.50199373
       4525.0151      0.53734822
       4525.9042      0.53383440
       4526.7933      0.61225942
       4527.6824      0.62182923
       4528.5715      0.62455062
       4529.4605      0.56224292
       4530.3496      0.53567378
       4531.2387      0.59363124
       4532.1278      0.54221229
       4533.0168      0.50801209
       4533.9059      0.52881873
       4534.7950      0.49873011
       4535.6841      0.47176478
       4536.5732      0.66085100
       4537.4622      0.55377275
       4538.3513      0.51715141
       4539.2404      0.55326607
       4540.1295      0.53367274
       4541.0185      0.55562974
       4541.9076      0.55607557
       4542.7967      0.57750544
       4543.6858      0.47474399
       4544.5749      0.55976493
       4545.4639      0.63823037
       4546.3530      0.59678414
       4547.2421      0.63774066
       4548.1312      0.65630302
       4549.0203      0.60466299
       4549.9093      0.52020516
       4550.7984      0.48169709
       4551.6875      0.32085353
       4552.5766      0.47094304
       4553.4656      0.56013473
       4554.3547      0.64110312
       4555.2438      0.59139134
       4556.1329      0.59831282
       4557.0220      0.59966331
       4557.9110      0.63113747
       4558.8001      0.68233454
       4559.6892      0.67412169
       4560.5783      0.71572236
       4561.4673      0.61326299
       4562.3564      0.56109782
       4563.2455      0.60985013
       4564.1346      0.60598397
       4565.0237      0.57644433
       4565.9127      0.64354793
       4566.8018      0.60957534
       4567.6909      0.47603592
       4568.5800      0.57433096
       4569.4690      0.66751158
       4570.3581      0.61244632
       4571.2472      0.69731568
       4572.1363      0.71961400
       4573.0254      0.70028682
       4573.9144      0.70106203
       4574.8035      0.52859009
       4575.6926      0.61112407
       4576.5817      0.58751012
       4577.4707      0.58606941
       4578.3598      0.66467644
       4579.2489      0.53694988
       4580.1380      0.50638476
       4581.0271      0.59219635
       4581.9161      0.58678458
       4582.8052      0.67512336
       4583.6943      0.64777220
       4584.5834      0.67645958
       4585.4725      0.61359144
       4586.3615      0.56588595
       4587.2506      0.67732903
       4588.1397      0.71543103
       4589.0288      0.72424663
       4589.9178      0.63639623
       4590.8069      0.60739081
       4591.6960      0.64453766
       4592.5851      0.62384525
       4593.4742      0.54055532
       4594.3632      0.55869932
       4595.2523      0.58345062
       4596.1414      0.62703566
       4597.0305      0.68514401
       4597.9195      0.59994091
       4598.8086      0.55962305
       4599.6977      0.60025335
       4600.5868      0.60838786
       4601.4759      0.65662477
       4602.3649      0.60965407
       4603.2540      0.67543538
       4604.1431      0.57355588
       4605.0322      0.58133354
       4605.9212      0.68970109
       4606.8103      0.64288904
       4607.6994      0.65592990
       4608.5885      0.59198954
       4609.4776      0.56460693
       4610.3666      0.69179715
       4611.2557      0.72163644
       4612.1448      0.76220991
       4613.0339      0.58811528
       4613.9229      0.58151705
       4614.8120      0.70951153
       4615.7011      0.65703842
       4616.5902      0.72290759
       4617.4793      0.78598251
       4618.3683      0.79985699
       4619.2574      0.63441736
       4620.1465      0.71083032
       4621.0356      0.64847451
       4621.9247      0.63313882
       4622.8137      0.58288454
       4623.7028      0.55619101
       4624.5919      0.58712464
       4625.4810      0.76051713
       4626.3700      0.64236337
       4627.2591      0.67666795
       4628.1482      0.69234339
       4629.0373      0.64775009
       4629.9264      0.71265542
       4630.8154      0.81642924
       4631.7045      0.92861843
       4632.5936      0.88513587
       4633.4827      0.77485070
       4634.3717      0.80377012
       4635.2608      0.66186101
       4636.1499      0.74688946
       4637.0390      0.74909663
       4637.9281      0.69952018
       4638.8171      0.76336743
       4639.7062      0.71454759
       4640.5953      0.68572902
       4641.4844      0.54077245
       4642.3734      0.58316647
       4643.2625      0.68367740
       4644.1516      0.61173578
       4645.0407      0.63589155
       4645.9298      0.61390920
       4646.8188      0.67934032
       4647.7079      0.70345026
       4648.5970      0.68727087
       4649.4861      0.59169799
       4650.3751      0.67283160
       4651.2642      0.75144689
       4652.1533      0.73962478
       4653.0424      0.61436476
       4653.9315      0.65037123
       4654.8205      0.68302409
       4655.7096      0.54176876
       4656.5987      0.59362776
       4657.4878      0.62542075
       4658.3769      0.58355733
       4659.2659      0.69412226
       4660.1550      0.58649578
       4661.0441      0.63655175
       4661.9332      0.66045907
       4662.8222      0.63977499
       4663.7113      0.69471262
       4664.6004      0.62581226
       4665.4895      0.62177140
       4666.3786      0.61897451
       4667.2676      0.66368936
       4668.1567      0.66222630
       4669.0458      0.62893028
       4669.9349      0.67251822
       4670.8239      0.71410030
       4671.7130      0.79022218
       4672.6021      0.66154527
       4673.4912      0.70392742
       4674.3803      0.57075001
       4675.2693      0.72831723
       4676.1584      0.55994853
       4677.0475      0.69910985
       4677.9366      0.70535585
       4678.8256      0.63891799
       4679.7147      0.57998461
       4680.6038      0.72896695
       4681.4929      0.86240676
       4682.3820      0.91650407
       4683.2710      0.85893757
       4684.1601      0.47031154
       4685.0492      0.53274030
       4685.9383      0.34417468
       4686.8273      0.31807043
       4687.7164      0.44284670
       4688.6055      0.48521996
       4689.4946      0.74176736
       4690.3837      0.71289540
       4691.2727      0.69776215
       4692.1618      0.60537047
       4693.0509      0.63710427
       4693.9400      0.66483805
       4694.8291      0.69884186
       4695.7181      0.65875949
       4696.6072      0.51070151
       4697.4963      0.55225402
       4698.3854      0.58238742
       4699.2744      0.63410422
       4700.1635      0.64447367
       4701.0526      0.68928496
       4701.9417      0.81076856
       4702.8308      0.73406843
       4703.7198      0.63931299
       4704.6089      0.55291958
       4705.4980      0.64970671
       4706.3871      0.64833148
       4707.2761      0.67261922
       4708.1652      0.85146379
       4709.0543      0.71880759
       4709.9434      0.69123445
       4710.8325      0.65884551
       4711.7215      0.73637091
       4712.6106      0.70201582
       4713.4997      0.66648255
       4714.3888      0.63997774
       4715.2778      0.64829703
       4716.1669      0.65477436
       4717.0560      0.73049214
       4717.9451      0.69289802
       4718.8342      0.55346282
       4719.7232      0.56805623
       4720.6123      0.62731825
       4721.5014      0.64112128
       4722.3905      0.58372811
       4723.2795      0.71327575
       4724.1686      0.71696397
       4725.0577      0.57985861
       4725.9468      0.64493231
       4726.8359      0.68870102
       4727.7249      0.59154965
       4728.6140      0.70167773
       4729.5031      0.84751298
       4730.3922      0.96653414
       4731.2813      0.82011298
       4732.1703      0.60156057
       4733.0594      0.76340302
       4733.9485      0.67878230
       4734.8376      0.66081066
       4735.7266      0.55562906
       4736.6157      0.53047755
       4737.5048      0.65703461
       4738.3939      0.64864004
       4739.2830      0.58890718
       4740.1720      0.61791625
       4741.0611      0.70504473
       4741.9502      0.69415306
       4742.8393      0.57050276
       4743.7283      0.62315647
       4744.6174      0.73565727
       4745.5065      0.67217538
       4746.3956      0.69503699
       4747.2847      0.75172630
       4748.1737      0.55881153
       4749.0628      0.57769203
       4749.9519      0.55233091
       4750.8410      0.54728464
       4751.7300      0.61921348
       4752.6191      0.65461245
       4753.5082      0.49826526
       4754.3973      0.62497333
       4755.2864      0.68397903
       4756.1754      0.64981780
       4757.0645      0.72491481
       4757.9536      0.67679748
       4758.8427      0.58595464
       4759.7317      0.61898628
       4760.6208      0.62687507
       4761.5099      0.68002164
       4762.3990      0.65042790
       4763.2881      0.66615474
       4764.1771      0.62908830
       4765.0662      0.61181255
       4765.9553      0.64007541
       4766.8444      0.73382098
       4767.7335      0.68169423
       4768.6225      0.74645163
       4769.5116      0.70932837
       4770.4007      0.79342553
       4771.2898      0.79266963
       4772.1788      0.72819199
       4773.0679      0.76443120
       4773.9570      0.77386084
       4774.8461      0.65545482
       4775.7352      0.57098343
       4776.6242      0.74646349
       4777.5133      0.63165687
       4778.4024      0.60789688
       4779.2915      0.68572519
       4780.1805      0.61043543
       4781.0696      0.63644378
       4781.9587      0.63743476
       4782.8478      0.55616073
       4783.7369      0.76457228
       4784.6259      0.55536626
       4785.5150      0.62068994
       4786.4041      0.78656555
       4787.2932      0.65533155
       4788.1822      0.59786129
       4789.0713      0.69600949
       4789.9604      0.67033094
       4790.8495      0.57872526
       4791.7386      0.51924718
       4792.6276      0.57583949
       4793.5167      0.56650478
       4794.4058      0.57209268
       4795.2949      0.53722224
       4796.1839      0.59521632
       4797.0730      0.54704581
       4797.9621      0.57135256
       4798.8512      0.56742713
       4799.7403      0.61893073
       4800.6293      0.56147953
       4801.5184      0.59862116
       4802.4075      0.56080336
       4803.2966      0.53556210
       4804.1857      0.56874787
       4805.0747      0.69489709
       4805.9638      0.60958325
       4806.8529      0.59763562
       4807.7420      0.65737256
       4808.6310      0.55607480
       4809.5201      0.60723190
       4810.4092      0.65614794
       4811.2983      0.60226139
       4812.1874      0.72064324
       4813.0764      0.73415377
       4813.9655      0.62895553
       4814.8546      0.59643676
       4815.7437      0.61427523
       4816.6327      0.73209561
       4817.5218      0.54534747
       4818.4109      0.53601906
       4819.3000      0.67909839
       4820.1891      0.53903888
       4821.0781      0.61537036
       4821.9672      0.65625766
       4822.8563      0.60100542
       4823.7454      0.65519570
       4824.6344      0.68646404
       4825.5235      0.69867005
       4826.4126      0.67461297
       4827.3017      0.76221258
       4828.1908      0.71523606
       4829.0798      0.59895923
       4829.9689      0.58114402
       4830.8580      0.61240014
       4831.7471      0.58322678
       4832.6361      0.56749056
       4833.5252      0.60922676
       4834.4143      0.56066184
       4835.3034      0.64781375
       4836.1925      0.63861941
       4837.0815      0.63990724
       4837.9706      0.51707436
       4838.8597      0.49309842
       4839.7488      0.78519800
       4840.6378      0.58043023
       4841.5269      0.70919725
       4842.4160      0.53265992
       4843.3051      0.50915620
       4844.1942      0.59774155
       4845.0832      0.48301522
       4845.9723      0.51710725
       4846.8614      0.49716454
       4847.7505      0.66897779
       4848.6396      0.69325741
       4849.5286      0.57790075
       4850.4177      0.60812755
       4851.3068      0.54012040
       4852.1959      0.64957269
       4853.0849      0.80628980
       4853.9740      0.92274292
       4854.8631      0.96480611
       4855.7522       1.0353079
       4856.6413       1.0550886
       4857.5303      0.68177370
       4858.4194      0.62447950
       4859.3085      0.51043701
       4860.1976      0.48479774
       4861.0866      0.48797117
       4861.9757      0.57821062
       4862.8648      0.55773793
       4863.7539      0.45554779
       4864.6430      0.54515092
       4865.5320      0.44896394
       4866.4211      0.55969762
       4867.3102      0.56692440
       4868.1993      0.62574969
       4869.0883      0.51919917
       4869.9774      0.58210499
       4870.8665      0.67447840
       4871.7556      0.63260344
       4872.6447      0.62878064
       4873.5337      0.56343835
       4874.4228      0.56412933
       4875.3119      0.44825084
       4876.2010      0.46155494
       4877.0900      0.60812893
       4877.9791      0.57770095
       4878.8682      0.45066064
       4879.7573      0.57808133
       4880.6464      0.63610954
       4881.5354      0.48611776
       4882.4245      0.56493408
       4883.3136      0.60088052
       4884.2027      0.57953390
       4885.0918      0.51734884
       4885.9808      0.58598003
       4886.8699      0.50415683
       4887.7590      0.64683436
       4888.6481      0.67303406
       4889.5371      0.78098948
       4890.4262      0.73667190
       4891.3153      0.72707495
       4892.2044      0.72234381
       4893.0935      0.61437717
       4893.9825      0.61929502
       4894.8716      0.61382395
       4895.7607      0.54031489
       4896.6498      0.54658987
       4897.5388      0.62713992
       4898.4279      0.60073848
       4899.3170      0.59835462
       4900.2061      0.59782995
       4901.0952      0.59658508
       4901.9842      0.62127082
       4902.8733      0.58644462
       4903.7624      0.59266814
       4904.6515      0.70078621
       4905.5405      0.70651499
       4906.4296      0.60419842
       4907.3187      0.74124735
       4908.2078      0.64607489
       4909.0969      0.60346968
       4909.9859      0.58543176
       4910.8750      0.59913017
       4911.7641      0.58755545
       4912.6532      0.59995118
       4913.5422      0.58732159
       4914.4313      0.64589635
       4915.3204      0.53741601
       4916.2095      0.54467109
       4917.0986      0.51697676
       4917.9876      0.46017791
       4918.8767      0.68778835
       4919.7658      0.55990153
       4920.6549      0.57687614
       4921.5440      0.58264885
       4922.4330      0.63440774
       4923.3221      0.59856963
       4924.2112      0.66020809
       4925.1003      0.71783719
       4925.9893      0.73605394
       4926.8784      0.73852908
       4927.7675      0.59577439
       4928.6566      0.56952156
       4929.5457      0.64868264
       4930.4347      0.59767710
       4931.3238      0.48403140
       4932.2129      0.51921751
       4933.1020      0.54966165
       4933.9910      0.47566150
       4934.8801      0.53585035
       4935.7692      0.59391852
       4936.6583      0.63259684
       4937.5474      0.62319049
       4938.4364      0.62258345
       4939.3255      0.60234150
       4940.2146      0.64962813
       4941.1037      0.68015621
       4941.9927      0.73624152
       4942.8818      0.65228738
       4943.7709      0.67038375
       4944.6600      0.63843459
       4945.5491      0.63035633
       4946.4381      0.67621226
       4947.3272      0.51930444
       4948.2163      0.73318545
       4949.1054      0.70707169
       4949.9944      0.65821310
       4950.8835      0.71332645
       4951.7726      0.61242688
       4952.6617      0.55121240
       4953.5508      0.62213205
       4954.4398      0.68762250
       4955.3289      0.75593301
       4956.2180      0.74101989
       4957.1071      0.72409013
       4957.9962      0.66912358
       4958.8852      0.74340845
       4959.7743      0.68928327
       4960.6634      0.56703793
       4961.5525      0.59237453
       4962.4415      0.61097256
       4963.3306      0.54388715
       4964.2197      0.56865710
       4965.1088      0.62138052
       4965.9979      0.66364740
       4966.8869      0.62268916
       4967.7760      0.73093204
       4968.6651      0.66791320
       4969.5542      0.70578471
       4970.4432      0.62672663
       4971.3323      0.79608064
       4972.2214      0.63516285
       4973.1105      0.66171707
       4973.9996      0.69473071
       4974.8886      0.65984461
       4975.7777      0.66691462
       4976.6668      0.60551732
       4977.5559      0.65320306
       4978.4449      0.63513005
       4979.3340      0.60848102
       4980.2231      0.53481107
       4981.1122      0.68902954
       4982.0013      0.67077710
       4982.8903      0.57229333
       4983.7794      0.51377754
       4984.6685      0.50672429
       4985.5576      0.59894666
       4986.4466      0.46725766
       4987.3357      0.57389699
       4988.2248      0.71201607
       4989.1139      0.70348442
       4990.0030      0.56216445
       4990.8920      0.55518996
       4991.7811      0.59635018
       4992.6702      0.61748442
       4993.5593      0.64590268
       4994.4484      0.73881993
       4995.3374      0.54042643
       4996.2265      0.61701952
       4997.1156      0.69937648
       4998.0047      0.57265208
       4998.8937      0.60145095
       4999.7828      0.59816318
       5000.6719      0.68571503
       5001.5610      0.58221242
       5002.4501      0.79759787
       5003.3391      0.77826429
       5004.2282      0.75015649
       5005.1173      0.82484829
       5006.0064      0.77115195
       5006.8954      0.72049550
       5007.7845      0.60016972
       5008.6736      0.65471817
       5009.5627      0.65920202
       5010.4518      0.58065506
       5011.3408      0.55511314
       5012.2299      0.53397283
       5013.1190      0.49514962
       5014.0081      0.50683731
       5014.8971      0.53874028
       5015.7862      0.63481773
       5016.6753      0.65013655
       5017.5644      0.53418692
       5018.4535      0.54875683
       5019.3425      0.62284609
       5020.2316      0.59091700
       5021.1207      0.59434382
       5022.0098      0.70701927
       5022.8988      0.66169521
       5023.7879      0.59004544
       5024.6770      0.54689851
       5025.5661      0.51416031
       5026.4552      0.60013640
       5027.3442      0.59313207
       5028.2333      0.55046318
       5029.1224      0.50269403
       5030.0115      0.61239256
       5030.9006      0.66424653
       5031.7896      0.69567542
       5032.6787      0.70440740
       5033.5678      0.59664451
       5034.4569      0.68736539
       5035.3459      0.50328823
       5036.2350      0.62113298
       5037.1241      0.53440192
       5038.0132      0.59678670
       5038.9023      0.61273076
       5039.7913      0.55619500
       5040.6804      0.53831393
       5041.5695      0.62959252
       5042.4586      0.52395896
       5043.3476      0.66827338
       5044.2367      0.74704704
       5045.1258      0.78019456
       5046.0149      0.64337760
       5046.9040      0.59563642
       5047.7930      0.58753004
       5048.6821      0.61479737
       5049.5712      0.54723388
       5050.4603      0.60346811
       5051.3493      0.65804586
       5052.2384      0.61860682
       5053.1275      0.72491683
       5054.0166      0.62784028
       5054.9057      0.58859753
       5055.7947      0.53496712
       5056.6838      0.64241693
       5057.5729      0.62045390
       5058.4620      0.62929427
       5059.3510      0.64001446
       5060.2401      0.70688476
       5061.1292      0.62574033
       5062.0183      0.63216046
       5062.9074      0.55280392
       5063.7964      0.62792595
       5064.6855      0.60722299
       5065.5746      0.64236726
       5066.4637      0.58497883
       5067.3528      0.61651765
       5068.2418      0.67862548
       5069.1309      0.64899786
       5070.0200      0.68323318
       5070.9091      0.57123648
       5071.7981      0.61967824
       5072.6872      0.56158487
       5073.5763      0.68698499
       5074.4654      0.60823040
       5075.3545      0.57869439
       5076.2435      0.60022732
       5077.1326      0.54505175
       5078.0217      0.61444869
       5078.9108      0.54907414
       5079.7998      0.55746179
       5080.6889      0.60614804
       5081.5780      0.64786741
       5082.4671      0.65388275
       5083.3562      0.63200032
       5084.2452      0.65886241
       5085.1343      0.60811807
       5086.0234      0.61509966
       5086.9125      0.71249865
       5087.8015      0.76493612
       5088.6906      0.75755241
       5089.5797      0.63352527
       5090.4688      0.73727743
       5091.3579      0.70925380
       5092.2469      0.64047373
       5093.1360      0.55210937
       5094.0251      0.75970981
       5094.9142      0.64072311
       5095.8032      0.55930139
       5096.6923      0.52088770
       5097.5814      0.56052586
       5098.4705      0.47286540
       5099.3596      0.54044052
       5100.2486      0.69498395
       5101.1377      0.62106321
       5102.0268      0.56558545
       5102.9159      0.78892151
       5103.8050      0.53048964
       5104.6940      0.50161004
       5105.5831      0.71000653
       5106.4722      0.67701074
       5107.3613      0.61932209
       5108.2503      0.59037404
       5109.1394      0.58194496
       5110.0285      0.68246301
       5110.9176      0.68837593
       5111.8067      0.76702564
       5112.6957      0.67032553
       5113.5848      0.65832920
       5114.4739      0.58526821
       5115.3630      0.50355947
       5116.2520      0.53073029
       5117.1411      0.45694633
       5118.0302      0.61816053
       5118.9193      0.50874094
       5119.8084      0.60610122
       5120.6974      0.63981023
       5121.5865      0.59819096
       5122.4756      0.68490008
       5123.3647      0.64428144
       5124.2537      0.65966258
       5125.1428      0.56240759
       5126.0319      0.69844090
       5126.9210      0.62058940
       5127.8101      0.60560768
       5128.6991      0.68657350
       5129.5882      0.50680212
       5130.4773      0.75127508
       5131.3664      0.58626803
       5132.2554      0.52185377
       5133.1445      0.60938840
       5134.0336      0.60576817
       5134.9227      0.49184198
       5135.8118      0.40192872
       5136.7008      0.69494184
       5137.5899      0.60537569
       5138.4790      0.64948313
       5139.3681      0.58757430
       5140.2572      0.59110919
       5141.1462      0.62959705
       5142.0353      0.60879971
       5142.9244      0.59735860
       5143.8135      0.58201851
       5144.7025      0.59840747
       5145.5916      0.41899775
       5146.4807      0.44861581
       5147.3698      0.67675919
       5148.2589      0.71313831
       5149.1479      0.69798334
       5150.0370      0.69980982
       5150.9261      0.57220995
       5151.8152      0.63277006
       5152.7042      0.62839185
       5153.5933      0.69930955
       5154.4824      0.68481524
       5155.3715      0.71636609
       5156.2606      0.62810371
       5157.1496      0.67880500
       5158.0387      0.65748943
       5158.9278      0.62499753
       5159.8169      0.57649590
       5160.7059      0.57233196
       5161.5950      0.58989709
       5162.4841      0.54624056
       5163.3732      0.74033578
       5164.2623      0.60664592
       5165.1513      0.59905196
       5166.0404      0.52242946
       5166.9295      0.55988415
       5167.8186      0.60282781
       5168.7076      0.51641290
       5169.5967      0.56780769
       5170.4858      0.47792136
       5171.3749      0.50252335
       5172.2640      0.50943149
       5173.1530      0.50194466
       5174.0421      0.53398912
       5174.9312      0.66109137
       5175.8203      0.60288515
       5176.7094      0.52590582
       5177.5984      0.51245995
       5178.4875      0.61473507
       5179.3766      0.61379331
       5180.2657      0.54849772
       5181.1547      0.63640397
       5182.0438      0.50768100
       5182.9329      0.47339094
       5183.8220      0.63729589
       5184.7111      0.53193217
       5185.6001      0.56701001
       5186.4892      0.54931361
       5187.3783      0.61875694
       5188.2674      0.54421162
       5189.1564      0.65284297
       5190.0455      0.58893226
       5190.9346      0.50423055
       5191.8237      0.50764040
       5192.7128      0.61719957
       5193.6018      0.52751395
       5194.4909      0.57222806
       5195.3800      0.71634886
       5196.2691      0.56296795
       5197.1581      0.61468186
       5198.0472      0.51724683
       5198.9363      0.49425366
       5199.8254      0.66103416
       5200.7145      0.67772707
       5201.6035      0.62558756
       5202.4926      0.68614289
       5203.3817      0.52786718
       5204.2708      0.53131473
       5205.1598      0.66426959
       5206.0489      0.62844910
       5206.9380      0.49759167
       5207.8271      0.60873014
       5208.7162      0.51266315
       5209.6052      0.63731646
       5210.4943      0.52055536
       5211.3834      0.62703021
       5212.2725      0.62974503
       5213.1616      0.73029258
       5214.0506      0.80240500
       5214.9397      0.56154353
       5215.8288      0.62863895
       5216.7179      0.70250984
       5217.6069      0.66215316
       5218.4960      0.55223691
       5219.3851      0.62434395
       5220.2742      0.60475189
       5221.1633      0.68207425
       5222.0523      0.67274916
       5222.9414      0.64718788
       5223.8305      0.73074886
       5224.7196      0.58290391
       5225.6086      0.71364899
       5226.4977      0.59543036
       5227.3868      0.65644472
       5228.2759      0.71100201
       5229.1650      0.56916982
       5230.0540      0.61920850
       5230.9431      0.58844797
       5231.8322      0.68534407
       5232.7213      0.59716152
       5233.6103      0.61346841
       5234.4994      0.67259056
       5235.3885      0.52583954
       5236.2776      0.67448670
       5237.1667      0.69162403
       5238.0557      0.58405372
       5238.9448      0.64509864
       5239.8339      0.71091579
       5240.7230      0.64913821
       5241.6120      0.78258235
       5242.5011      0.71455934
       5243.3902      0.69212153
       5244.2793      0.61052506
       5245.1684      0.65341596
       5246.0574      0.66178429
       5246.9465      0.76012510
       5247.8356      0.66243221
       5248.7247      0.67024870
       5249.6138      0.71580910
       5250.5028      0.70820956
       5251.3919      0.66776615
       5252.2810      0.73626827
       5253.1701      0.69750376
       5254.0591      0.69012663
       5254.9482      0.60567181
       5255.8373      0.58133582
       5256.7264      0.61262156
       5257.6155      0.65314817
       5258.5045      0.63626680
       5259.3936      0.67450878
       5260.2827      0.74623373
       5261.1718      0.62632113
       5262.0608      0.64871239
       5262.9499      0.60454621
       5263.8390      0.52535658
       5264.7281      0.55717189
       5265.6172      0.53106471
       5266.5062      0.50559444
       5267.3953      0.61284888
       5268.2844      0.59795164
       5269.1735      0.63266379
       5270.0625      0.58280185
       5270.9516      0.64942121
       5271.8407      0.54794953
       5272.7298      0.60666620
       5273.6189      0.54921187
       5274.5079      0.56101962
       5275.3970      0.65421441
       5276.2861      0.60299015
       5277.1752      0.59036576
       5278.0642      0.60935494
       5278.9533      0.58116448
       5279.8424      0.75501923
       5280.7315      0.64001043
       5281.6206      0.56738654
       5282.5096      0.65321044
       5283.3987      0.60307177
       5284.2878      0.62850832
       5285.1769      0.57196410
       5286.0660      0.77967700
       5286.9550      0.67181560
       5287.8441      0.68472991
       5288.7332      0.82996136
       5289.6223      0.69423788
       5290.5113      0.67799541
       5291.4004      0.69619879
       5292.2895      0.69428423
       5293.1786      0.69188200
       5294.0677      0.82801515
       5294.9567      0.66837671
       5295.8458      0.65860325
       5296.7349      0.64462365
       5297.6240      0.66250360
       5298.5130      0.71177294
       5299.4021      0.63014620
       5300.2912      0.53756751
       5301.1803      0.68945554
       5302.0694      0.72027388
       5302.9584      0.69546704
       5303.8475      0.66029711
       5304.7366      0.65960603
       5305.6257      0.73089557
       5306.5147      0.63531101
       5307.4038      0.80331748
       5308.2929      0.66534937
       5309.1820      0.53893893
       5310.0711      0.61612852
       5310.9601      0.71635135
       5311.8492      0.60326014
       5312.7383      0.68623354
       5313.6274      0.64832633
       5314.5164      0.66188163
       5315.4055      0.77328847
       5316.2946      0.71959819
       5317.1837      0.68413944
       5318.0728      0.66549449
       5318.9618      0.76175746
       5319.8509      0.72968767
       5320.7400      0.64096838
       5321.6291      0.56584288
       5322.5182      0.58104070
       5323.4072      0.59362569
       5324.2963      0.68027782
       5325.1854      0.71090035
       5326.0745      0.74109391
       5326.9635      0.73570281
       5327.8526      0.58875086
       5328.7417      0.67291632
       5329.6308      0.63613773
       5330.5199      0.62744058
       5331.4089      0.69821923
       5332.2980      0.71727569
       5333.1871      0.70826173
       5334.0762      0.53399617
       5334.9652      0.59516720
       5335.8543      0.65818637
       5336.7434      0.70726341
       5337.6325      0.71870411
       5338.5216      0.74239652
       5339.4106      0.79852918
       5340.2997      0.55443899
       5341.1888      0.78148505
       5342.0779      0.68379320
       5342.9669      0.70834992
       5343.8560      0.63575536
       5344.7451      0.70083338
       5345.6342      0.73250349
       5346.5233      0.58791103
       5347.4123      0.66179059
       5348.3014      0.73962588
       5349.1905      0.55107705
       5350.0796      0.61479406
       5350.9686      0.66545820
       5351.8577      0.71843568
       5352.7468      0.76047082
       5353.6359      0.68547619
       5354.5250      0.56251372
       5355.4140      0.60020169
       5356.3031      0.57833689
       5357.1922      0.85514396
       5358.0813      0.64109602
       5358.9704      0.73657657
       5359.8594      0.66528851
       5360.7485      0.69573746
       5361.6376      0.73938904
       5362.5267      0.67072740
       5363.4157      0.60736121
       5364.3048      0.62830096
       5365.1939     -0.28740568
       5366.0830     -0.11030758
       5366.9721      0.52806187
       5367.8611      0.68995817
       5368.7502      0.83291879
       5369.6393      0.75682688
       5370.5284      0.61082549
       5371.4174      0.62514442
       5372.3065      0.67497558
       5373.1956      0.62660556
       5374.0847      0.59294675
       5374.9738      0.63127040
       5375.8628      0.68148673
       5376.7519      0.65415589
       5377.6410      0.74461106
       5378.5301      0.65182994
       5379.4191      0.83874719
       5380.3082      0.66074809
       5381.1973      0.85607814
       5382.0864      0.72072546
       5382.9755      0.78232742
       5383.8645      0.71818787
       5384.7536      0.68401676
       5385.6427      0.61762935
       5386.5318      0.64991757
       5387.4208      0.68724332
       5388.3099      0.59462312
       5389.1990      0.67801914
       5390.0881      0.67232071
       5390.9772      0.66897843
       5391.8662      0.65055720
       5392.7553      0.69118324
       5393.6444      0.59130568
       5394.5335      0.54943953
       5395.4226      0.59656751
       5396.3116      0.58117944
       5397.2007      0.75398075
       5398.0898      0.75843941
       5398.9789      0.67593314
       5399.8679      0.52060621
       5400.7570      0.80339947
       5401.6461      0.77331299
       5402.5352      0.70711005
       5403.4243      0.55046987
       5404.3133      0.75355757
       5405.2024      0.64386602
       5406.0915      0.60590529
       5406.9806      0.65721968
       5407.8696      0.74749106
       5408.7587      0.41653673
       5409.6478      0.83225390
       5410.5369      0.65508244
       5411.4260      0.68879409
       5412.3150      0.61556275
       5413.2041      0.50864530
       5414.0932      0.80207181
       5414.9823      0.64681747
       5415.8713      0.72472878
       5416.7604      0.65169467
       5417.6495      0.70162955
       5418.5386      0.58313371
       5419.4277      0.75733811
       5420.3167      0.63146224
       5421.2058      0.67779575
       5422.0949      0.68984686
       5422.9840      0.50360552
       5423.8730      0.81470751
       5424.7621      0.81677886
       5425.6512      0.58850460
       5426.5403      0.77508553
       5427.4294      0.76484305
       5428.3184      0.68670250
       5429.2075      0.44278376
       5430.0966      0.69492415
       5430.9857      0.67267013
       5431.8748      0.81626871
       5432.7638      0.62346461
       5433.6529      0.58766306
       5434.5420      0.61994699
       5435.4311      0.67045594
       5436.3201      0.73217915
       5437.2092      0.67700334
       5438.0983      0.56973074
       5438.9874      0.67063837
       5439.8765      0.53440538
       5440.7655      0.85446960
       5441.6546      0.85566283
       5442.5437      0.63038317
       5443.4328      0.74421007
       5444.3218      0.85362793
       5445.2109      0.60189333
       5446.1000      0.80481418
       5446.9891      0.62037249
       5447.8782      0.68421165
       5448.7672      0.75217528
       5449.6563      0.66640330
       5450.5454      0.69464631
       5451.4345      0.81047106
       5452.3235      0.62223021
       5453.2126      0.62511927
       5454.1017      0.82196510
       5454.9908      0.80287763
       5455.8799      0.73137534
       5456.7689      0.80516282
       5457.6580      0.85775171
       5458.5471      0.76007415
       5459.4362      0.64423879
       5460.3252      0.74764400
       5461.2143      0.76945269
       5462.1034      0.75356693
       5462.9925      0.80068036
       5463.8816      0.55543326
       5464.7706      0.68041525
       5465.6597      0.67104576
       5466.5488      0.79164767
       5467.4379      0.80933189
       5468.3270      0.78527944
       5469.2160      0.64099157
       5470.1051      0.75263548
       5470.9942      0.87469762
       5471.8833      0.95472115
       5472.7723      0.77144549
       5473.6614      0.64584555
       5474.5505      0.73274728
       5475.4396      0.61906954
       5476.3287      0.45316574
       5477.2177      0.76950544
       5478.1068      0.72202889
       5478.9959      0.74104771
       5479.8850      0.70979585
       5480.7740      0.73565374
       5481.6631      0.72160618
       5482.5522      0.66626401
       5483.4413      0.71700931
       5484.3304      0.77319650
       5485.2194      0.80764630
       5486.1085      0.80352366
       5486.9976      0.60992283
       5487.8867      0.62427467
       5488.7757      0.73330398
       5489.6648      0.65935526
       5490.5539      0.74781284
       5491.4430      0.67942694
       5492.3321      0.69712813
       5493.2211      0.78079013
       5494.1102      0.80163322
       5494.9993      0.79357167
       5495.8884      0.79107305
       5496.7774      0.82309080
       5497.6665       1.0305559
       5498.5556      0.86263818
       5499.4447      0.85795135
       5500.3338      0.77581835
       5501.2228      0.74058202
       5502.1119      0.61129430
       5503.0010      0.70572746
       5503.8901      0.90673957
       5504.7792      0.54534600
       5505.6682      0.72555507
       5506.5573      0.71107540
       5507.4464      0.69997650
       5508.3355      0.72440278
       5509.2245      0.66857041
       5510.1136      0.78043744
       5511.0027      0.69384011
       5511.8918      0.79231683
       5512.7809      0.75069077
       5513.6699      0.75651842
       5514.5590      0.73815136
       5515.4481      0.83907034
       5516.3372      0.70722704
       5517.2262      0.71805906
       5518.1153      0.72426920
       5519.0044      0.85484229
       5519.8935      0.75217409
       5520.7826      0.78687111
       5521.6716      0.78176030
       5522.5607      0.86212222
       5523.4498      0.80345076
       5524.3389      0.84207463
       5525.2279      0.81312590
       5526.1170      0.79631751
       5527.0061      0.80641344
       5527.8952      0.72385730
       5528.7843      0.65920869
       5529.6733      0.79165386
       5530.5624      0.80022659
       5531.4515      0.64472844
       5532.3406      0.85073339
       5533.2296      0.83823838
       5534.1187      0.71650775
       5535.0078      0.72795811
       5535.8969      0.86854209
       5536.7860      0.80253512
       5537.6750      0.79468910
       5538.5641      0.81203695
       5539.4532      0.70411289
       5540.3423      0.85324617
       5541.2314      0.74131139
       5542.1204      0.80108530
       5543.0095      0.91329742
       5543.8986      0.87689172
       5544.7877      0.80083721
       5545.6767      0.84914930
       5546.5658      0.71140696
       5547.4549      0.77444332
       5548.3440      0.61875479
       5549.2331      0.79045242
       5550.1221      0.85531272
       5551.0112      0.73097863
       5551.9003      0.79019699
       5552.7894      0.72465002
       5553.6784      0.82628541
       5554.5675      0.82192707
       5555.4566      0.85249111
       5556.3457      0.72603982
       5557.2348      0.77262377
       5558.1238      0.72567483
       5559.0129      0.81843655
       5559.9020      0.74662838
       5560.7911      0.64600009
       5561.6801      0.78906113
       5562.5692      0.84806121
       5563.4583      0.79730652
       5564.3474      0.79304425
       5565.2365      0.78238635
       5566.1255      0.67683812
       5567.0146      0.75643067
       5567.9037      0.69034540
       5568.7928      0.50411560
       5569.6818      0.76553077
       5570.5709      0.79863481
       5571.4600      0.69684980
       5572.3491      0.76153788
       5573.2382      0.79271694
       5574.1272      0.72689846
       5575.0163      0.72122330
       5575.9054      0.70780181
       5576.7945      0.71535192
       5577.6836      0.72771035
       5578.5726      0.76811458
       5579.4617      0.77672948
       5580.3508      0.75684615
       5581.2399      0.68456633
       5582.1289      0.81841470
       5583.0180      0.79287646
       5583.9071      0.72607386
       5584.7962      0.72789488
       5585.6853      0.85329256
       5586.5743      0.58257275
       5587.4634      0.74154017
       5588.3525      0.89109882
       5589.2416      0.82710347
       5590.1306      0.81480542
       5591.0197      0.74948353
       5591.9088      0.73329576
       5592.7979      0.73808588
       5593.6870      0.73464220
       5594.5760      0.77369112
       5595.4651      0.66322073
       5596.3542      0.73022958
       5597.2433      0.83950039
       5598.1323      0.95548413
       5599.0214      0.96563229
       5599.9105      0.98981100
       5600.7996      0.83021504
       5601.6887      0.77352231
       5602.5777      0.70860868
       5603.4668      0.71911304
       5604.3559      0.84015842
       5605.2450      0.70476809
       5606.1340      0.76728366
       5607.0231      0.82248102
       5607.9122      0.84544999
       5608.8013      0.88689099
       5609.6904       1.0633381
       5610.5794      0.99035909
       5611.4685      0.97952750
       5612.3576      0.79513775
       5613.2467      0.81289061
       5614.1358      0.87381982
       5615.0248      0.79120321
       5615.9139      0.75094413
       5616.8030      0.78469514
       5617.6921      0.71083521
       5618.5811      0.85458094
       5619.4702      0.72368789
       5620.3593      0.85738582
       5621.2484      0.85940355
       5622.1375      0.78048905
       5623.0265      0.83526249
       5623.9156      0.68204383
       5624.8047      0.80911434
       5625.6938      0.74753852
       5626.5828      0.73428065
       5627.4719      0.77617646
       5628.3610      0.87761674
       5629.2501      0.77586433
       5630.1392      0.69167438
       5631.0282      0.85949893
       5631.9173      0.89466221
       5632.8064      0.80359430
       5633.6955      0.72681260
       5634.5845      0.74577008
       5635.4736      0.72635945
       5636.3627      0.88651574
       5637.2518      0.78849714
       5638.1409      0.74754478
       5639.0299      0.78287691
       5639.9190      0.70918554
       5640.8081      0.67488110
       5641.6972      0.79713435
       5642.5862      0.79277593
       5643.4753      0.86802737
       5644.3644      0.93873491
       5645.2535      0.81557180
       5646.1426      0.77286398
       5647.0316      0.81715312
       5647.9207      0.75900955
       5648.8098      0.72701805
       5649.6989      0.90321397
       5650.5880      0.75293400
       5651.4770      0.68635450
       5652.3661      0.81085195
       5653.2552      0.74232196
       5654.1443      0.86038564
       5655.0333      0.80581391
       5655.9224      0.65894684
       5656.8115      0.84147560
       5657.7006      0.69666564
       5658.5897      0.71884074
       5659.4787      0.67958834
       5660.3678      0.73180545
       5661.2569      0.76368660
       5662.1460      0.64102357
       5663.0350      0.59057743
       5663.9241      0.52251223
       5664.8132      0.51769631
       5665.7023      0.43632104
       5666.5914      0.42680106
       5667.4804      0.38110147
       5668.3695      0.34671510
       5669.2586      0.32964211
       5670.1477             NaN
       5671.0367             NaN
       5671.9258             NaN
       5672.8149             NaN
       5673.7040             NaN
       5674.5931             NaN
       5675.4821             NaN
       5676.3712             NaN
       5677.2603             NaN
       5678.1494             NaN
       5679.0384             NaN
       5679.9275             NaN
       5680.8166             NaN
       5681.7057             NaN
       5682.5948             NaN
       5683.4838             NaN
       5684.3729             NaN
       5685.2620             NaN
       5686.1511             NaN
       5687.0402             NaN
       5687.9292             NaN
       5688.8183             NaN
       5689.7074             NaN
       5690.5965             NaN
       5691.4855             NaN
       5692.3746             NaN
       5693.2637             NaN
       5694.1528             NaN
       5695.0419             NaN
       5695.9309             NaN
       5696.8200             NaN
       5697.7091             NaN
       5698.5982             NaN
       5699.4872             NaN
       5700.3763             NaN
       5701.2654             NaN
       5702.1545             NaN
       5703.0436             NaN
       5703.9326             NaN
       5704.8217             NaN
       5705.7108             NaN
       5706.5999             NaN
       5707.4889             NaN
       5708.3780             NaN
       5709.2671             NaN
       5710.1562             NaN
       5711.0453             NaN
       5711.9343             NaN
       5712.8234             NaN
       5713.7125             NaN
       5714.6016             NaN
       5715.4906             NaN
       5716.3797             NaN
       5717.2688             NaN
       5718.1579             NaN
       5719.0470             NaN
       5719.9360             NaN
       5720.8251             NaN
       5721.7142             NaN
       5722.6033             NaN
       5723.4924             NaN
       5724.3814             NaN
       5725.2705             NaN
       5726.1596             NaN
       5727.0487             NaN
       5727.9377             NaN
       5728.8268             NaN
       5729.7159             NaN
       5730.6050             NaN
       5731.4941             NaN
       5732.3831             NaN
       5733.2722             NaN
       5734.1613             NaN
       5735.0504             NaN
       5735.9394             NaN
       5736.8285             NaN
       5737.7176             NaN
       5738.6067             NaN
       5739.4958             NaN
       5740.3848             NaN
       5741.2739             NaN
       5742.1630             NaN
       5743.0521             NaN
       5743.9411             NaN
       5744.8302             NaN
       5745.7193             NaN
       5746.6084             NaN
       5747.4975             NaN
       5748.3865             NaN
       5749.2756      0.87626896
       5750.1647      0.94664136
       5751.0538      0.68224421
       5751.9428      0.94273591
       5752.8319      0.86525385
       5753.7210       1.0559433
       5754.6101       1.1694493
       5755.4992       1.0016924
       5756.3882      0.98640288
       5757.2773      0.67423943
       5758.1664      0.81371629
       5759.0555      0.76310092
       5759.9446      0.66209269
       5760.8336      0.93065133
       5761.7227      0.91623830
       5762.6118      0.95875937
       5763.5009      0.81920848
       5764.3899      0.86136871
       5765.2790      0.83271233
       5766.1681      0.80094197
       5767.0572      0.81475606
       5767.9463      0.75609546
       5768.8353      0.78065578
       5769.7244      0.86721106
       5770.6135      0.94382605
       5771.5026      0.82654763
       5772.3916      0.87728109
       5773.2807      0.84369739
       5774.1698      0.77207192
       5775.0589      0.83125713
       5775.9480      0.93392813
       5776.8370      0.90262568
       5777.7261      0.85552944
       5778.6152       1.0506913
       5779.5043      0.86452561
       5780.3933      0.63177243
       5781.2824      0.70436374
       5782.1715      0.57836900
       5783.0606      0.76052602
       5783.9497      0.80468421
       5784.8387      0.73698919
       5785.7278      0.74745245
       5786.6169      0.67952610
       5787.5060      0.91680218
       5788.3950      0.77763684
       5789.2841      0.64808273
       5790.1732      0.74981510
       5791.0623      0.70621679
       5791.9514      0.74388348
       5792.8404      0.77537011
       5793.7295      0.77841212
       5794.6186      0.73517773
       5795.5077      0.79653148
       5796.3968      0.90326891
       5797.2858      0.89071943
       5798.1749      0.91182553
       5799.0640      0.93768448
       5799.9531      0.81950054
       5800.8421      0.78867050
       5801.7312      0.71805845
       5802.6203      0.84463108
       5803.5094      0.70612256
       5804.3985      0.83665363
       5805.2875      0.79263072
       5806.1766      0.85266077
       5807.0657      0.85575644
       5807.9548      0.79298205
       5808.8438      0.62612752
       5809.7329      0.76752353
       5810.6220      0.94533389
       5811.5111      0.75149255
       5812.4002       1.0939828
       5813.2892       1.0122166
       5814.1783      0.88992093
       5815.0674      0.70844064
       5815.9565      0.81443652
       5816.8455      0.75813164
       5817.7346      0.69112904
       5818.6237      0.79069007
       5819.5128      0.83315791
       5820.4019      0.95124871
       5821.2909      0.97362854
       5822.1800      0.84395914
       5823.0691      0.88192656
       5823.9582      0.98142012
       5824.8472      0.80777197
       5825.7363      0.86850296
       5826.6254      0.85825745
       5827.5145      0.81379759
       5828.4036      0.90484736
       5829.2926      0.78824838
       5830.1817       1.0296091
       5831.0708      0.92967872
       5831.9599       1.2746538
       5832.8490       1.0794633
       5833.7380      0.86400894
       5834.6271      0.71560332
       5835.5162      0.72752407
       5836.4053      0.66855409
       5837.2943      0.93875484
       5838.1834       1.1274648
       5839.0725      0.89968352
       5839.9616      0.85883745
       5840.8507      0.77558599
       5841.7397      0.76548114
       5842.6288      0.86635021
       5843.5179      0.88958871
       5844.4070      0.93201791
       5845.2960      0.88034361
       5846.1851      0.86314769
       5847.0742      0.85422703
       5847.9633      0.85611152
       5848.8524      0.71450826
       5849.7414      0.81347527
       5850.6305      0.87099787
       5851.5196      0.81107707
       5852.4087      0.90142036
       5853.2977      0.92062117
       5854.1868      0.76712038
       5855.0759      0.86461611
       5855.9650      0.93050498
       5856.8541      0.90218721
       5857.7431      0.67605801
       5858.6322      0.71305818
       5859.5213      0.91049556
       5860.4104      0.70320151
       5861.2994      0.68347521
       5862.1885      0.69359849
       5863.0776      0.84718969
       5863.9667      0.76055015
       5864.8558      0.78407042
       5865.7448      0.87248892
       5866.6339      0.85042870
       5867.5230      0.84934114
       5868.4121       1.0447803
       5869.3012      0.89597786
       5870.1902      0.81573970
       5871.0793      0.85850689
       5871.9684      0.53520470
       5872.8575      0.79090060
       5873.7465      0.69911425
       5874.6356      0.75817074
       5875.5247      0.87210329
       5876.4138      0.80178269
       5877.3029      0.82081305
       5878.1919      0.81004429
       5879.0810      0.82658800
       5879.9701      0.92808113
       5880.8592      0.93653116
       5881.7482      0.89222705
       5882.6373       1.0027967
       5883.5264       1.0624300
       5884.4155      0.87576641
       5885.3046      0.97532088
       5886.1936      0.81118251
       5887.0827      0.87171971
       5887.9718      0.87504510
       5888.8609      0.89588365
       5889.7499      0.78762314
       5890.6390      0.76188340
       5891.5281      0.72583659
       5892.4172      0.72417094
       5893.3063      0.68241608
       5894.1953      0.61304974
       5895.0844      0.62950087
       5895.9735      0.70511344
       5896.8626      0.72014473
       5897.7516      0.81078367
       5898.6407      0.68830122
       5899.5298      0.82122999
       5900.4189      0.99904453
       5901.3080      0.78908978
       5902.1970      0.72737263
       5903.0861      0.67654783
       5903.9752      0.74789396
       5904.8643      0.64832886
       5905.7534      0.52075690
       5906.6424      0.46591986
       5907.5315      0.93858307
       5908.4206      0.75147370
       5909.3097      0.74717859
       5910.1987      0.77563972
       5911.0878      0.80858898
       5911.9769      0.79279675
       5912.8660      0.81317702
       5913.7551      0.94093624
       5914.6441      0.87688405
       5915.5332      0.68004923
       5916.4223      0.68302415
       5917.3114      0.64577327
       5918.2004      0.60083959
       5919.0895      0.80930286
       5919.9786      0.83199985
       5920.8677      0.74425984
       5921.7568      0.73344846
       5922.6458      0.73938603
       5923.5349      0.84796213
       5924.4240      0.77856814
       5925.3131      0.77753037
       5926.2021      0.73987396
       5927.0912      0.67452357
       5927.9803      0.83908426
       5928.8694      0.81814669
       5929.7585      0.88550174
       5930.6475      0.77612131
       5931.5366      0.82815058
       5932.4257      0.92484379
       5933.3148      0.93617963
       5934.2038      0.73832134
       5935.0929      0.81572149
       5935.9820      0.77745026
       5936.8711      0.80887550
       5937.7602      0.82192655
       5938.6492      0.98811508
       5939.5383       1.0298586
       5940.4274      0.85697017
       5941.3165      0.76881127
       5942.2056      0.63833320
       5943.0946      0.70274463
       5943.9837      0.68238534
       5944.8728      0.71578223
       5945.7619      0.84246353
       5946.6509      0.80616798
       5947.5400      0.88291622
       5948.4291      0.98534106
       5949.3182      0.81075391
       5950.2073      0.76876217
       5951.0963      0.90588486
       5951.9854      0.72228006
       5952.8745      0.62809071
       5953.7636      0.67521825
       5954.6526      0.68577435
       5955.5417      0.78184577
       5956.4308      0.75917251
       5957.3199      0.74137621
       5958.2090      0.96570070
       5959.0980      0.64480147
       5959.9871      0.75351182
       5960.8762      0.60583738
       5961.7653      0.81361216
       5962.6543      0.74091863
       5963.5434      0.74440055
       5964.4325      0.89650162
       5965.3216      0.84588292
       5966.2107      0.76571916
       5967.0997      0.82793582
       5967.9888      0.91940143
       5968.8779      0.81522584
       5969.7670      0.80278342
       5970.6560      0.85803990
       5971.5451      0.89444662
       5972.4342      0.73471245
       5973.3233      0.70192644
       5974.2124      0.77935593
       5975.1014      0.87460434
       5975.9905      0.96654753
       5976.8796      0.88178986
       5977.7687      0.81818875
       5978.6578      0.83044446
       5979.5468      0.71279800
       5980.4359      0.63798982
       5981.3250      0.81037449
       5982.2141      0.79445298
       5983.1031      0.74759495
       5983.9922      0.58082134
       5984.8813      0.84038320
       5985.7704      0.76378572
       5986.6595      0.57035002
       5987.5485      0.63270623
       5988.4376      0.65675866
       5989.3267      0.63422374
       5990.2158      0.64554727
       5991.1048      0.78076960
       5991.9939      0.73900725
       5992.8830      0.88741342
       5993.7721      0.82066364
       5994.6612      0.80851928
       5995.5502      0.84225639
       5996.4393      0.85442648
       5997.3284      0.82185818
       5998.2175      0.87075764
       5999.1065      0.85535473
       5999.9956      0.82627148
       6000.8847      0.93016806
       6001.7738      0.86466873
       6002.6629      0.83519386
       6003.5519      0.82852464
       6004.4410      0.84309188
       6005.3301      0.95487971
       6006.2192      0.79632306
       6007.1082      0.88424200
       6007.9973      0.82182480
       6008.8864      0.82322421
       6009.7755      0.79239897
       6010.6646      0.73434531
       6011.5536      0.90256489
       6012.4427      0.86230077
       6013.3318      0.80441032
       6014.2209      0.83393108
       6015.1100      0.75543587
       6015.9990      0.74918260
       6016.8881      0.84692463
       6017.7772      0.83684662
       6018.6663      0.91795859
       6019.5553      0.84956475
       6020.4444      0.84567010
       6021.3335      0.74965045
       6022.2226      0.70885919
       6023.1117      0.82968363
       6024.0007      0.81839730
       6024.8898      0.94077683
       6025.7789      0.81205933
       6026.6680      0.88969228
       6027.5570      0.97533385
       6028.4461      0.91532297
       6029.3352      0.84982884
       6030.2243      0.86640308
       6031.1134      0.91282993
       6032.0024      0.79500108
       6032.8915      0.89901560
       6033.7806      0.70930423
       6034.6697      0.79543355
       6035.5587      0.82315214
       6036.4478      0.91117410
       6037.3369      0.80783795
       6038.2260      0.80512882
       6039.1151      0.80254291
       6040.0041      0.88190794
       6040.8932      0.80720585
       6041.7823      0.86642795
       6042.6714      0.80943086
       6043.5604      0.84383672
       6044.4495      0.79427679
       6045.3386      0.77611066
       6046.2277      0.81671095
       6047.1168      0.85312458
       6048.0058      0.81714416
       6048.8949      0.79162911
       6049.7840      0.91365690
       6050.6731      0.81889160
       6051.5622      0.82686264
       6052.4512      0.86985350
       6053.3403      0.88967578
       6054.2294      0.90815500
       6055.1185      0.75700007
       6056.0075      0.86299406
       6056.8966      0.77421564
       6057.7857      0.85344867
       6058.6748      0.86832318
       6059.5639      0.82644036
       6060.4529      0.90647743
       6061.3420      0.85634073
       6062.2311      0.82463517
       6063.1202      0.77621025
       6064.0092      0.74487516
       6064.8983      0.83952398
       6065.7874      0.77790258
       6066.6765      0.72144124
       6067.5656      0.82814286
       6068.4546      0.90380306
       6069.3437      0.79859301
       6070.2328      0.80731743
       6071.1219      0.82108960
       6072.0109      0.86512187
       6072.9000      0.86054319
       6073.7891      0.83036049
       6074.6782      0.79106632
       6075.5673      0.91039468
       6076.4563      0.84320000
       6077.3454      0.80581476
       6078.2345      0.83568708
       6079.1236      0.88421169
       6080.0126      0.83141192
       6080.9017      0.88181623
       6081.7908      0.75633967
       6082.6799      0.71512140
       6083.5690      0.82537486
       6084.4580      0.81957494
       6085.3471      0.79702107
       6086.2362      0.82847023
       6087.1253      0.78751366
       6088.0144      0.79106613
       6088.9034      0.74987996
       6089.7925      0.81478505
       6090.6816      0.82213985
       6091.5707      0.75670378
       6092.4597      0.75599346
       6093.3488      0.84543856
       6094.2379      0.75048538
       6095.1270      0.80095557
       6096.0161      0.82399058
       6096.9051      0.76660992
       6097.7942      0.86780024
       6098.6833      0.80125058
       6099.5724      0.76476580
       6100.4614      0.84158261
       6101.3505      0.86459252
       6102.2396      0.86469197
       6103.1287      0.96300551
       6104.0178      0.82853830
       6104.9068      0.92142743
       6105.7959      0.84468856
       6106.6850      0.89095143
       6107.5741      0.81765122
       6108.4631      0.81464397
       6109.3522      0.95675563
       6110.2413      0.82155244
       6111.1304      0.82424906
       6112.0195      0.77165607
       6112.9085      0.82296169
       6113.7976      0.77934974
       6114.6867      0.72246381
       6115.5758      0.74553488
       6116.4648      0.76206489
       6117.3539      0.82386431
       6118.2430      0.86292905
       6119.1321      0.84681785
       6120.0212      0.83535686
       6120.9102      0.85094264
       6121.7993      0.76658282
       6122.6884      0.81406296
       6123.5775      0.92584160
       6124.4665      0.91233033
       6125.3556      0.88359382
       6126.2447      0.90404484
       6127.1338      0.84939826
       6128.0229      0.67683022
       6128.9119      0.71066581
       6129.8010      0.69830456
       6130.6901      0.78749181
       6131.5792      0.83696454
       6132.4683      0.74722144
       6133.3573      0.71261876
       6134.2464      0.77490416
       6135.1355      0.70666708
       6136.0246      0.73753449
       6136.9136      0.69289540
       6137.8027      0.71134522
       6138.6918      0.74860800
       6139.5809      0.83901749
       6140.4700      0.66806841
       6141.3590      0.75707564
       6142.2481      0.82389103
       6143.1372      0.74706140
       6144.0263      0.81925293
       6144.9153      0.78017192
       6145.8044      0.70489425
       6146.6935      0.75807410
       6147.5826      0.87069757
       6148.4717      0.95064827
       6149.3607      0.84952509
       6150.2498      0.95830736
       6151.1389       1.0234509
       6152.0280      0.99693192
       6152.9170      0.91899014
       6153.8061      0.94711895
       6154.6952      0.91936412
       6155.5843      0.97476243
       6156.4734      0.84625964
       6157.3624      0.86405631
       6158.2515      0.86528514
       6159.1406      0.91208425
       6160.0297      0.85313067
       6160.9187      0.80964198
       6161.8078      0.69116394
       6162.6969      0.78663491
       6163.5860      0.81087036
       6164.4751      0.81372393
       6165.3641      0.75831185
       6166.2532      0.64623583
       6167.1423      0.75968924
       6168.0314      0.78770233
       6168.9205      0.72738762
       6169.8095      0.77374396
       6170.6986      0.74377560
       6171.5877      0.73745433
       6172.4768      0.86121270
       6173.3658      0.74593148
       6174.2549      0.85155910
       6175.1440      0.85124117
       6176.0331      0.79366266
       6176.9222      0.79823009
       6177.8112      0.97691045
       6178.7003      0.93307016
       6179.5894      0.75500311
       6180.4785      0.61023933
       6181.3675      0.84316266
       6182.2566      0.79603758
       6183.1457      0.72960302
       6184.0348      0.75021626
       6184.9239      0.83991584
       6185.8129      0.85018439
       6186.7020      0.89814292
       6187.5911       1.0041261
       6188.4802      0.95569323
       6189.3692      0.88776911
       6190.2583      0.78428692
       6191.1474      0.83994536
       6192.0365      0.80317279
       6192.9256      0.71607562
       6193.8146      0.77204888
       6194.7037      0.82793214
       6195.5928      0.71668941
       6196.4819      0.80005321
       6197.3709      0.94973572
       6198.2600      0.89114877
       6199.1491      0.70308410
       6200.0382      0.85246234
       6200.9273      0.79825077
       6201.8163      0.76849371
       6202.7054      0.77738814
       6203.5945      0.78731595
       6204.4836      0.75412404
       6205.3727      0.78408106
       6206.2617      0.73727502
       6207.1508      0.77198950
       6208.0399      0.82345786
       6208.9290      0.85153074
       6209.8180      0.84434086
       6210.7071      0.81326987
       6211.5962      0.77794870
       6212.4853      0.79128252
       6213.3744      0.73796567
       6214.2634      0.79228974
       6215.1525      0.81283138
       6216.0416      0.90152316
       6216.9307      0.90933258
       6217.8197      0.99170372
       6218.7088       1.2247171
       6219.5979       1.5023656
       6220.4870       1.5989379
       6221.3761       1.3299893
       6222.2651       1.1384870
       6223.1542       1.2249175
       6224.0433       1.5556770
       6224.9324       1.8914999
       6225.8214       1.4695976
       6226.7105      0.90335447
       6227.5996      0.85361740
       6228.4887      0.79077712
       6229.3778      0.85244276
       6230.2668      0.98547353
       6231.1559      0.80437814
       6232.0450      0.86334483
       6232.9341      0.76761684
       6233.8231      0.86580851
       6234.7122      0.78920856
       6235.6013      0.74193108
       6236.4904      0.79808141
       6237.3795      0.85195625
       6238.2685      0.87711740
       6239.1576      0.83924100
       6240.0467      0.82005859
       6240.9358      0.83472012
       6241.8249      0.87414432
       6242.7139      0.92638974
       6243.6030      0.91498877
       6244.4921      0.76286196
       6245.3812      0.78363448
       6246.2702      0.78962354
       6247.1593      0.75993174
       6248.0484      0.71036594
       6248.9375      0.79566295
       6249.8266      0.75051333
       6250.7156      0.83732288
       6251.6047      0.83037066
       6252.4938      0.89381820
       6253.3829      0.88274870
       6254.2719      0.94477399
       6255.1610      0.91873380
       6256.0501      0.83290947
       6256.9392      0.77687631
       6257.8283      0.78526311
       6258.7173      0.79677880
       6259.6064      0.83669985
       6260.4955      0.96511328
       6261.3846      0.90933954
       6262.2736      0.96592349
       6263.1627      0.79717501
       6264.0518      0.85898039
       6264.9409      0.66662342
       6265.8300      0.92469751
       6266.7190      0.82228061
       6267.6081      0.86079297
       6268.4972      0.87740482
       6269.3863      0.86703963
       6270.2753      0.76024335
       6271.1644      0.87444647
       6272.0535      0.89662159
       6272.9426      0.93204777
       6273.8317      0.93146619
       6274.7207      0.94754061
       6275.6098      0.74651199
       6276.4989      0.89234072
       6277.3880      0.90381531
       6278.2771      0.92788576
       6279.1661      0.96420539
       6280.0552      0.86595032
       6280.9443      0.79515895
       6281.8334      0.84051181
       6282.7224      0.92158313
       6283.6115       1.0946803
       6284.5006       1.0459842
       6285.3897       1.1167340
       6286.2788       1.0366843
       6287.1678      0.85164008
       6288.0569      0.56350703
       6288.9460      0.51164419
       6289.8351      0.88765330
       6290.7241      0.82115894
       6291.6132      0.78782163
       6292.5023      0.89743322
       6293.3914      0.88720974
       6294.2805      0.82905697
       6295.1695      0.79737341
       6296.0586      0.92618743
       6296.9477       1.0011846
       6297.8368      0.92900696
       6298.7258      0.99507956
       6299.6149       1.0492791
       6300.5040      0.81364270
       6301.3931      0.89182263
       6302.2822      0.96958345
       6303.1712      0.97195128
       6304.0603      0.93671726
       6304.9494       1.0478941
       6305.8385       1.0166060
       6306.7275      0.94619936
       6307.6166      0.92666327
       6308.5057      0.88713095
       6309.3948      0.96650221
       6310.2839       1.0663029
       6311.1729       1.2674438
       6312.0620       1.0581867
       6312.9511      0.84006467
       6313.8402      0.89290572
       6314.7293      0.91079471
       6315.6183      0.77139075
       6316.5074      0.83928001
       6317.3965      0.86737911
       6318.2856      0.95466076
       6319.1746      0.91255971
       6320.0637      0.81319999
       6320.9528      0.84998252
       6321.8419      0.83817890
       6322.7310      0.90177786
       6323.6200      0.90582041
       6324.5091      0.87735144
       6325.3982      0.94042724
       6326.2873      0.94015191
       6327.1763       1.0126252
       6328.0654      0.98369215
       6328.9545      0.91255722
       6329.8436      0.86828533
       6330.7327      0.97537444
       6331.6217      0.97718110
       6332.5108       1.1406634
       6333.3999       1.0903069
       6334.2890      0.97432773
       6335.1780      0.91268962
       6336.0671       1.0772915
       6336.9562       1.0455414
       6337.8453       1.0255174
       6338.7344       1.0099516
       6339.6234      0.85901816
       6340.5125      0.79355189
       6341.4016      0.83352780
       6342.2907       1.0310777
       6343.1797       1.0111240
       6344.0688      0.85408672
       6344.9579      0.91977300
       6345.8470      0.82746992
       6346.7361      0.86468400
       6347.6251      0.87708424
       6348.5142      0.89516530
       6349.4033      0.89055805
       6350.2924      0.85070754
       6351.1815      0.85112543
       6352.0705      0.92443301
       6352.9596      0.99473439
       6353.8487      0.95268764
       6354.7378      0.90791884
       6355.6268      0.90396698
       6356.5159      0.90894469
       6357.4050      0.88474428
       6358.2941      0.99006626
       6359.1832      0.96589935
       6360.0722      0.92748482
       6360.9613      0.93316836
       6361.8504      0.88774572
       6362.7395      0.77040396
       6363.6285      0.81069870
       6364.5176      0.98238796
       6365.4067       1.0051500
       6366.2958       1.0412903
       6367.1849       1.0691337
       6368.0739      0.98010495
       6368.9630      0.83897344
       6369.8521      0.88766090
       6370.7412      0.97398286
       6371.6302      0.98073965
       6372.5193      0.91725159
       6373.4084       1.1035412
       6374.2975       1.1231188
       6375.1866      0.88780932
       6376.0756      0.91304501
       6376.9647      0.90437118
       6377.8538      0.90830165
       6378.7429      0.91383458
       6379.6319      0.94289917
       6380.5210      0.92852377
       6381.4101      0.83788498
       6382.2992      0.90786463
       6383.1883      0.90298098
       6384.0773      0.94460140
       6384.9664      0.95421441
       6385.8555      0.90634615
       6386.7446      0.87362031
       6387.6337      0.90110992
       6388.5227      0.94285191
       6389.4118      0.92034204
       6390.3009      0.89225217
       6391.1900      0.91386448
       6392.0790      0.93432004
       6392.9681      0.95798151
       6393.8572      0.87951868
       6394.7463      0.90889348
       6395.6354      0.91408835
       6396.5244      0.86196369
       6397.4135      0.81921460
       6398.3026      0.86389023
       6399.1917      0.91606626
       6400.0807      0.94209160
       6400.9698      0.82899941
       6401.8589      0.96900294
       6402.7480      0.99175990
       6403.6371      0.90816705
       6404.5261      0.94246998
       6405.4152      0.95334271
       6406.3043      0.98139872
       6407.1934      0.91019902
       6408.0824      0.90204799
       6408.9715      0.95670019
       6409.8606      0.99460275
       6410.7497      0.97086389
       6411.6388      0.93894182
       6412.5278      0.90045786
       6413.4169      0.95708482
       6414.3060      0.95590870
       6415.1951      0.89928522
       6416.0841      0.92389096
       6416.9732      0.92164793
       6417.8623      0.83948364
       6418.7514      0.86972944
       6419.6405      0.94376360
       6420.5295       1.0255946
       6421.4186       1.0357568
       6422.3077      0.92849379
       6423.1968      0.93989173
       6424.0859      0.94791583
       6424.9749       1.0977227
       6425.8640       1.1923988
       6426.7531      0.95365737
       6427.6422      0.73451270
       6428.5312      0.89893659
       6429.4203       1.0316512
       6430.3094       1.0712721
       6431.1985       1.1616764
       6432.0876       1.0003105
       6432.9766      0.88742031
       6433.8657      0.93306997
       6434.7548      0.88311245
       6435.6439       1.0231679
       6436.5329       1.0661422
       6437.4220       1.1777248
       6438.3111       1.0083087
       6439.2002      0.85201664
       6440.0893      0.85941655
       6440.9783      0.96199957
       6441.8674      0.97711485
       6442.7565       1.0073085
       6443.6456      0.92899586
       6444.5346      0.87263099
       6445.4237      0.98760431
       6446.3128      0.95887690
       6447.2019      0.97610478
       6448.0910      0.98574467
       6448.9800       1.0345259
       6449.8691       1.0209971
       6450.7582       1.0337646
       6451.6473      0.90465572
       6452.5363       1.0192423
       6453.4254       1.1329203
       6454.3145       1.2613796
       6455.2036      0.99256669
       6456.0927      0.80401092
       6456.9817      0.87209662
       6457.8708      0.92798236
       6458.7599      0.94748625
       6459.6490      0.96634008
       6460.5381       1.1369085
       6461.4271       1.0695559
       6462.3162       1.2560401
       6463.2053       1.3381977
       6464.0944       1.1200112
       6464.9834       1.0109770
       6465.8725      0.94813265
       6466.7616      0.93119253
       6467.6507      0.85208190
       6468.5398      0.88319513
       6469.4288      0.99465223
       6470.3179      0.96850820
       6471.2070      0.94635056
       6472.0961      0.89396720
       6472.9851      0.95625721
       6473.8742       1.0849401
       6474.7633       1.0981666
       6475.6524       1.0527919
       6476.5415       1.0134661
       6477.4305      0.90960607
       6478.3196      0.98844493
       6479.2087       1.0422190
       6480.0978       1.0111032
       6480.9868      0.95840394
       6481.8759       1.0019752
       6482.7650       1.0256845
       6483.6541      0.93645564
       6484.5432      0.96985937
       6485.4322      0.95014439
       6486.3213      0.86421378
       6487.2104      0.93801631
       6488.0995      0.97274911
       6488.9885       1.0481259
       6489.8776      0.95051448
       6490.7667      0.95197957
       6491.6558       1.0336229
       6492.5449      0.93505277
       6493.4339      0.87865302
       6494.3230      0.97179293
       6495.2121       1.0239904
       6496.1012      0.99919771
       6496.9903      0.94453788
       6497.8793      0.88123046
       6498.7684      0.84516495
       6499.6575      0.95171717
       6500.5466      0.97027506
       6501.4356      0.83384445
       6502.3247      0.84634704
       6503.2138      0.84741658
       6504.1029      0.91216497
       6504.9920      0.95707437
       6505.8810      0.92814401
       6506.7701      0.98930258
       6507.6592      0.95049703
       6508.5483      0.95555884
       6509.4373      0.93398844
       6510.3264      0.93033330
       6511.2155      0.91646453
       6512.1046      0.91075856
       6512.9937      0.90507708
       6513.8827      0.82926065
       6514.7718      0.92693203
       6515.6609      0.92185253
       6516.5500      0.92180300
       6517.4390      0.93718982
       6518.3281      0.86668490
       6519.2172      0.82722814
       6520.1063      0.91472739
       6520.9954      0.95386490
       6521.8844      0.88493904
       6522.7735      0.81306431
       6523.6626      0.83137518
       6524.5517      0.91701479
       6525.4407      0.96673478
       6526.3298      0.88382237
       6527.2189       1.0008475
       6528.1080      0.95887902
       6528.9971       1.0444061
       6529.8861      0.94649418
       6530.7752      0.89285943
       6531.6643      0.90472181
       6532.5534       1.0498610
       6533.4425       1.1197999
       6534.3315      0.96366945
       6535.2206      0.87255018
       6536.1097      0.84558816
       6536.9988      0.87114434
       6537.8878      0.81983669
       6538.7769      0.76951924
       6539.6660      0.81495137
       6540.5551      0.81081926
       6541.4442      0.84015226
       6542.3332      0.71832119
       6543.2223      0.92530571
       6544.1114      0.99498090
       6545.0005       1.1451634
       6545.8895       1.3104712
       6546.7786       1.2782505
       6547.6677       1.2956784
       6548.5568       1.2130137
       6549.4459       1.2016929
       6550.3349       1.2716355
       6551.2240       1.4407515
       6552.1131       1.5382607
       6553.0022       1.4417421
       6553.8912       1.2170801
       6554.7803       1.2489364
       6555.6694      0.98358894
       6556.5585      0.99325230
       6557.4476      0.97832832
       6558.3366      0.82225057
       6559.2257      0.84105316
       6560.1148      0.87865823
       6561.0039      0.92519301
       6561.8929       1.0158747
       6562.7820       1.2179934
       6563.6711       1.8561329
       6564.5602       3.0616170
       6565.4493       4.6759280
       6566.3383       5.7418539
       6567.2274       5.4192053
       6568.1165       4.1545504
       6569.0056       2.6827593
       6569.8947       1.6735309
       6570.7837       1.2310853
       6571.6728       1.0113986
       6572.5619      0.97594803
       6573.4510      0.95974329
       6574.3400      0.87899081
       6575.2291      0.82637740
       6576.1182      0.87128044
       6577.0073      0.96613103
       6577.8964       1.2280557
       6578.7854       1.0860449
       6579.6745       1.3427833
       6580.5636       1.2426835
       6581.4527      0.95227684
       6582.3417      0.93673626
       6583.2308      0.82242602
       6584.1199       1.2467888
       6585.0090       1.6534520
       6585.8981       2.3354986
       6586.7871       2.7083062
       6587.6762       2.5131882
       6588.5653       2.0037762
       6589.4544       1.4522635
       6590.3434      0.86775379
       6591.2325      0.84128174
       6592.1216      0.87260613
       6593.0107      0.94069238
       6593.8998      0.95814409
       6594.7888      0.92776240
       6595.6779      0.98765724
       6596.5670       1.0333406
       6597.4561      0.94402819
       6598.3451      0.85546400
       6599.2342      0.94110370
       6600.1233      0.98560040
       6601.0124      0.97815413
       6601.9015      0.92980556
       6602.7905      0.93449358
       6603.6796      0.95444802
       6604.5687      0.89327798
       6605.4578      0.86570501
       6606.3469      0.97828301
       6607.2359       1.0708954
       6608.1250       1.1313347
       6609.0141       1.0158735
       6609.9032       1.0962118
       6610.7922       1.0582739
       6611.6813      0.91106894
       6612.5704      0.87865419
       6613.4595       1.0055865
       6614.3486      0.94165276
       6615.2376      0.90502874
       6616.1267      0.94215972
       6617.0158       1.0261830
       6617.9049       1.0256242
       6618.7939       1.1049914
       6619.6830       1.0627395
       6620.5721       1.0749346
       6621.4612       1.3777111
       6622.3503      0.96356271
       6623.2393      0.79720624
       6624.1284      0.90460681
       6625.0175      0.98234459
       6625.9066       1.1672597
       6626.7956      0.58894051
       6627.6847      0.71348108
       6628.5738      0.97640854
       6629.4629       1.0902688
       6630.3520       1.0655138
       6631.2410      0.99850829
       6632.1301       1.0081616
       6633.0192       1.0294188
       6633.9083       1.0625853
       6634.7973       1.1605465
       6635.6864       1.2023100
       6636.5755       1.1619385
       6637.4646       1.1078149
       6638.3537       1.0091875
       6639.2427       1.0978258
       6640.1318       1.1396697
       6641.0209       1.0037959
       6641.9100       1.0345278
       6642.7991       1.0781791
       6643.6881      0.96243348
       6644.5772       1.0225970
       6645.4663       1.0780413
       6646.3554       1.2153744
       6647.2444       1.0405314
       6648.1335      0.99025268
       6649.0226       1.1445412
       6649.9117       1.3071456
       6650.8008       1.1138752
       6651.6898      0.75699687
       6652.5789      0.83038650
       6653.4680      0.95983132
       6654.3571       1.0829906
       6655.2461       1.0033993
       6656.1352       1.0516185
       6657.0243       1.0435180
       6657.9134       1.0657064
       6658.8025       1.1181491
       6659.6915      0.98227011
       6660.5806      0.95989269
       6661.4697       1.0931426
       6662.3588       1.0538675
       6663.2478       1.0256712
       6664.1369       1.1446231
       6665.0260       1.0165779
       6665.9151      0.83082856
       6666.8042       1.0708634
       6667.6932       1.2455914
       6668.5823       1.0436449
       6669.4714      0.89754551
       6670.3605       1.0721378
       6671.2495       1.0377185
       6672.1386       1.0039370
       6673.0277       1.1437314
       6673.9168       1.0525532
       6674.8059       1.0890964
       6675.6949      0.99906336
       6676.5840      0.76820904
       6677.4731       1.0070704
       6678.3622       1.3643605
       6679.2513       1.2090424
       6680.1403      0.95075865
       6681.0294      0.99065641
       6681.9185      0.94983759
       6682.8076      0.93315470
       6683.6966       1.0009150
       6684.5857      0.99049060
       6685.4748       1.0409008
       6686.3639       1.0394359
       6687.2530       1.0009243
       6688.1420       1.1053309
       6689.0311       1.0896100
       6689.9202       1.0114474
       6690.8093       1.0277675
       6691.6983       1.0220668
       6692.5874       1.0327137
       6693.4765      0.94825600
       6694.3656      0.96143921
       6695.2547       1.0218584
       6696.1437       1.0021717
       6697.0328      0.94389568
       6697.9219      0.91240595
       6698.8110      0.92324028
       6699.7000       1.0003906
       6700.5891       1.0066363
       6701.4782      0.90962947
       6702.3673      0.98654194
       6703.2564      0.98717724
       6704.1454      0.95831331
       6705.0345      0.91263845
       6705.9236      0.94984992
       6706.8127      0.98345090
       6707.7017       1.0179852
       6708.5908      0.91049411
       6709.4799      0.75500166
       6710.3690      0.82865964
       6711.2581      0.88246995
       6712.1471       1.0371306
       6713.0362      0.81312346
       6713.9253      0.77745991
       6714.8144      0.83886443
       6715.7035       1.0359737
       6716.5925       1.2176704
       6717.4816       1.2772100
       6718.3707       1.4723537
       6719.2598       1.7135691
       6720.1488       1.7213208
       6721.0379       1.6539572
       6721.9270       1.3148813
       6722.8161       1.0335285
       6723.7052      0.94529820
       6724.5942      0.89137345
       6725.4833      0.87236442
       6726.3724      0.92543747
       6727.2615       1.0190003
       6728.1505       1.0456587
       6729.0396       1.0087054
       6729.9287      0.95831022
       6730.8178       1.0626569
       6731.7069       1.2551594
       6732.5959       1.4270244
       6733.4850       1.5419656
       6734.3741       1.6792082
       6735.2632       1.4645304
       6736.1522       1.2872207
       6737.0413       1.2321873
       6737.9304       1.1750682
       6738.8195       1.0197400
       6739.7086      0.88657963
       6740.5976       1.0000128
       6741.4867      0.95881842
       6742.3758      0.98073372
       6743.2649      0.99409788
       6744.1539      0.91255878
       6745.0430      0.93009254
       6745.9321      0.99133754
       6746.8212       1.0776019
       6747.7103       1.0816234
       6748.5993       1.0289185
       6749.4884      0.92336082
       6750.3775      0.91996816
       6751.2666      0.97058922
       6752.1557      0.92658142
       6753.0447      0.91894218
       6753.9338       1.0227943
       6754.8229      0.98426294
       6755.7120      0.95459922
       6756.6010       1.0240960
       6757.4901      0.99927453
       6758.3792      0.97277191
       6759.2683       1.0415687
       6760.1574       1.0447211
       6761.0464      0.90019247
       6761.9355      0.92824529
       6762.8246      0.98667451
       6763.7137      0.90415609
       6764.6027      0.92896196
       6765.4918      0.98263702
       6766.3809       1.0030773
       6767.2700      0.91919010
       6768.1591      0.94555491
       6769.0481      0.96131311
       6769.9372      0.94001923
       6770.8263      0.94855243
       6771.7154      0.95728495
       6772.6044      0.97380140
       6773.4935       1.0277360
       6774.3826       1.0020917
       6775.2717      0.96304171
       6776.1608       1.1353040
       6777.0498       1.1493387
       6777.9389       1.1625396
       6778.8280       1.0773641
       6779.7171       1.1107282
       6780.6061       1.0604124
       6781.4952       1.0784800
       6782.3843       1.0670186
       6783.2734       1.1035383
       6784.1625       1.0695961
       6785.0515       1.1065088
       6785.9406       1.1042299
       6786.8297       1.0778117
       6787.7188      0.96622105
       6788.6079       1.1212657
       6789.4969      0.98369699
       6790.3860      0.99449453
       6791.2751       1.0611669
       6792.1642       1.1739733
       6793.0532       1.1580100
       6793.9423       1.0254301
       6794.8314      0.97697082
       6795.7205       1.0526558
       6796.6096       1.0322953
       6797.4986      0.97416495
       6798.3877      0.94209086
       6799.2768       1.0565436
       6800.1659       1.0891235
       6801.0549      0.95758406
       6801.9440      0.96504233
       6802.8331       1.0182581
       6803.7222      0.98262071
       6804.6113      0.99891475
       6805.5003      0.94985143
       6806.3894      0.91878255
       6807.2785      0.94859449
       6808.1676      0.90934827
       6809.0566      0.87727034
       6809.9457      0.94197553
       6810.8348      0.94620494
       6811.7239      0.89153489
       6812.6130      0.88294774
       6813.5020       1.0384219
       6814.3911       1.0256670
       6815.2802      0.98270746
       6816.1693       1.0686492
       6817.0583       1.0928394
       6817.9474       1.0422486
       6818.8365      0.99589275
       6819.7256      0.94999502
       6820.6147      0.94004070
       6821.5037       1.0457293
       6822.3928       1.0732078
       6823.2819       1.0386401
       6824.1710       1.0314556
       6825.0601      0.93122330
       6825.9491      0.96270106
       6826.8382       1.0122919
       6827.7273       1.0470958
       6828.6164      0.98359459
       6829.5054      0.96662851
       6830.3945      0.97474955
       6831.2836      0.84307821
       6832.1727      0.89285793
       6833.0618      0.94980902
       6833.9508      0.84523741
       6834.8399      0.89333490
       6835.7290      0.89848923
       6836.6181      0.98061269
       6837.5071       1.0324870
       6838.3962      0.94893662
       6839.2853      0.98056994
       6840.1744      0.96520404
       6841.0635      0.94567936
       6841.9525      0.97537553
       6842.8416      0.91255591
       6843.7307       1.0415325
       6844.6198       1.0714571
       6845.5088      0.96493262
       6846.3979      0.84709001
       6847.2870      0.89929416
       6848.1761       1.0330569
       6849.0652       1.0501269
       6849.9542       1.0771650
       6850.8433       1.0597475
       6851.7324       1.0194992
       6852.6215       1.0849816
       6853.5105       1.0944637
       6854.3996       1.0164129
       6855.2887      0.93400719
       6856.1778      0.99141624
       6857.0669       1.1143431
       6857.9559       1.0356646
       6858.8450       1.0552272
       6859.7341      0.95986271
       6860.6232      0.93189404
       6861.5123       1.0381952
       6862.4013      0.93533350
       6863.2904      0.92608235
       6864.1795       1.0360265
       6865.0686       1.1472957
       6865.9576       1.2267604
       6866.8467       1.1992032
       6867.7358       1.1019976
       6868.6249       1.1239183
       6869.5140       1.1417168
       6870.4030       1.0496158
       6871.2921       1.0525394
       6872.1812      0.99423161
       6873.0703      0.83912901
       6873.9593      0.98856025
       6874.8484       1.1208318
       6875.7375       1.0973528
       6876.6266       1.1072608
       6877.5157      0.97308370
       6878.4047      0.88740344
       6879.2938      0.92632484
       6880.1829       1.0790520
       6881.0720       1.0581204
       6881.9610       1.0829751
       6882.8501       1.1161382
       6883.7392      0.97343796
       6884.6283       1.0124082
       6885.5174       1.1327188
       6886.4064       1.0101651
       6887.2955      0.98238704
       6888.1846      0.98236185
       6889.0737       1.1061893
       6889.9627      0.91804668
       6890.8518      0.86880919
       6891.7409       1.0703676
       6892.6300       1.0295916
       6893.5191       1.0865127
       6894.4081      0.99780949
       6895.2972      0.95529947
       6896.1863       1.0422227
       6897.0754       1.0034948
       6897.9645       1.0821838
       6898.8535       1.0781799
       6899.7426      0.94965199
       6900.6317       1.0943444
       6901.5208       1.1041674
       6902.4098       1.1708265
       6903.2989      0.99971661
       6904.1880       1.1273709
       6905.0771       1.1401121
       6905.9662       1.1769205
       6906.8552       1.1108052
       6907.7443       1.0417422
       6908.6334       1.1053572
       6909.5225      0.99078554
       6910.4115       1.0572344
       6911.3006       1.1294718
       6912.1897       1.1918360
       6913.0788       1.1666210
       6913.9679      0.97369623
       6914.8569      0.77859467
       6915.7460      0.70156755
       6916.6351      0.89692714
       6917.5242      0.89168527
       6918.4132      0.84846897
       6919.3023      0.89977825
       6920.1914      0.94504916
       6921.0805      0.88167573
       6921.9696       1.0043754
       6922.8586       1.0201806
       6923.7477      0.88514358
       6924.6368       1.1105641
       6925.5259       1.0080475
       6926.4149      0.93640617
       6927.3040      0.89643055
       6928.1931      0.84690987
       6929.0822      0.97276048
       6929.9713       1.0457495
       6930.8603      0.91024854
       6931.7494      0.81586860
       6932.6385      0.90987280
       6933.5276       1.0398918
       6934.4167       1.0431914
       6935.3057       1.0744392
       6936.1948      0.89112038
       6937.0839      0.98289545
       6937.9730      0.69454193
       6938.8620      0.75888389
       6939.7511      0.52118937
       6940.6402      0.93168431
       6941.5293      0.66218993
       6942.4184      0.82520549
       6943.3074      0.43910545
       6944.1965     0.036069866
       6945.0856      0.47739949
       6945.9747      0.71527481
       6946.8637       1.0168836
       6947.7528      0.75125782
       6948.6419       1.1390055
       6949.5310      0.70867151
       6950.4201      0.63204570
       6951.3091      0.80009641
       6952.1982      0.33038305
       6953.0873      0.68315803
       6953.9764      0.78559846
       6954.8654      0.68601071
       6955.7545      0.83667558
       6956.6436      0.68754297
       6957.5327      0.69516464
       6958.4218      0.60072882
       6959.3108      0.78441734
       6960.1999       1.1132881
       6961.0890      0.94534692
       6961.9781      0.55097240
       6962.8671      0.43478624
       6963.7562      0.50425649
       6964.6453      0.57492869
       6965.5344      0.54097137
       6966.4235      0.56913024
       6967.3125      0.83173878
       6968.2016      0.92965146
       6969.0907      0.94658470
       6969.9798      0.85541609
       6970.8689      0.64463219
       6971.7579      0.65607070
       6972.6470      0.63992912
       6973.5361      0.61634295
       6974.4252      0.56385784
       6975.3142      0.78077115
       6976.2033      0.76782702
       6977.0924      0.66549921
       6977.9815      0.79259072
       6978.8706      0.85249016
       6979.7596      0.76736779
       6980.6487      0.78405729
       6981.5378      0.71657154
       6982.4269      0.68117085
       6983.3159      0.65679022
       6984.2050      0.68078180
       6985.0941      0.91851769
       6985.9832      0.77620868
       6986.8723      0.33428981
       6987.7613      0.74210041
       6988.6504      0.82792958
       6989.5395      0.86361599
       6990.4286      0.42690152
       6991.3176    -0.045931833
       6992.2067      0.76451631
       6993.0958      0.64371475
       6993.9849      0.59927532
       6994.8740      0.51801065
       6995.7630      0.87858506
       6996.6521      0.80223406
       6997.5412      0.85953702
       6998.4303      0.70707714
       6999.3193      0.72606160
       7000.2084      0.83352609
       7001.0975      0.86763042
       7001.9866       1.0011794
       7002.8757       1.0391319
       7003.7647      0.84725522
       7004.6538      0.95522679
       7005.5429      0.88947207
       7006.4320      0.69342736
       7007.3211      0.84452898
       7008.2101      0.80709115
       7009.0992      0.91940591
       7009.9883      0.75040445
       7010.8774      0.83674934
       7011.7664       1.2902691
       7012.6555       1.0536387
       7013.5446      0.85413569
       7014.4337      0.85648910
       7015.3228      0.88592028
       7016.2118      0.97321186
       7017.1009      0.97219197
       7017.9900      0.86775264
       7018.8791      0.62615128
       7019.7681      0.50185615
       7020.6572      0.69719227
       7021.5463       1.0082330
       7022.4354      0.79086664
       7023.3245      0.74810402
       7024.2135      0.69716010
       7025.1026      0.54773582
       7025.9917      0.71948557
       7026.8808      0.59722088
       7027.7698      0.62324708
       7028.6589      0.67747583
       7029.5480      0.74266898
       7030.4371      0.81649338
       7031.3262      0.90088736
       7032.2152      0.96572974
       7033.1043       1.4748714
       7033.9934      0.99226950
       7034.8825      0.92829225
       7035.7715      0.44575606
       7036.6606     0.082544394
       7037.5497     0.066779521
       7038.4388     -0.82214505
       7039.3279      0.31409069
       7040.2169      0.53477249
       7041.1060      0.84490269
       7041.9951      0.88999403
       7042.8842      0.91405857
       7043.7733      0.94202400
       7044.6623       1.0293152
       7045.5514      0.81764267
       7046.4405      0.78222063
       7047.3296      0.90621051
       7048.2186      0.42957338
       7049.1077      0.37673694
       7049.9968      0.56160836
       7050.8859      0.66635108
       7051.7750      0.49392662
       7052.6640      0.42025245
       7053.5531      0.76020373
       7054.4422      0.65329153
       7055.3313      0.85473515
       7056.2203      0.87010782
       7057.1094      0.83544507
       7057.9985      0.85253906
       7058.8876      0.77917940
       7059.7767      0.93983490
       7060.6657       1.3537705
       7061.5548       1.0218766
       7062.4439      0.57432486
       7063.3330      0.47321540
       7064.2220      0.21957839
       7065.1111      0.52196647
       7066.0002      0.50575520
       7066.8893      0.69272955
       7067.7784      0.53050356
       7068.6674      0.65422585
       7069.5565      0.81125442
       7070.4456      0.87463830
       7071.3347      0.98042477
       7072.2237      0.85231251
       7073.1128      0.90836248
       7074.0019      0.86632882
       7074.8910      0.75778904
       7075.7801      0.69900969
       7076.6691      0.57963540
       7077.5582      0.76599015
       7078.4473      0.78821406
       7079.3364      0.66244872
       7080.2255      0.86033275
       7081.1145      0.33566954
       7082.0036      0.62273726
       7082.8927       1.0236735
       7083.7818      0.60736647
       7084.6708      0.51353215
       7085.5599      0.95079647
       7086.4490       1.3340186
       7087.3381       1.4284927
       7088.2272       1.1830813
       7089.1162      0.95673470
       7090.0053      0.99026365
       7090.8944       1.0264364
       7091.7835       1.0894228
       7092.6725       1.0072172
       7093.5616      0.38370528
       7094.4507      0.59207842
       7095.3398      0.67316355
       7096.2289      0.74464208
       7097.1179      0.28948074
       7098.0070      0.11326928
       7098.8961      0.51929236
       7099.7852      0.56150248
       7100.6742      0.64702894
       7101.5633      0.60616322
       7102.4524      0.70425459
       7103.3415      0.89298170
       7104.2306      0.83328537
       7105.1196      0.80477489
       7106.0087      0.79772248
       7106.8978      0.83879260
       7107.7869      0.67034156
       7108.6759      0.78841735
       7109.5650      0.70526756
       7110.4541      0.66633402
       7111.3432      0.77872843
       7112.2323      0.77807050
       7113.1213      0.73848912
       7114.0104      0.73992833
       7114.8995      0.89249703
       7115.7886      0.88207924
       7116.6777      0.89895698
       7117.5667      0.94231803
       7118.4558      0.77214897
       7119.3449      0.93299707
       7120.2340      0.60840972
       7121.1230      0.55967562
       7122.0121      0.54274716
       7122.9012      0.65242221
       7123.7903      0.55089786
       7124.6794      0.68021933
       7125.5684      0.74304377
       7126.4575      0.76544907
       7127.3466      0.88133796
       7128.2357       1.0290462
       7129.1247      0.54060587
       7130.0138      0.69961654
       7130.9029      0.74131386
       7131.7920      0.74255879
       7132.6811      0.49972168
       7133.5701      0.29408953
       7134.4592      0.70747611
       7135.3483      0.75451973
       7136.2374      0.73906649
       7137.1264       1.0208722
       7138.0155      0.99487467
       7138.9046      0.86574520
       7139.7937      0.76847078
       7140.6828      0.85811793
       7141.5718      0.69722707
       7142.4609      0.72902108
       7143.3500      0.84759798
       7144.2391      0.85355968
       7145.1281      0.92477426
       7146.0172      0.88096631
       7146.9063      0.82724809
       7147.7954      0.74051531
       7148.6845      0.75160908
       7149.5735      0.87083223
       7150.4626      0.60890310
       7151.3517      0.73092501
       7152.2408      0.70475530
       7153.1299      0.83466313
       7154.0189      0.85397796
       7154.9080      0.81964408
       7155.7971      0.79563275
       7156.6862      0.87700048
       7157.5752      0.90070873
       7158.4643      0.98869007
       7159.3534      0.88056667
       7160.2425      0.79341356
       7161.1316      0.66832363
       7162.0206      0.83247530
       7162.9097       1.0018772
       7163.7988       1.0323478
       7164.6879       1.2285303
       7165.5769       1.0542917
       7166.4660      0.98129182
       7167.3551       1.0761713
       7168.2442       1.1541633
       7169.1333       1.2104258
       7170.0223       1.2327765
       7170.9114       1.2617876
       7171.8005      0.89552996
       7172.6896      0.75924959
       7173.5786       1.0876060
       7174.4677      0.86023370
       7175.3568      0.80757107
       7176.2459      0.97039799
       7177.1350      0.87987360
       7178.0240      0.80166896
       7178.9131      0.94790956
       7179.8022       1.0399260
       7180.6913      0.89528890
       7181.5803      0.93007902
       7182.4694      0.82850374
       7183.3585      0.83357352
       7184.2476      0.69484040
       7185.1367      0.79460665
       7186.0257      0.88604867
       7186.9148      0.90801238
       7187.8039      0.90915447
       7188.6930      0.92340675
       7189.5821      0.87888614
       7190.4711      0.88505490
       7191.3602      0.78639242
       7192.2493      0.83968257
       7193.1384      0.79571642
       7194.0274      0.88897363
       7194.9165      0.97135333
       7195.8056      0.91677094
       7196.6947      0.57906387
       7197.5838      0.69629324
       7198.4728      0.70568530
       7199.3619      0.87038557
       7200.2510      0.88608236
       7201.1401      0.81511116
       7202.0291      0.59604741
       7202.9182      0.65388852
       7203.8073      0.77216944
       7204.6964      0.85947989
       7205.5855      0.48272911
       7206.4745      0.51846437
       7207.3636      0.66513465
       7208.2527      0.74808758
       7209.1418      0.55869690
       7210.0308      0.73557685
       7210.9199      0.89011845
       7211.8090      0.78281105
       7212.6981      0.98638233
       7213.5872      0.70115436
       7214.4762      0.54311272
       7215.3653      0.90898624
       7216.2544       1.0421858
       7217.1435      0.73473471
       7218.0325      0.55226396
       7218.9216      0.81660145
       7219.8107      0.80381719
       7220.6998      0.74495887
       7221.5889      0.81196234
       7222.4779      0.74074628
       7223.3670      0.93101457
       7224.2561      0.74650361
       7225.1452      0.82913511
       7226.0343      0.82967868
       7226.9233      0.97426660
       7227.8124      0.86790401
       7228.7015       1.0714762
       7229.5906      0.74192789
       7230.4796      0.68614730
       7231.3687      0.49793173
       7232.2578      0.59790161
       7233.1469      0.66912760
       7234.0360      0.90212160
       7234.9250      0.95690583
       7235.8141      0.92696144
       7236.7032      0.75782438
       7237.5923      0.91499601
       7238.4813      0.84037602
       7239.3704      0.74550370
       7240.2595      0.73561223
       7241.1486      0.75395896
       7242.0377       1.1012584
       7242.9267      0.53103437
       7243.8158      0.69999913
       7244.7049      0.87893986
       7245.5940      0.72645533
       7246.4830      0.46737760
       7247.3721      0.60934355
       7248.2612      0.93366523
       7249.1503      0.72361463
       7250.0394      0.93874509
       7250.9284      0.77544178
       7251.8175      0.90028636
       7252.7066      0.92283177
       7253.5957      0.75952467
       7254.4847      0.88956905
       7255.3738       1.0046555
       7256.2629      0.82876709
       7257.1520      0.94801636
       7258.0411       1.0461885
       7258.9301      0.57609996
       7259.8192      0.66357096
       7260.7083      0.55556549
       7261.5974      0.69490189
       7262.4865      0.77517709
       7263.3755      0.64439632
       7264.2646      0.51935434
       7265.1537      0.69372253
       7266.0428      0.49525918
       7266.9318      0.53086238
       7267.8209      0.72922022
       7268.7100      0.72741714
       7269.5991      0.75656790
       7270.4882      0.75606221
       7271.3772      0.82564268
       7272.2663      0.91740581
       7273.1554      0.78912728
       7274.0445      0.77823384
       7274.9335      0.80440197
       7275.8226      0.82367106
       7276.7117      0.90794707
       7277.6008      0.83229033
       7278.4899      0.86583556
       7279.3789      0.84156935
       7280.2680      0.80152493
       7281.1571      0.78823037
       7282.0462      0.82726800
       7282.9352      0.91883961
       7283.8243      0.99639821
       7284.7134      0.90885204
       7285.6025      0.91714400
       7286.4916      0.91601410
       7287.3806      0.83413983
       7288.2697      0.76624430
       7289.1588      0.73356624
       7290.0479      0.75294652
       7290.9369      0.74150985
       7291.8260      0.88815985
       7292.7151      0.93417327
       7293.6042      0.82420927
       7294.4933      0.93874577
       7295.3823      0.30032499
       7296.2714     -0.39542079
       7297.1605     -0.23729159
       7298.0496      0.10739637
       7298.9387      0.93763211
       7299.8277      0.29140955
       7300.7168      0.34105881
       7301.6059      0.31333894
       7302.4950      0.28763253
       7303.3840      0.81921001
       7304.2731      0.74435904
       7305.1622      0.90163421
       7306.0513      0.79905228
       7306.9404      0.47393325
       7307.8294      0.68192758
       7308.7185      0.53256609
       7309.6076      0.80223656
       7310.4967      0.87938798
       7311.3857      0.71505811
       7312.2748      0.80741425
       7313.1639      0.47338901
       7314.0530      0.33871227
       7314.9421      0.63896440
       7315.8311      0.54243756
       7316.7202      0.60122692
       7317.6093      0.84825732
       7318.4984      0.66343163
       7319.3874      0.86053830
       7320.2765      0.66469399
       7321.1656      0.96338205
       7322.0547      0.84788803
       7322.9438      0.65519608
       7323.8328      0.49764295
       7324.7219      0.64369673
       7325.6110      0.57659567
       7326.5001      0.73683693
       7327.3891      0.74969236
       7328.2782      0.75842431
       7329.1673      0.66918432
       7330.0564      0.67458153
       7330.9455      0.71722018
       7331.8345      0.73090900
       7332.7236      0.85774066
       7333.6127      0.77913640
       7334.5018      0.84592023
       7335.3909      0.74272206
       7336.2799      0.92905421
       7337.1690      0.81230733
       7338.0581      0.79699097
       7338.9472      0.60193090
       7339.8362      0.68258020
       7340.7253      0.89017039
       7341.6144      0.61420332
       7342.5035      0.57521219
       7343.3926      0.58060934
       7344.2816      0.82675561
       7345.1707      0.87278848
       7346.0598      0.73289632
       7346.9489      0.79057242
       7347.8379      0.72570300
       7348.7270      0.74112689
       7349.6161      0.94885417
       7350.5052      0.96499230
       7351.3943      0.96230096
       7352.2833      0.90880678
       7353.1724      0.73037908
       7354.0615      0.80119944
       7354.9506       1.2583744
       7355.8396      0.75688823
       7356.7287      0.48664176
       7357.6178       1.2330298
       7358.5069       1.1449930
       7359.3960      0.89788662
       7360.2850      0.29385863
       7361.1741      0.44042152
       7362.0632      0.75620592
       7362.9523      0.44780067
       7363.8413      0.58889625
       7364.7304      0.84614004
       7365.6195      0.96136972
       7366.5086      0.73802120
       7367.3977      0.81067708
       7368.2867      0.67427398
       7369.1758      0.59286713
       7370.0649      0.69362067
       7370.9540      0.78156431
       7371.8431      0.72436836
       7372.7321      0.89003568
       7373.6212      0.57991595
       7374.5103      0.77871382
       7375.3994      0.68636885
       7376.2884      0.51336256
       7377.1775      0.61151670
       7378.0666      0.48089026
       7378.9557      0.77766040
       7379.8448      0.83317664
       7380.7338      0.60743184
       7381.6229      0.87957116
       7382.5120      0.96948106
       7383.4011      0.86438982
       7384.2901      0.86243502
       7385.1792      0.91116861
       7386.0683      0.82621490
       7386.9574      0.91529146
       7387.8465      0.53618780
       7388.7355      0.67972064
       7389.6246       1.4895796
       7390.5137       1.7451731
       7391.4028      0.24811224
       7392.2918      0.38866065
       7393.1809      0.71973474
       7394.0700     -0.45753965
       7394.9591      0.29405238
       7395.8482      0.54349149
       7396.7372      0.87751688
       7397.6263      0.84913080
       7398.5154      0.84738365
       7399.4045      0.67899974
       7400.2935      0.74354660
       7401.1826      0.88882199
       7402.0717      0.84919418
       7402.9608      0.83848064
       7403.8499      0.80809360
       7404.7389      0.63955491
       7405.6280      0.66537365
       7406.5171      0.70715656
       7407.4062      0.98712004
       7408.2953      0.64132362
       7409.1843       1.0470201
       7410.0734      0.87014654
       7410.9625      0.42437039
       7411.8516      0.17409772
       7412.7406       1.3966735
       7413.6297      0.71024708
       7414.5188       1.0082079
       7415.4079      0.14088768
       7416.2970      0.74135469
       7417.1860      0.41726994
       7418.0751      0.61888500
       7418.9642      0.24679850
       7419.8533      0.64133161
       7420.7423       1.2261355
       7421.6314       1.6034883
       7422.5205      0.58817741
       7423.4096      0.30267969
       7424.2987      0.58280738
       7425.1877    -0.067974577
       7426.0768      -1.5057230
       7426.9659     -0.22027371
       7427.8550     -0.29265856
       7428.7440      0.51874781
       7429.6331      0.36702856
       7430.5222      0.53116275
       7431.4113      0.44304155
       7432.3004      0.69590228
       7433.1894      0.45448943
       7434.0785      0.57985090
       7434.9676      0.39920360
       7435.8567      0.45774907
       7436.7457      0.45675705
       7437.6348      0.55527709
       7438.5239      0.74926103
       7439.4130      0.60252556
       7440.3021      0.70938096
       7441.1911      0.90527597
       7442.0802      0.84739561
       7442.9693      0.66533823
       7443.8584      0.74028594
       7444.7474      0.87604167
       7445.6365      0.92847389
       7446.5256      0.68457140
       7447.4147      0.68361595
       7448.3038      0.93922119
       7449.1928      0.55558939
       7450.0819      0.60094409
       7450.9710      0.64713097
       7451.8601      0.59388008
       7452.7492      0.70330242
       7453.6382      0.63515471
       7454.5273      0.48393200
       7455.4164      0.53701511
       7456.3055      0.59349648
       7457.1945      0.91029559
       7458.0836      0.76343994
       7458.9727      0.70518467
       7459.8618       1.2087349
       7460.7509      0.74436244
       7461.6399     -0.16689773
       7462.5290      0.58546003
       7463.4181      0.77301493
       7464.3072      0.56396446
       7465.1962      0.19875796
       7466.0853     -0.10411855
       7466.9744     -0.11560887
       7467.8635     -0.90238950
       7468.7526     -0.29765036
       7469.6416      0.75682456
       7470.5307      0.50364283
       7471.4198      0.62968698
       7472.3089      0.47651753
       7473.1979      0.81238097
       7474.0870      0.84240283
       7474.9761      0.46028876
       7475.8652       1.1231834
       7476.7543      0.53087716
       7477.6433      0.16663914
       7478.5324      0.35794756
       7479.4215      0.75016062
       7480.3106      0.52769905
       7481.1996      0.73795131
       7482.0887      0.79841410
       7482.9778      0.66076413
       7483.8669      0.64606603
       7484.7560      0.65727165
       7485.6450      0.63594955
       7486.5341      0.87702108
       7487.4232      0.69820365
       7488.3123      0.73256044
       7489.2014      0.62637747
       7490.0904      0.62182975
       7490.9795      0.58195023
       7491.8686      0.66957699
       7492.7577      0.86225022
       7493.6467      0.72002929
       7494.5358      0.79585819
       7495.4249      0.70528666
       7496.3140      0.56805422
       7497.2031      0.49762181
       7498.0921      0.62784549
       7498.9812      0.60638952
       7499.8703      0.66080708
       7500.7594      0.78603974
       7501.6484      0.62531315
       7502.5375      0.69117153
       7503.4266      0.34939600
       7504.3157      0.40004947
       7505.2048      0.67263102
       7506.0938      0.46890063
       7506.9829      0.30510453
       7507.8720      0.48161529
       7508.7611      0.69884467
       7509.6501      0.62138477
       7510.5392      0.61937639
       7511.4283      0.63958031
       7512.3174      0.69090978
       7513.2065      0.34736970
       7514.0955      0.60811449
       7514.9846      0.49727225
       7515.8737      0.91837419
       7516.7628      0.45016222
       7517.6518    -0.067820562
       7518.5409     -0.32741317
       7519.4300     -0.57642201
       7520.3191     -0.42106279
       7521.2082      0.39282616
       7522.0972      0.70522311
       7522.9863      0.80363553
       7523.8754      0.70523877
       7524.7645      0.65238952
       7525.6536      0.71883871
       7526.5426      0.55501210
       7527.4317      0.80720452
       7528.3208      0.57631002
       7529.2099      0.24466207
       7530.0989      0.31821888
       7530.9880      0.39552015
       7531.8771      0.82798841
       7532.7662    -0.057576949
       7533.6553      0.48923603
       7534.5443      0.54196394
       7535.4334      0.58773606
       7536.3225      0.66945153
       7537.2116      0.70023477
       7538.1006      0.85733666
       7538.9897      0.82709926
       7539.8788      0.89294141
       7540.7679      0.67608996
       7541.6570      0.68162837
       7542.5460      0.56437972
       7543.4351      0.66752367
       7544.3242      0.62186820
       7545.2133      0.77659282
       7546.1023      0.91612995
       7546.9914       1.0665712
       7547.8805      0.41815219
       7548.7696      0.95171963
       7549.6587       1.1171091
       7550.5477      0.14643243
       7551.4368      0.17583778
       7552.3259      0.31865717
       7553.2150      0.34369962
       7554.1040      0.71912185
       7554.9931      0.69735253
       7555.8822      0.85468225
       7556.7713      0.76903770
       7557.6604      0.72571781
       7558.5494      0.62951406
       7559.4385      0.63937249
       7560.3276      0.51036723
       7561.2167      0.74320235
       7562.1058      0.48992562
       7562.9948      0.51468034
       7563.8839      0.78306661
       7564.7730      0.64643332
       7565.6621      0.90653081
       7566.5511      0.93764420
       7567.4402      0.59834841
       7568.3293       1.0293414
       7569.2184      0.94141746
       7570.1075      0.81799239
       7570.9965      0.99215997
       7571.8856       1.5814913
       7572.7747       1.0158357
       7573.6638       1.1278832
       7574.5528      0.15705818
       7575.4419      0.58753606
       7576.3310      0.64778704
       7577.2201      0.63114845
       7578.1092      0.47741980
       7578.9982      0.70123101
       7579.8873      0.52369054
       7580.7764      0.73677141
       7581.6655       1.8382899
       7582.5545      0.64138509
       7583.4436       1.8544502
       7584.3327      0.76482445
       7585.2218      0.56115966
       7586.1109     -0.38747647
       7586.9999     -0.23297398
       7587.8890      0.20867756
       7588.7781      0.77492893
       7589.6672      0.78555001
       7590.5562      0.34518673
       7591.4453      0.39201878
       7592.3344      0.58606426
       7593.2235      0.22480537
       7594.1126      0.59019859
       7595.0016      0.93213632
       7595.8907      0.43961819
       7596.7798      0.46665124
       7597.6689      0.81460031
       7598.5580      0.44836455
       7599.4470      0.50130530
       7600.3361     -0.80883619
       7601.2252      0.28097937
       7602.1143      0.60389554
       7603.0033      0.45601649
       7603.8924      0.63174239
       7604.7815      0.60687590
       7605.6706      0.56559238
       7606.5597      0.73672100
       7607.4487      0.15427139
       7608.3378      0.63884697
       7609.2269      0.86789135
       7610.1160     0.092269345
       7611.0050       1.1783143
       7611.8941     -0.14004673
       7612.7832      0.47663291
       7613.6723     -0.16114159
       7614.5614      0.27005644
       7615.4504      0.55368446
       7616.3395     -0.55766801
       7617.2286      0.47351535
       7618.1177      0.54481472
       7619.0067      0.24184693
       7619.8958      0.30461287
       7620.7849      0.14296784
       7621.6740      0.58542349
       7622.5631      0.32216476
       7623.4521      0.63901485
       7624.3412      0.45080105
       7625.2303      0.34643604
       7626.1194      0.65021969
       7627.0084      0.48040872
       7627.8975     0.083586320
       7628.7866      0.53720496
       7629.6757      0.57339731
       7630.5648      0.97394206
       7631.4538       1.0072577
       7632.3429      0.95967111
       7633.2320      0.84444868
       7634.1211      0.55130521
       7635.0102      0.39479093
