# wavelength flux
       2833.3147     0.025360829
       2834.2719    -0.038301339
       2835.2291     0.056268025
       2836.1863     0.059238584
       2837.1435     0.012094224
       2838.1007    -0.021830411
       2839.0578     0.042340647
       2840.0150     0.027475794
       2840.9722     0.019413838
       2841.9294  -0.00042491483
       2842.8866     0.015902424
       2843.8438   -0.0041850549
       2844.8010  -0.00036342212
       2845.7582     0.071631505
       2846.7154     0.076951280
       2847.6726    0.0056995264
       2848.6298     0.020076664
       2849.5870     0.017437253
       2850.5442     0.069542534
       2851.5013     0.064621871
       2852.4585     0.027271580
       2853.4157     0.028317403
       2854.3729     0.063248854
       2855.3301     0.031651778
       2856.2873     0.063852831
       2857.2445     0.011221594
       2858.2017     0.036938045
       2859.1589     0.021384947
       2860.1161     0.025437633
       2861.0733     0.031337164
       2862.0305     0.030216528
       2862.9877     0.067534478
       2863.9448     0.022973534
       2864.9020     0.026346333
       2865.8592   -0.0057014527
       2866.8164     0.021111347
       2867.7736    0.0065966499
       2868.7308    -0.020767051
       2869.6880    0.0022192436
       2870.6452     0.013482036
       2871.6024     0.011407142
       2872.5596     0.024464426
       2873.5168    0.0041256512
       2874.4740     0.029173821
       2875.4312     0.030746658
       2876.3884     0.055445254
       2877.3455     0.055065614
       2878.3027    -0.017244310
       2879.2599     0.018777555
       2880.2171     0.021943432
       2881.1743     0.050020757
       2882.1315     0.018910213
       2883.0887     0.031667485
       2884.0459     0.034952812
       2885.0031  -0.00038018882
       2885.9603   -0.0029186160
       2886.9175     0.029092922
       2887.8747     0.014509140
       2888.8319     0.028649125
       2889.7890     0.018642276
       2890.7462     0.024205633
       2891.7034   -0.0032883042
       2892.6606    0.0012181319
       2893.6178   -0.0033545930
       2894.5750     0.041085043
       2895.5322   -0.0040686721
       2896.4894     0.038975002
       2897.4466     0.035180008
       2898.4038     0.052176073
       2899.3610     0.015691089
       2900.3182     0.028573133
       2901.2754     0.050659689
       2902.2325     0.015624958
       2903.1897   -0.0010318491
       2904.1469     0.026012440
       2905.1041     0.015088345
       2906.0613     0.046113968
       2907.0185     0.055949163
       2907.9757     0.010881224
       2908.9329     0.038690227
       2909.8901     0.012046626
       2910.8473     0.045576281
       2911.8045     0.038701916
       2912.7617    0.0047281697
       2913.7189    -0.013164463
       2914.6761     0.026197394
       2915.6332   -0.0087773659
       2916.5904     0.038492775
       2917.5476    0.0017004230
       2918.5048     0.011023853
       2919.4620     0.011170084
       2920.4192     0.020341009
       2921.3764     0.044470560
       2922.3336     0.027476839
       2923.2908     0.023982371
       2924.2480     0.045077039
       2925.2052    0.0096212805
       2926.1624     0.038868398
       2927.1196     0.042553825
       2928.0767   -0.0063552184
       2929.0339     0.037619805
       2929.9911    0.0014967220
       2930.9483     0.050937289
       2931.9055     0.039748825
       2932.8627     0.049110222
       2933.8199     0.030982765
       2934.7771     0.062172936
       2935.7343    -0.011986455
       2936.6915     0.046289773
       2937.6487    -0.026162974
       2938.6059    -0.019078956
       2939.5631    0.0081518570
       2940.5203     0.034010561
       2941.4774     0.039545285
       2942.4346     0.034784538
       2943.3918  -6.2582008e-05
       2944.3490    0.0036416021
       2945.3062     0.014948746
       2946.2634     0.014732273
       2947.2206     0.014204809
       2948.1778    0.0029525590
       2949.1350   0.00093569074
       2950.0922     0.025589489
       2951.0494     0.032152427
       2952.0066     0.022701113
       2952.9638     0.033786292
       2953.9209     0.021656227
       2954.8781     0.022037740
       2955.8353     0.027985161
       2956.7925     0.039307471
       2957.7497     0.022173638
       2958.7069     0.013674307
       2959.6641     0.039910357
       2960.6213     0.011752423
       2961.5785     0.035672478
       2962.5357     0.011776514
       2963.4929     0.028523949
       2964.4501     0.025154955
       2965.4073     0.041238641
       2966.3644     0.017711897
       2967.3216   -0.0097436037
       2968.2788     0.025838026
       2969.2360     0.044000196
       2970.1932     0.025277489
       2971.1504     0.025687628
       2972.1076     0.036904143
       2973.0648    0.0068960888
       2974.0220   -0.0035509112
       2974.9792   -0.0079880686
       2975.9364     0.025188004
       2976.8936    0.0099096098
       2977.8508     0.036180579
       2978.8080    0.0058543237
       2979.7651     0.033884826
       2980.7223     0.031250475
       2981.6795     0.039975869
       2982.6367     0.037842254
       2983.5939     0.014955469
       2984.5511   0.00056317876
       2985.5083     0.014302435
       2986.4655    0.0086992679
       2987.4227     0.024676837
       2988.3799     0.020903087
       2989.3371    0.0055479716
       2990.2943     0.015671359
       2991.2515     0.021175212
       2992.2086     0.031229519
       2993.1658    0.0072062891
       2994.1230     0.015180359
       2995.0802    0.0069319325
       2996.0374     0.025302198
       2996.9946    0.0015724243
       2997.9518     0.010360200
       2998.9090     0.021169153
       2999.8662     0.021982872
       3000.8234     0.010948135
       3001.7806     0.033619150
       3002.7378     0.028200834
       3003.6950     0.025916778
       3004.6522     0.024708726
       3005.6093     0.021711886
       3006.5665   -0.0039584853
       3007.5237    -0.016124996
       3008.4809     0.041871422
       3009.4381     0.033011636
       3010.3953     0.064877908
       3011.3525     0.029943598
       3012.3097     0.013713497
       3013.2669     0.035835056
       3014.2241   -0.0010829359
       3015.1813   -0.0020602031
       3016.1385     0.014263031
       3017.0957     0.046836566
       3018.0528     0.029409320
       3019.0100    0.0042189718
       3019.9672    0.0083690659
       3020.9244     0.042241953
       3021.8816    0.0080059392
       3022.8388     0.016237115
       3023.7960     0.046351046
       3024.7532     0.032571090
       3025.7104     0.010026919
       3026.6676     0.018703050
       3027.6248     0.018329536
       3028.5820     0.032721754
       3029.5392     0.032635131
       3030.4963     0.028784099
       3031.4535     0.014675540
       3032.4107    0.0081611070
       3033.3679     0.021397398
       3034.3251     0.010817533
       3035.2823     0.027193517
       3036.2395    0.0039644434
       3037.1967     0.011358139
       3038.1539     0.033108217
       3039.1111     0.011347192
       3040.0683     0.032535835
       3041.0255     0.030568372
       3041.9827     0.022722944
       3042.9399     0.015609669
       3043.8970     0.033647466
       3044.8542    0.0076463239
       3045.8114     0.030778809
       3046.7686   -0.0033739269
       3047.7258    0.0047502304
       3048.6830     0.025072500
       3049.6402     0.030269844
       3050.5974     0.035960136
       3051.5546     0.017910203
       3052.5118     0.025470118
       3053.4690   -0.0019016039
       3054.4262     0.014916282
       3055.3834   -0.0034583684
       3056.3405     0.032136285
       3057.2977     0.022178329
       3058.2549     0.033031189
       3059.2121     0.025927922
       3060.1693    -0.011621105
       3061.1265    0.0069302608
       3062.0837     0.019265640
       3063.0409    0.0092438617
       3063.9981  -0.00055842618
       3064.9553     0.011973954
       3065.9125     0.011326229
       3066.8697     0.013865427
       3067.8269    0.0089402587
       3068.7841     0.013698640
       3069.7412    0.0038751380
       3070.6984     0.017705041
       3071.6556    0.0061696711
       3072.6128     0.018339996
       3073.5700     0.029304233
       3074.5272     0.029556449
       3075.4844     0.022742198
       3076.4416     0.035133593
       3077.3988     0.020452821
       3078.3560     0.032104232
       3079.3132    0.0086306824
       3080.2704     0.020123976
       3081.2276     0.011597424
       3082.1847   0.00015385486
       3083.1419     0.018298731
       3084.0991     0.031058691
       3085.0563     0.024976272
       3086.0135     0.023229026
       3086.9707     0.042628749
       3087.9279     0.031554519
       3088.8851     0.014282080
       3089.8423    0.0025102343
       3090.7995     0.035438822
       3091.7567    0.0079061036
       3092.7139     0.037416835
       3093.6711     0.042007828
       3094.6282     0.013012798
       3095.5854     0.029472784
       3096.5426     0.027082829
       3097.4998     0.013350852
       3098.4570     0.024506449
       3099.4142     0.039670760
       3100.3714     0.026815348
       3101.3286    0.0035074653
       3102.2858     0.012811145
       3103.2430     0.022149176
       3104.2002     0.022819061
       3105.1574    0.0060501568
       3106.1146     0.021966281
       3107.0718     0.036137062
       3108.0289     0.028247629
       3108.9861     0.032376289
       3109.9433     0.033755495
       3110.9005     0.046290549
       3111.8577     0.042782358
       3112.8149     0.031169363
       3113.7721     0.034562914
       3114.7293     0.015653789
       3115.6865     0.037601525
       3116.6437     0.023352102
       3117.6009     0.015684089
       3118.5581     0.028511971
       3119.5153    0.0042675722
       3120.4724   -0.0012670237
       3121.4296     0.051874357
       3122.3868     0.026263586
       3123.3440     0.013533542
       3124.3012     0.028138626
       3125.2584     0.041773421
       3126.2156     0.040687202
       3127.1728     0.026723280
       3128.1300     0.031600220
       3129.0872     0.033818811
       3130.0444     0.036564281
       3131.0016     0.048565627
       3131.9588    0.0014324556
       3132.9159    0.0044964588
       3133.8731    0.0057688187
       3134.8303     0.034389536
       3135.7875     0.021479518
       3136.7447     0.035687884
       3137.7019     0.026702813
       3138.6591     0.013656525
       3139.6163     0.018735485
       3140.5735     0.014410298
       3141.5307     0.039171146
       3142.4879     0.043666574
       3143.4451     0.028664308
       3144.4023     0.011547081
       3145.3595     0.023257231
       3146.3166     0.014274838
       3147.2738     0.047022032
       3148.2310     0.016552268
       3149.1882     0.010734183
       3150.1454     0.013279379
       3151.1026    0.0094669468
       3152.0598   0.00036941682
       3153.0170     0.035005039
       3153.9742     0.010733414
       3154.9314     0.036376296
       3155.8886     0.016235460
       3156.8458     0.011461470
       3157.8030     0.040491960
       3158.7601     0.027939348
       3159.7173     0.025278723
       3160.6745     0.027862688
       3161.6317    0.0078809642
       3162.5889     0.025227672
       3163.5461     0.020842761
       3164.5033     0.022269817
       3165.4605     0.024316590
       3166.4177     0.012499687
       3167.3749     0.026923305
       3168.3321     0.017382407
       3169.2893     0.030685776
       3170.2465     0.035074574
       3171.2037     0.027957887
       3172.1608     0.023633310
       3173.1180     0.030012337
       3174.0752     0.015932726
       3175.0324    0.0069043071
       3175.9896     0.026318505
       3176.9468   -0.0015555050
       3177.9040     0.022819476
       3178.8612    0.0053544787
       3179.8184     0.027445135
       3180.7756     0.016532973
       3181.7328     0.014046174
       3182.6900     0.020119229
       3183.6472     0.018613449
       3184.6043     0.023416801
       3185.5615     0.016096150
       3186.5187     0.045774875
       3187.4759     0.025881109
       3188.4331     0.019641857
       3189.3903     0.041314724
       3190.3475     0.016147191
       3191.3047     0.054494803
       3192.2619    0.0056147195
       3193.2191     0.037201791
       3194.1763     0.026438034
       3195.1335     0.027037796
       3196.0907     0.021175331
       3197.0478     0.031731322
       3198.0050     0.043393949
       3198.9622     0.024705540
       3199.9194    -0.010472496
       3200.8766     0.029609300
       3201.8338     0.024199560
       3202.7910     0.045308350
       3203.7482    0.0032850299
       3204.7054     0.022304810
       3205.6626     0.024797354
       3206.6198     0.026248338
       3207.5770     0.023610327
       3208.5342     0.020746676
       3209.4914     0.016423676
       3210.4485     0.019337885
       3211.4057     0.019588160
       3212.3629     0.025689188
       3213.3201     0.020815811
       3214.2773     0.030992608
       3215.2345    0.0059697651
       3216.1917     0.035872742
       3217.1489     0.027542519
       3218.1061     0.034304550
       3219.0633     0.030272577
       3220.0205     0.023783496
       3220.9777     0.034120113
       3221.9349     0.034290752
       3222.8920     0.036250969
       3223.8492     0.018322614
       3224.8064     0.018808741
       3225.7636     0.031224250
       3226.7208     0.032798312
       3227.6780     0.025416046
       3228.6352     0.017682841
       3229.5924     0.010643840
       3230.5496     0.013011039
       3231.5068     0.021027294
       3232.4640     0.011434588
       3233.4212     0.028483885
       3234.3784     0.043434290
       3235.3356     0.029221658
       3236.2927     0.040024918
       3237.2499     0.019973928
       3238.2071     0.033671910
       3239.1643     0.025134820
       3240.1215    0.0030159976
       3241.0787     0.028954168
       3242.0359     0.022288597
       3242.9931     0.045925615
       3243.9503     0.013249720
       3244.9075     0.015634407
       3245.8647     0.011022549
       3246.8219    0.0059709864
       3247.7791    0.0067647605
       3248.7362    0.0030476264
       3249.6934     0.020542171
       3250.6506     0.027856285
       3251.6078     0.020305659
       3252.5650     0.030352543
       3253.5222     0.045536308
       3254.4794     0.054423108
       3255.4366     0.029762138
       3256.3938     0.016135625
       3257.3510     0.019617997
       3258.3082     0.032543178
       3259.2654     0.021092797
       3260.2226     0.030018358
       3261.1797    0.0053045506
       3262.1369     0.016397086
       3263.0941     0.036546779
       3264.0513     0.042443134
       3265.0085     0.036870332
       3265.9657     0.042703147
       3266.9229     0.043554419
       3267.8801     0.028996559
       3268.8373     0.032379137
       3269.7945     0.035089582
       3270.7517     0.027643528
       3271.7089     0.041647641
       3272.6661     0.031331561
       3273.6233     0.023583304
       3274.5804     0.021775943
       3275.5376     0.030039321
       3276.4948     0.033008070
       3277.4520     0.028378417
       3278.4092     0.021238691
       3279.3664     0.042130050
       3280.3236     0.037777998
       3281.2808     0.028564714
       3282.2380     0.033849466
       3283.1952     0.049750678
       3284.1524     0.019662635
       3285.1096     0.025274190
       3286.0668     0.024152903
       3287.0239     0.041104696
       3287.9811     0.034216512
       3288.9383     0.030908043
       3289.8955     0.044487308
       3290.8527     0.035242587
       3291.8099     0.019446560
       3292.7671     0.046349744
       3293.7243     0.035086842
       3294.6815     0.055157442
       3295.6387     0.042948696
       3296.5959     0.027614170
       3297.5531     0.033329056
       3298.5103    0.0092048515
       3299.4675     0.045157243
       3300.4246     0.028295147
       3301.3818     0.027595160
       3302.3390     0.015827938
       3303.2962     0.035004931
       3304.2534     0.042988521
       3305.2106     0.041897984
       3306.1678     0.034291510
       3307.1250     0.022162621
       3308.0822     0.028604478
       3309.0394     0.051536400
       3309.9966     0.039740890
       3310.9538     0.041601897
       3311.9110    0.0076087550
       3312.8681     0.038105177
       3313.8253     0.062083413
       3314.7825     0.048834601
       3315.7397     0.011966554
       3316.6969     0.028451215
       3317.6541     0.026648711
       3318.6113     0.039775614
       3319.5685     0.041874481
       3320.5257     0.043030594
       3321.4829     0.048037283
       3322.4401     0.045958349
       3323.3973     0.035796711
       3324.3545     0.032669798
       3325.3116     0.025581973
       3326.2688    0.0091187898
       3327.2260     0.036354768
       3328.1832     0.036401152
       3329.1404     0.036767840
       3330.0976     0.016658115
       3331.0548     0.020317473
       3332.0120     0.013758912
       3332.9692     0.013181358
       3333.9264     0.020855052
       3334.8836     0.029462605
       3335.8408     0.038541837
       3336.7980     0.021535652
       3337.7552     0.027686017
       3338.7123     0.028533237
       3339.6695     0.021613747
       3340.6267     0.034049380
       3341.5839     0.055453164
       3342.5411     0.034243339
       3343.4983     0.045108157
       3344.4555     0.035883877
       3345.4127     0.043386080
       3346.3699     0.045786130
       3347.3271     0.040585270
       3348.2843     0.048480744
       3349.2415     0.046789106
       3350.1987     0.063497663
       3351.1558     0.020049728
       3352.1130     0.034625937
       3353.0702     0.038443781
       3354.0274     0.032553159
       3354.9846     0.040006730
       3355.9418     0.011040666
       3356.8990     0.040173237
       3357.8562     0.028578985
       3358.8134     0.023485286
       3359.7706     0.029370395
       3360.7278     0.028729830
       3361.6850     0.038691788
       3362.6422     0.029382871
       3363.5993     0.039609168
       3364.5565     0.041269718
       3365.5137     0.044873662
       3366.4709     0.035705270
       3367.4281     0.015797619
       3368.3853     0.029097330
       3369.3425     0.035567613
       3370.2997     0.044380312
       3371.2569     0.030955301
       3372.2141     0.047743569
       3373.1713     0.043379621
       3374.1285     0.031600342
       3375.0857     0.030700783
       3376.0429     0.044169378
       3377.0000     0.035104498
       3377.9572     0.045579916
       3378.9144     0.050373334
       3379.8716     0.054297547
       3380.8288     0.034512087
       3381.7860     0.037008293
       3382.7432     0.039308986
       3383.7004     0.041527307
       3384.6576     0.027709138
       3385.6148     0.050432540
       3386.5720     0.059142125
       3387.5292     0.047484689
       3388.4864     0.033993557
       3389.4435     0.037362768
       3390.4007     0.042054872
       3391.3579     0.033708294
       3392.3151     0.041249009
       3393.2723     0.049732151
       3394.2295     0.044301368
       3395.1867     0.035811906
       3396.1439     0.030867988
       3397.1011     0.034056658
       3398.0583     0.029146940
       3399.0155     0.026396059
       3399.9727     0.042060461
       3400.9299     0.036355424
       3401.8871     0.051927226
       3402.8442     0.027354997
       3403.8014     0.026060009
       3404.7586     0.043792313
       3405.7158     0.030520936
       3406.6730     0.037606198
       3407.6302     0.024743441
       3408.5874     0.033831581
       3409.5446     0.048021022
       3410.5018     0.024053243
       3411.4590     0.018530380
       3412.4162     0.023368193
       3413.3734     0.049668672
       3414.3306     0.037088592
       3415.2877     0.042528438
       3416.2449     0.013456265
       3417.2021     0.021781749
       3418.1593     0.015216647
       3419.1165     0.025842213
       3420.0737     0.028828145
       3421.0309     0.040483982
       3421.9881     0.052375546
       3422.9453     0.029936831
       3423.9025     0.035941392
       3424.8597     0.050756802
       3425.8169     0.044061632
       3426.7741     0.023872793
       3427.7312     0.043475965
       3428.6884     0.027545034
       3429.6456     0.026258195
       3430.6028     0.033076231
       3431.5600     0.059563122
       3432.5172     0.035379549
       3433.4744     0.032514148
       3434.4316     0.029024757
       3435.3888     0.043764188
       3436.3460     0.037576222
       3437.3032     0.031321203
       3438.2604     0.041235090
       3439.2176     0.031193813
       3440.1748     0.037742042
       3441.1319     0.046778404
       3442.0891     0.036223095
       3443.0463     0.027929798
       3444.0035     0.044397196
       3444.9607     0.053649048
       3445.9179     0.044566371
       3446.8751     0.042513988
       3447.8323     0.027062052
       3448.7895     0.018579487
       3449.7467     0.025155896
       3450.7039     0.040293279
       3451.6611     0.041160257
       3452.6183     0.015466330
       3453.5754     0.025324989
       3454.5326     0.031426474
       3455.4898     0.016108114
       3456.4470     0.033204224
       3457.4042     0.041192513
       3458.3614     0.018516861
       3459.3186    0.0095937345
       3460.2758     0.056410070
       3461.2330     0.044726309
       3462.1902     0.054882499
       3463.1474     0.041345850
       3464.1046     0.030168220
       3465.0618     0.041746891
       3466.0190     0.028001635
       3466.9761     0.059951087
       3467.9333     0.041686929
       3468.8905     0.026798803
       3469.8477     0.065222800
       3470.8049     0.029457185
       3471.7621     0.029024801
       3472.7193     0.038230756
       3473.6765     0.043346244
       3474.6337     0.045742051
       3475.5909     0.019808695
       3476.5481     0.016269129
       3477.5053     0.042130119
       3478.4625     0.034513342
       3479.4196     0.013449469
       3480.3768     0.017444843
       3481.3340     0.038576811
       3482.2912     0.025612629
       3483.2484     0.033791851
       3484.2056     0.028525736
       3485.1628     0.032577452
       3486.1200     0.055203234
       3487.0772     0.038390452
       3488.0344     0.021588349
       3488.9916     0.038344669
       3489.9488     0.030575537
       3490.9060     0.064349565
       3491.8631     0.042040008
       3492.8203     0.051222228
       3493.7775     0.051299451
       3494.7347     0.048542382
       3495.6919     0.048078180
       3496.6491     0.049159286
       3497.6063     0.041517119
       3498.5635     0.046663452
       3499.5207     0.034031138
       3500.4779     0.025121807
       3501.4351     0.051484642
       3502.3923     0.058132433
       3503.3495     0.041835934
       3504.3067     0.050758934
       3505.2638     0.041618801
       3506.2210     0.029384348
       3507.1782     0.029402287
       3508.1354     0.042633884
       3509.0926     0.050214634
       3510.0498     0.057359558
       3511.0070     0.042051919
       3511.9642     0.043640601
       3512.9214     0.033474566
       3513.8786     0.037227825
       3514.8358     0.057172196
       3515.7930     0.046640067
       3516.7502     0.046834283
       3517.7073     0.033342490
       3518.6645     0.040545314
       3519.6217     0.047807901
       3520.5789     0.024716224
       3521.5361     0.022432537
       3522.4933     0.041998774
       3523.4505     0.042669240
       3524.4077     0.020821782
       3525.3649     0.046111430
       3526.3221     0.056021004
       3527.2793     0.039714699
       3528.2365     0.052582713
       3529.1937     0.037202854
       3530.1509     0.038126619
       3531.1080     0.041427367
       3532.0652     0.047181802
       3533.0224     0.044543990
       3533.9796     0.044974984
       3534.9368     0.045032644
       3535.8940     0.039672328
       3536.8512     0.045124485
       3537.8084     0.037597145
       3538.7656     0.043804263
       3539.7228     0.063490753
       3540.6800     0.044731738
       3541.6372     0.034549186
       3542.5944     0.042691890
       3543.5515     0.034775009
       3544.5087     0.032875714
       3545.4659     0.037446320
       3546.4231     0.047359644
       3547.3803     0.043303941
       3548.3375     0.024135364
       3549.2947     0.035215659
       3550.2519     0.023766367
       3551.2091     0.045772154
       3552.1663     0.040344766
       3553.1235     0.034238784
       3554.0807     0.038849709
       3555.0379     0.049864088
       3555.9950     0.052163091
       3556.9522     0.046468341
       3557.9094     0.039312185
       3558.8666     0.044069691
       3559.8238     0.045458547
       3560.7810     0.055678689
       3561.7382     0.034396154
       3562.6954     0.035204555
       3563.6526     0.030340245
       3564.6098     0.025519495
       3565.5670     0.043275864
       3566.5242     0.034669145
       3567.4814     0.033821850
       3568.4386     0.047645450
       3569.3957     0.030218771
       3570.3529     0.042115939
       3571.3101     0.035493235
       3572.2673     0.045989233
       3573.2245     0.033080649
       3574.1817     0.035247596
       3575.1389     0.036714852
       3576.0961     0.041401767
       3577.0533     0.037198715
       3578.0105     0.037981563
       3578.9677     0.044870483
       3579.9249     0.039949151
       3580.8821     0.036261639
       3581.8392     0.034486986
       3582.7964     0.041290864
       3583.7536     0.038292300
       3584.7108     0.059184423
       3585.6680     0.055293679
       3586.6252     0.042837388
       3587.5824     0.030084586
       3588.5396     0.019788942
       3589.4968     0.025462533
       3590.4540     0.034658296
       3591.4112     0.049077999
       3592.3684     0.041474189
       3593.3256     0.038975174
       3594.2827     0.046201092
       3595.2399     0.034993292
       3596.1971     0.059006934
       3597.1543     0.047169344
       3598.1115     0.030519598
       3599.0687     0.047379475
       3600.0259     0.062330999
       3600.9831     0.046209975
       3601.9403     0.058617552
       3602.8975     0.059604522
       3603.8547     0.050382043
       3604.8119     0.041095598
       3605.7691     0.028110955
       3606.7263     0.045453524
       3607.6834     0.052763808
       3608.6406     0.038466836
       3609.5978     0.052703628
       3610.5550     0.061963289
       3611.5122     0.061746297
       3612.4694     0.039240711
       3613.4266     0.037522650
       3614.3838     0.051750523
       3615.3410     0.054547236
       3616.2982     0.058674508
       3617.2554     0.045614196
       3618.2126     0.030380240
       3619.1698     0.043642002
       3620.1269     0.050234406
       3621.0841     0.051909464
       3622.0413     0.059113922
       3622.9985     0.061836319
       3623.9557     0.044900351
       3624.9129     0.048981501
       3625.8701     0.039414720
       3626.8273     0.065119428
       3627.7845     0.036223719
       3628.7417     0.033969684
       3629.6989     0.036462485
       3630.6561     0.044094152
       3631.6133     0.055395365
       3632.5705     0.038570430
       3633.5276     0.040505525
       3634.4848     0.054935275
       3635.4420     0.049224168
       3636.3992     0.054134173
       3637.3564     0.062305691
       3638.3136     0.051272143
       3639.2708     0.056565595
       3640.2280     0.037051958
       3641.1852     0.045779294
       3642.1424     0.056446956
       3643.0996     0.056559235
       3644.0568     0.047747729
       3645.0140     0.033825888
       3645.9711     0.056374468
       3646.9283     0.061296546
       3647.8855     0.051809605
       3648.8427     0.054496400
       3649.7999     0.038445609
       3650.7571     0.052634309
       3651.7143     0.040359179
       3652.6715     0.042491254
       3653.6287     0.049813658
       3654.5859     0.050943040
       3655.5431     0.054469525
       3656.5003     0.060599136
       3657.4575     0.046980441
       3658.4146     0.048820681
       3659.3718     0.037574131
       3660.3290     0.047128264
       3661.2862     0.047303259
       3662.2434     0.063027338
       3663.2006     0.056104540
       3664.1578     0.054902931
       3665.1150     0.052931477
       3666.0722     0.056300335
       3667.0294     0.043165858
       3667.9866     0.034682326
       3668.9438     0.040035721
       3669.9010     0.048428267
       3670.8582     0.068204358
       3671.8153     0.057895129
       3672.7725     0.051731613
       3673.7297     0.042203051
       3674.6869     0.052779574
       3675.6441     0.050705502
       3676.6013     0.068074205
       3677.5585     0.062145508
       3678.5157     0.047081964
       3679.4729     0.046515111
       3680.4301     0.049918016
       3681.3873     0.054883568
       3682.3445     0.048881096
       3683.3017     0.057573523
       3684.2588     0.046666233
       3685.2160     0.053187241
       3686.1732     0.058204756
       3687.1304     0.037690978
       3688.0876     0.054040072
       3689.0448     0.045620693
       3690.0020     0.053376342
       3690.9592     0.043501733
       3691.9164     0.048292534
       3692.8736     0.049189192
       3693.8308     0.054229807
       3694.7880     0.045777395
       3695.7452     0.035998325
       3696.7024     0.039960053
       3697.6595     0.034829864
       3698.6167     0.053164085
       3699.5739     0.053318994
       3700.5311     0.057385742
       3701.4883     0.049792218
       3702.4455     0.057956612
       3703.4027     0.065335976
       3704.3599     0.056615189
       3705.3171     0.070573751
       3706.2743     0.057627772
       3707.2315     0.057566058
       3708.1887     0.066236810
       3709.1459     0.076079919
       3710.1030     0.060593724
       3711.0602     0.047429426
       3712.0174     0.039175522
       3712.9746     0.062785856
       3713.9318     0.034732729
       3714.8890     0.062404180
       3715.8462     0.059315796
       3716.8034     0.054495521
       3717.7606     0.058203585
       3718.7178      0.10244149
       3719.6750     0.065976973
       3720.6322     0.036893968
       3721.5894     0.051861133
       3722.5465     0.069940133
       3723.5037     0.064624414
       3724.4609     0.066054872
       3725.4181     0.067736324
       3726.3753     0.060703231
       3727.3325     0.070715150
       3728.2897     0.077842638
       3729.2469     0.080693869
       3730.2041      0.15344958
       3731.1613      0.17231052
       3732.1185      0.21958835
       3733.0757      0.24904207
       3734.0329      0.30112484
       3734.9901      0.32134043
       3735.9472      0.32328846
       3736.9044      0.27847490
       3737.8616      0.23423542
       3738.8188      0.18959857
       3739.7760      0.13824226
       3740.7332      0.11626726
       3741.6904     0.094351425
       3742.6476     0.069020927
       3743.6048     0.063574724
       3744.5620     0.049244480
       3745.5192     0.047113918
       3746.4764     0.073051531
       3747.4336     0.064644455
       3748.3907     0.083546581
       3749.3479     0.040437963
       3750.3051     0.060803304
       3751.2623     0.062382748
       3752.2195     0.054091941
       3753.1767     0.050421498
       3754.1339     0.091600256
       3755.0911     0.082442536
       3756.0483     0.058248695
       3757.0055     0.076023379
       3757.9627     0.066237399
       3758.9199     0.077007412
       3759.8771     0.060057633
       3760.8343     0.067454239
       3761.7914     0.048838467
       3762.7486     0.067658135
       3763.7058     0.076940548
       3764.6630     0.072075367
       3765.6202     0.070861297
       3766.5774     0.076659402
       3767.5346     0.094236595
       3768.4918     0.043501989
       3769.4490     0.063289029
       3770.4062     0.077206699
       3771.3634     0.070145528
       3772.3206     0.069880134
       3773.2778     0.073374439
       3774.2349     0.058409372
       3775.1921     0.053287430
       3776.1493     0.067028717
       3777.1065     0.079105798
       3778.0637     0.082207434
       3779.0209     0.064499837
       3779.9781     0.068094024
       3780.9353     0.051348727
       3781.8925     0.075680928
       3782.8497     0.080152973
       3783.8069     0.076008279
       3784.7641     0.091332499
       3785.7213     0.089540768
       3786.6784     0.073348174
       3787.6356     0.080602641
       3788.5928     0.095557988
       3789.5500     0.087827170
       3790.5072     0.081797881
       3791.4644     0.078906223
       3792.4216     0.082909779
       3793.3788     0.090924827
       3794.3360     0.079793306
       3795.2932      0.10136631
       3796.2504      0.11477490
       3797.2076     0.068618484
       3798.1648     0.042215329
       3799.1220     0.065385556
       3800.0791     0.051107328
       3801.0363     0.063411312
       3801.9935     0.062461984
       3802.9507     0.052895980
       3803.9079     0.058862523
       3804.8651     0.078459480
       3805.8223     0.070279154
       3806.7795     0.067503292
       3807.7367     0.091833436
       3808.6939      0.10786237
       3809.6511     0.086648707
       3810.6083     0.089923567
       3811.5655     0.096586273
       3812.5226      0.10774986
       3813.4798      0.10506162
       3814.4370      0.10755469
       3815.3942      0.12243583
       3816.3514     0.084784621
       3817.3086     0.083863994
       3818.2658     0.071881844
       3819.2230     0.071437502
       3820.1802      0.10330888
       3821.1374     0.098285324
       3822.0946      0.10526088
       3823.0518     0.088441837
       3824.0090     0.079284250
       3824.9661     0.090448382
       3825.9233     0.090380934
       3826.8805     0.073271481
       3827.8377     0.088598211
       3828.7949     0.078536499
       3829.7521     0.078276367
       3830.7093     0.074395519
       3831.6665     0.074005182
       3832.6237     0.066024782
       3833.5809     0.054855701
       3834.5381     0.072940477
       3835.4953     0.077403740
       3836.4525     0.060195111
       3837.4097     0.057957233
       3838.3668     0.066023902
       3839.3240     0.058129051
       3840.2812     0.056617769
       3841.2384     0.051148068
       3842.1956     0.057830058
       3843.1528     0.048966483
       3844.1100     0.049627188
       3845.0672     0.071862284
       3846.0244     0.059143522
       3846.9816     0.057999116
       3847.9388     0.060460478
       3848.8960     0.044602189
       3849.8532     0.071871774
       3850.8103     0.078779884
       3851.7675     0.094138057
       3852.7247     0.090011621
       3853.6819     0.098745018
       3854.6391      0.10006337
       3855.5963     0.089339358
       3856.5535     0.074354581
       3857.5107     0.087721078
       3858.4679      0.10988250
       3859.4251      0.10438484
       3860.3823      0.10428769
       3861.3395     0.098305371
       3862.2967      0.10766601
       3863.2539      0.12222292
       3864.2110     0.095488500
       3865.1682     0.096117560
       3866.1254     0.096841284
       3867.0826     0.096367525
       3868.0398     0.085707087
       3868.9970     0.087927147
       3869.9542     0.081812278
       3870.9114      0.10321421
       3871.8686      0.10431639
       3872.8258      0.12536392
       3873.7830      0.10688166
       3874.7402      0.11701357
       3875.6974      0.10462515
       3876.6545      0.10400148
       3877.6117     0.094091203
       3878.5689     0.091547841
       3879.5261      0.10871701
       3880.4833      0.10326768
       3881.4405     0.074403585
       3882.3977     0.079954142
       3883.3549     0.091710348
       3884.3121     0.088428467
       3885.2693     0.090026140
       3886.2265     0.071417668
       3887.1837     0.062622530
       3888.1409     0.066752729
       3889.0980     0.074542135
       3890.0552     0.076226171
       3891.0124     0.080715192
       3891.9696      0.11279569
       3892.9268     0.091199664
       3893.8840     0.093657455
       3894.8412     0.093579403
       3895.7984     0.083551229
       3896.7556     0.084810649
       3897.7128     0.088193876
       3898.6700      0.10138196
       3899.6272     0.096656598
       3900.5844     0.053859211
       3901.5416     0.093728787
       3902.4987      0.12377327
       3903.4559      0.11427193
       3904.4131     0.091045049
       3905.3703     0.088476562
       3906.3275     0.086717473
       3907.2847     0.096331666
       3908.2419     0.089766528
       3909.1991      0.10283275
       3910.1563      0.10050911
       3911.1135     0.097249261
       3912.0707      0.11757766
       3913.0279      0.10991681
       3913.9851     0.087834339
       3914.9422     0.093205229
       3915.8994      0.10304501
       3916.8566      0.11154036
       3917.8138     0.092526212
       3918.7710      0.11532050
       3919.7282      0.11538008
       3920.6854      0.11467172
       3921.6426     0.091212343
       3922.5998     0.086466084
       3923.5570     0.098850970
       3924.5142     0.097323533
       3925.4714     0.094914002
       3926.4286      0.10394728
       3927.3858     0.088608940
       3928.3429     0.078785980
       3929.3001     0.076569155
       3930.2573     0.088352240
       3931.2145     0.083060189
       3932.1717     0.096725386
       3933.1289     0.088072646
       3934.0861     0.068260979
       3935.0433     0.051179650
       3936.0005     0.094164497
       3936.9577     0.074902875
       3937.9149     0.062705654
       3938.8721     0.084662779
       3939.8293     0.086002168
       3940.7864     0.073142587
       3941.7436     0.088175407
       3942.7008     0.094524944
       3943.6580     0.080629426
       3944.6152     0.099886913
       3945.5724      0.11129550
       3946.5296      0.10736669
       3947.4868      0.10257730
       3948.4440      0.12468245
       3949.4012      0.10816308
       3950.3584     0.092143630
       3951.3156      0.12181935
       3952.2728     0.099870000
       3953.2299      0.10852742
       3954.1871      0.10356699
       3955.1443      0.12444245
       3956.1015      0.11365574
       3957.0587      0.10958539
       3958.0159      0.10914563
       3958.9731      0.11103825
       3959.9303      0.10878814
       3960.8875     0.091849646
       3961.8447      0.10219717
       3962.8019     0.097568720
       3963.7591      0.10361803
       3964.7163     0.096707624
       3965.6735     0.093971163
       3966.6306     0.096723584
       3967.5878     0.090465516
       3968.5450     0.077575171
       3969.5022     0.077370402
       3970.4594     0.068295938
       3971.4166     0.070270414
       3972.3738     0.064523332
       3973.3310     0.061340738
       3974.2882     0.062407709
       3975.2454     0.082148039
       3976.2026     0.090572312
       3977.1598     0.094798832
       3978.1170     0.092495372
       3979.0741     0.078424859
       3980.0313     0.079949455
       3980.9885     0.081143267
       3981.9457     0.085252869
       3982.9029      0.11168811
       3983.8601      0.10401863
       3984.8173      0.11825439
       3985.7745      0.11278743
       3986.7317      0.10969123
       3987.6889      0.12646949
       3988.6461      0.11382141
       3989.6033      0.12278450
       3990.5605      0.14292344
       3991.5177      0.12306248
       3992.4748      0.10199484
       3993.4320      0.11425661
       3994.3892      0.11557035
       3995.3464      0.12637246
       3996.3036      0.11484028
       3997.2608      0.10396963
       3998.2180      0.13750418
       3999.1752      0.14378642
       4000.1324      0.12375832
       4001.0896      0.12174455
       4002.0468      0.14703745
       4003.0040      0.13759989
       4003.9612     0.084956001
       4004.9183     0.096892557
       4005.8755      0.10784026
       4006.8327      0.11339416
       4007.7899      0.12052599
       4008.7471      0.13767811
       4009.7043      0.13950705
       4010.6615      0.12809930
       4011.6187      0.12436467
       4012.5759      0.11750968
       4013.5331      0.11986068
       4014.4903      0.13278660
       4015.4475      0.13047398
       4016.4047      0.11595409
       4017.3618      0.12964766
       4018.3190      0.12979382
       4019.2762      0.12954180
       4020.2334      0.13553315
       4021.1906      0.10996302
       4022.1478      0.11159186
       4023.1050      0.12612142
       4024.0622      0.13105442
       4025.0194      0.13042675
       4025.9766      0.13011932
       4026.9338      0.11330306
       4027.8910      0.11626424
       4028.8482      0.12927192
       4029.8054      0.13568178
       4030.7625      0.13572087
       4031.7197      0.13375066
       4032.6769      0.11413046
       4033.6341      0.11093573
       4034.5913      0.12942881
       4035.5485      0.14365647
       4036.5057      0.12874305
       4037.4629      0.10767488
       4038.4201      0.11484364
       4039.3773      0.13141232
       4040.3345      0.12706824
       4041.2917      0.12786289
       4042.2489      0.10790261
       4043.2060      0.11959631
       4044.1632      0.14392171
       4045.1204      0.13504081
       4046.0776      0.10657492
       4047.0348      0.11360979
       4047.9920      0.11553451
       4048.9492      0.13209924
       4049.9064      0.11650780
       4050.8636      0.12092222
       4051.8208      0.12425605
       4052.7780      0.14257624
       4053.7352      0.13797961
       4054.6924      0.12157409
       4055.6495      0.12352259
       4056.6067      0.11253680
       4057.5639      0.12664275
       4058.5211      0.12616531
       4059.4783      0.11953826
       4060.4355      0.11776389
       4061.3927      0.11322350
       4062.3499      0.12958277
       4063.3071      0.11932635
       4064.2643      0.12839413
       4065.2215      0.13064819
       4066.1787      0.11262189
       4067.1359      0.12336394
       4068.0931      0.14538935
       4069.0502      0.15087113
       4070.0074      0.12536719
       4070.9646      0.10985744
       4071.9218      0.12796820
       4072.8790      0.11419394
       4073.8362      0.12734183
       4074.7934      0.12274220
       4075.7506      0.13773599
       4076.7078      0.13707950
       4077.6650      0.12305204
       4078.6222      0.11753308
       4079.5794      0.11932301
       4080.5366      0.14265299
       4081.4937      0.11968262
       4082.4509      0.11790288
       4083.4081      0.13196572
       4084.3653      0.13978139
       4085.3225      0.14152131
       4086.2797      0.14403116
       4087.2369      0.13768454
       4088.1941      0.14807041
       4089.1513      0.14958051
       4090.1085      0.14007746
       4091.0657      0.13336406
       4092.0229      0.11094231
       4092.9801      0.12801145
       4093.9373      0.14036428
       4094.8944      0.13797145
       4095.8516      0.11980814
       4096.8088      0.11065550
       4097.7660     0.092632528
       4098.7232     0.091296791
       4099.6804      0.11075072
       4100.6376      0.11515589
       4101.5948      0.12404157
       4102.5520      0.10600571
       4103.5092      0.10936080
       4104.4664      0.12093915
       4105.4236      0.11729383
       4106.3808      0.10777713
       4107.3379      0.11703763
       4108.2951      0.11985531
       4109.2523      0.12617000
       4110.2095     0.094604823
       4111.1667     0.096292822
       4112.1239      0.13803126
       4113.0811      0.11309624
       4114.0383     0.088867463
       4114.9955      0.12414932
       4115.9527     0.097160610
       4116.9099      0.12039977
       4117.8671      0.15454414
       4118.8243      0.13319872
       4119.7814     0.096920432
       4120.7386     0.084515627
       4121.6958      0.13714950
       4122.6530      0.16903373
       4123.6102      0.13415277
       4124.5674      0.11984819
       4125.5246      0.11057302
       4126.4818      0.10706220
       4127.4390      0.11272093
       4128.3962      0.11519911
       4129.3534      0.12547171
       4130.3106      0.12310434
       4131.2678      0.10925273
       4132.2250      0.11974955
       4133.1821      0.14820989
       4134.1393      0.12224271
       4135.0965      0.12595173
       4136.0537      0.14067971
       4137.0109      0.14447780
       4137.9681      0.11814454
       4138.9253      0.15401251
       4139.8825      0.14981592
       4140.8397      0.11827838
       4141.7969      0.14884656
       4142.7541      0.15646525
       4143.7113      0.19478423
       4144.6685      0.16733760
       4145.6256      0.15238975
       4146.5828      0.13381291
       4147.5400      0.11698751
       4148.4972      0.11245173
       4149.4544      0.13395417
       4150.4116      0.14686238
       4151.3688      0.14493493
       4152.3260      0.12043233
       4153.2832      0.13689413
       4154.2404      0.17319016
       4155.1976      0.14890534
       4156.1548      0.11785407
       4157.1120      0.12277712
       4158.0692      0.13170518
       4159.0263      0.14690894
       4159.9835      0.13626499
       4160.9407      0.14880767
       4161.8979      0.14963103
       4162.8551      0.14668026
       4163.8123      0.15277999
       4164.7695      0.14768359
       4165.7267      0.14609539
       4166.6839      0.14048794
       4167.6411      0.14412160
       4168.5983      0.14343031
       4169.5555      0.13826184
       4170.5127      0.16395033
       4171.4698      0.14531605
       4172.4270      0.15917950
       4173.3842      0.11019214
       4174.3414      0.12772483
       4175.2986      0.12266893
       4176.2558     0.087722354
       4177.2130      0.12676666
       4178.1702      0.13645426
       4179.1274      0.11939562
       4180.0846      0.10735429
       4181.0418      0.11590555
       4181.9990      0.11524059
       4182.9562      0.15077175
       4183.9133      0.14565088
       4184.8705      0.14606347
       4185.8277      0.15412007
       4186.7849      0.13645190
       4187.7421      0.13738594
       4188.6993      0.13336692
       4189.6565      0.15823412
       4190.6137      0.17143694
       4191.5709      0.15144411
       4192.5281      0.15186124
       4193.4853      0.14779962
       4194.4425      0.16510020
       4195.3997      0.13684153
       4196.3569      0.13659573
       4197.3140      0.14346790
       4198.2712      0.13705641
       4199.2284      0.14658240
       4200.1856      0.13820702
       4201.1428      0.15223962
       4202.1000      0.12797745
       4203.0572      0.14102623
       4204.0144      0.15790704
       4204.9716      0.14005638
       4205.9288      0.13868846
       4206.8860      0.12843894
       4207.8432      0.13984969
       4208.8004      0.14063297
       4209.7575      0.12952924
       4210.7147      0.13795836
       4211.6719      0.14971808
       4212.6291      0.15123680
       4213.5863      0.12374841
       4214.5435      0.12519681
       4215.5007      0.14032561
       4216.4579      0.13720386
       4217.4151      0.13500541
       4218.3723      0.15038072
       4219.3295      0.16394228
       4220.2867      0.12629092
       4221.2439      0.15465737
       4222.2011      0.11666412
       4223.1582      0.11234613
       4224.1154      0.14596542
       4225.0726      0.14258634
       4226.0298      0.13748307
       4226.9870      0.12849293
       4227.9442      0.12357592
       4228.9014      0.14579636
       4229.8586      0.16234402
       4230.8158      0.14098943
       4231.7730      0.12320133
       4232.7302      0.14096839
       4233.6874      0.12861605
       4234.6446      0.11996489
       4235.6017      0.13700643
       4236.5589      0.15342944
       4237.5161      0.13325932
       4238.4733      0.14091865
       4239.4305      0.17715464
       4240.3877      0.16599639
       4241.3449      0.16259162
       4242.3021      0.15171763
       4243.2593      0.13022522
       4244.2165      0.13619614
       4245.1737      0.12097308
       4246.1309      0.13210757
       4247.0881      0.13529110
       4248.0452      0.13816314
       4249.0024      0.17140260
       4249.9596      0.14910757
       4250.9168      0.13575972
       4251.8740      0.12930570
       4252.8312      0.11780344
       4253.7884      0.14813093
       4254.7456      0.14727833
       4255.7028      0.15162660
       4256.6600      0.14031568
       4257.6172      0.12587449
       4258.5744      0.13245803
       4259.5316      0.14712571
       4260.4888      0.13323365
       4261.4459      0.15622683
       4262.4031      0.12439015
       4263.3603      0.12141818
       4264.3175      0.13442113
       4265.2747      0.12818068
       4266.2319      0.11897387
       4267.1891      0.15725829
       4268.1463      0.14405758
       4269.1035      0.12859734
       4270.0607      0.12307763
       4271.0179      0.13623086
       4271.9751      0.13491304
       4272.9323      0.15306455
       4273.8894      0.16311248
       4274.8466      0.13566658
       4275.8038      0.15959910
       4276.7610      0.14755700
       4277.7182      0.13822546
       4278.6754      0.15118619
       4279.6326      0.17008070
       4280.5898      0.14305563
       4281.5470      0.16009664
       4282.5042      0.15409289
       4283.4614      0.13209057
       4284.4186      0.15365345
       4285.3758      0.11473241
       4286.3330      0.11795023
       4287.2901      0.12606134
       4288.2473      0.12304376
       4289.2045      0.13510318
       4290.1617      0.10627679
       4291.1189      0.11745718
       4292.0761      0.13018324
       4293.0333      0.13397672
       4293.9905      0.12239738
       4294.9477      0.14221839
       4295.9049      0.13975768
       4296.8621      0.13596803
       4297.8193      0.10148702
       4298.7765      0.12860728
       4299.7336      0.13622533
       4300.6908      0.12358013
       4301.6480      0.11586187
       4302.6052     0.086191663
       4303.5624      0.13156850
       4304.5196      0.12322638
       4305.4768      0.11008445
       4306.4340      0.15038249
       4307.3912      0.14215874
       4308.3484      0.13679801
       4309.3056      0.14219896
       4310.2628      0.14411211
       4311.2200      0.12514191
       4312.1771      0.12957955
       4313.1343      0.14580878
       4314.0915      0.13485185
       4315.0487      0.15502596
       4316.0059      0.15839497
       4316.9631      0.16106140
       4317.9203      0.13384797
       4318.8775      0.13641077
       4319.8347      0.11648266
       4320.7919      0.11363279
       4321.7491      0.12012648
       4322.7063      0.14113812
       4323.6635      0.11596819
       4324.6207      0.11157428
       4325.5778      0.12040589
       4326.5350      0.13937896
       4327.4922      0.13415632
       4328.4494      0.11858977
       4329.4066      0.12812752
       4330.3638      0.14021067
       4331.3210      0.13859064
       4332.2782      0.14358095
       4333.2354      0.13723475
       4334.1926      0.14269149
       4335.1498      0.17070664
       4336.1070      0.17029527
       4337.0642      0.18408101
       4338.0213      0.16031567
       4338.9785      0.11202896
       4339.9357      0.13484323
       4340.8929      0.12364206
       4341.8501      0.11871515
       4342.8073      0.11493021
       4343.7645      0.11973316
       4344.7217      0.11859831
       4345.6789      0.12615837
       4346.6361      0.11665664
       4347.5933      0.12164558
       4348.5505      0.13138235
       4349.5077      0.12330283
       4350.4648      0.10945265
       4351.4220      0.14798047
       4352.3792      0.15483343
       4353.3364      0.17257098
       4354.2936      0.13121438
       4355.2508      0.13798444
       4356.2080      0.15947056
       4357.1652      0.15787170
       4358.1224      0.11483957
       4359.0796      0.14144487
       4360.0368      0.15029214
       4360.9940      0.15691609
       4361.9512      0.16663409
       4362.9084      0.13366297
       4363.8655      0.15234445
       4364.8227      0.16564303
       4365.7799      0.15020242
       4366.7371      0.16861560
       4367.6943      0.15762129
       4368.6515      0.16207426
       4369.6087      0.14151333
       4370.5659      0.13216753
       4371.5231      0.17855531
       4372.4803      0.16552482
       4373.4375      0.13618464
       4374.3947      0.15513712
       4375.3519      0.14141962
       4376.3090      0.14169119
       4377.2662      0.12550178
       4378.2234      0.15111213
       4379.1806      0.15540699
       4380.1378      0.14310585
       4381.0950      0.13511912
       4382.0522      0.13771025
       4383.0094      0.14892943
       4383.9666      0.14841057
       4384.9238      0.12920098
       4385.8810      0.11458811
       4386.8382      0.14657227
       4387.7954      0.17138289
       4388.7526      0.16981955
       4389.7097      0.15271441
       4390.6669      0.17557323
       4391.6241      0.14940034
       4392.5813      0.16048400
       4393.5385      0.18916453
       4394.4957      0.15865071
       4395.4529      0.12295352
       4396.4101      0.10361781
       4397.3673      0.13559714
       4398.3245      0.15223200
       4399.2817      0.14001770
       4400.2389      0.14518686
       4401.1961      0.15904273
       4402.1532      0.15709573
       4403.1104      0.13307708
       4404.0676      0.17369978
       4405.0248      0.17376156
       4405.9820      0.15477972
       4406.9392      0.15553193
       4407.8964      0.15525793
       4408.8536      0.14508638
       4409.8108      0.13492976
       4410.7680      0.14934587
       4411.7252      0.15121491
       4412.6824      0.15340978
       4413.6396      0.16055109
       4414.5967      0.13485789
       4415.5539      0.16106084
       4416.5111      0.18239473
       4417.4683      0.16195781
       4418.4255      0.13400916
       4419.3827      0.15698813
       4420.3399      0.15946929
       4421.2971      0.16383763
       4422.2543      0.12701910
       4423.2115      0.11406560
       4424.1687      0.12407960
       4425.1259      0.15716731
       4426.0831      0.16040661
       4427.0403      0.14531686
       4427.9974      0.13717503
       4428.9546      0.15021884
       4429.9118      0.15461269
       4430.8690      0.16619508
       4431.8262      0.17252885
       4432.7834      0.15856978
       4433.7406      0.13936999
       4434.6978      0.14471492
       4435.6550      0.13973433
       4436.6122      0.15947634
       4437.5694      0.15589788
       4438.5266      0.15955573
       4439.4838      0.13463989
       4440.4409      0.16895841
       4441.3981      0.17020636
       4442.3553      0.15744319
       4443.3125      0.15754703
       4444.2697      0.12986339
       4445.2269      0.14589697
       4446.1841      0.12315461
       4447.1413      0.13680137
       4448.0985      0.14917922
       4449.0557      0.13987775
       4450.0129      0.14648774
       4450.9701      0.15819634
       4451.9273      0.15082597
       4452.8845      0.16751794
       4453.8416      0.16143304
       4454.7988      0.16410878
       4455.7560      0.14782809
       4456.7132      0.13004555
       4457.6704      0.15248926
       4458.6276      0.15305941
       4459.5848      0.12980080
       4460.5420      0.14714915
       4461.4992      0.17963033
       4462.4564      0.18697325
       4463.4136      0.16880460
       4464.3708      0.17196873
       4465.3280      0.15570705
       4466.2851      0.15173239
       4467.2423      0.16875010
       4468.1995      0.18829753
       4469.1567      0.16062214
       4470.1139      0.16365165
       4471.0711      0.18771642
       4472.0283      0.19475778
       4472.9855      0.15937744
       4473.9427      0.16739901
       4474.8999      0.14986767
       4475.8571      0.15334293
       4476.8143      0.16824855
       4477.7715      0.14250621
       4478.7286      0.15758398
       4479.6858      0.14896923
       4480.6430      0.13240480
       4481.6002      0.17404194
       4482.5574      0.17628323
       4483.5146      0.19901719
       4484.4718      0.18169329
       4485.4290      0.16657956
       4486.3862      0.15957749
       4487.3434      0.17294786
       4488.3006      0.17139050
       4489.2578      0.16338694
       4490.2150      0.16822064
       4491.1722      0.13517383
       4492.1293      0.17391589
       4493.0865      0.19271270
       4494.0437      0.17077929
       4495.0009      0.16712285
       4495.9581      0.15756448
       4496.9153      0.14984171
       4497.8725      0.15485327
       4498.8297      0.18067296
       4499.7869      0.18157077
       4500.7441      0.14279137
       4501.7013      0.19166842
       4502.6585      0.19287198
       4503.6157      0.19129296
       4504.5728      0.17725909
       4505.5300      0.16377273
       4506.4872      0.17533694
       4507.4444      0.21454899
       4508.4016      0.20908495
       4509.3588      0.17304774
       4510.3160      0.17791638
       4511.2732      0.18223464
       4512.2304      0.17130553
       4513.1876      0.13693693
       4514.1448      0.14981873
       4515.1020      0.17235361
       4516.0592      0.14539324
       4517.0164      0.15523001
       4517.9735      0.14232871
       4518.9307      0.14056690
       4519.8879      0.16918125
       4520.8451      0.12459395
       4521.8023      0.15865578
       4522.7595      0.17213744
       4523.7167      0.16072473
       4524.6739      0.14908164
       4525.6311      0.12190227
       4526.5883      0.13448412
       4527.5455      0.13637419
       4528.5027      0.16403118
       4529.4599      0.18350961
       4530.4170      0.14683884
       4531.3742      0.12490458
       4532.3314      0.15516464
       4533.2886      0.13607423
       4534.2458      0.14120108
       4535.2030      0.13924251
       4536.1602      0.16325282
       4537.1174      0.16815847
       4538.0746      0.16092169
       4539.0318      0.15739899
       4539.9890      0.15270657
       4540.9462      0.13675627
       4541.9034      0.16924859
       4542.8605      0.17445074
       4543.8177      0.14136757
       4544.7749      0.16222665
       4545.7321      0.17051911
       4546.6893      0.17295323
       4547.6465      0.17671550
       4548.6037      0.16410038
       4549.5609      0.16786517
       4550.5181      0.20681565
       4551.4753      0.17786962
       4552.4325      0.15319783
       4553.3897      0.14824857
       4554.3469      0.15782436
       4555.3041      0.16421558
       4556.2612      0.15210022
       4557.2184      0.17574606
       4558.1756      0.17361196
       4559.1328      0.16786204
       4560.0900      0.19023730
       4561.0472      0.17106550
       4562.0044      0.15083122
       4562.9616      0.18667629
       4563.9188      0.18966306
       4564.8760      0.16382500
       4565.8332      0.14933402
       4566.7904      0.16089706
       4567.7476      0.17596242
       4568.7047      0.18777286
       4569.6619      0.16261435
       4570.6191      0.16408481
       4571.5763      0.18431057
       4572.5335      0.16932498
       4573.4907      0.15565685
       4574.4479      0.16624014
       4575.4051      0.15546312
       4576.3623      0.16518294
       4577.3195      0.16762748
       4578.2767      0.16524219
       4579.2339      0.17927641
       4580.1911      0.16716637
       4581.1482      0.15535662
       4582.1054      0.17110326
       4583.0626      0.16704053
       4584.0198      0.17971414
       4584.9770      0.17443832
       4585.9342      0.17837686
       4586.8914      0.17427503
       4587.8486      0.18108130
       4588.8058      0.17355431
       4589.7630      0.17480954
       4590.7202      0.19583101
       4591.6774      0.19003822
       4592.6346      0.16633287
       4593.5918      0.17301251
       4594.5489      0.18641459
       4595.5061      0.17965560
       4596.4633      0.16663000
       4597.4205      0.17955432
       4598.3777      0.18508120
       4599.3349      0.16034687
       4600.2921      0.18080455
       4601.2493      0.21186641
       4602.2065      0.21461691
       4603.1637      0.17182429
       4604.1209      0.19536116
       4605.0781      0.17359562
       4606.0353      0.16691837
       4606.9924      0.18625067
       4607.9496      0.16203963
       4608.9068      0.11803173
       4609.8640      0.16507266
       4610.8212      0.16903906
       4611.7784      0.16735785
       4612.7356      0.18599601
       4613.6928      0.21305971
       4614.6500      0.18234309
       4615.6072      0.13585668
       4616.5644      0.23669839
       4617.5216      0.24236662
       4618.4788      0.18981891
       4619.4360      0.19818076
       4620.3931      0.17203280
       4621.3503      0.14880023
       4622.3075      0.15547976
       4623.2647      0.19027863
       4624.2219      0.20585788
       4625.1791      0.15507659
       4626.1363      0.16028091
       4627.0935      0.15437088
       4628.0507      0.14758354
       4629.0079      0.16883990
       4629.9651      0.15926036
       4630.9223      0.17693975
       4631.8795      0.16073587
       4632.8366      0.17384679
       4633.7938      0.16087910
       4634.7510      0.13823136
       4635.7082      0.15853758
       4636.6654      0.17420738
       4637.6226      0.14208451
       4638.5798      0.15365190
       4639.5370      0.17303970
       4640.4942      0.18439039
       4641.4514      0.18246292
       4642.4086      0.17450929
       4643.3658      0.18713136
       4644.3230      0.20464875
       4645.2801      0.17850198
       4646.2373      0.17370163
       4647.1945      0.19153064
       4648.1517      0.16533137
       4649.1089      0.18360732
       4650.0661      0.20769848
       4651.0233      0.16696815
       4651.9805      0.16558542
       4652.9377      0.16373357
       4653.8949      0.17062494
       4654.8521      0.17508190
       4655.8093      0.19396312
       4656.7665      0.17809323
       4657.7237      0.17581562
       4658.6808      0.20010825
       4659.6380      0.18356783
       4660.5952      0.16800763
       4661.5524      0.14017535
       4662.5096      0.16706028
       4663.4668      0.17785340
       4664.4240      0.17048710
       4665.3812      0.17779742
       4666.3384      0.20758547
       4667.2956      0.18940276
       4668.2528      0.18122291
       4669.2100      0.18438464
       4670.1672      0.19158127
       4671.1243      0.21055780
       4672.0815      0.18089079
       4673.0387      0.18007274
       4673.9959      0.18127987
       4674.9531      0.16228688
       4675.9103      0.19271777
       4676.8675      0.18437467
       4677.8247      0.19681670
       4678.7819      0.17584322
       4679.7391      0.17166124
       4680.6963      0.17663187
       4681.6535      0.14111879
       4682.6107      0.18003441
       4683.5679      0.16901183
       4684.5250      0.18042237
       4685.4822      0.18093837
       4686.4394      0.17436032
       4687.3966      0.15835894
       4688.3538      0.17486977
       4689.3110      0.19377107
       4690.2682      0.18466034
       4691.2254      0.21532899
       4692.1826      0.21752852
       4693.1398      0.19548317
       4694.0970      0.17408980
       4695.0542      0.15649991
       4696.0114      0.19819212
       4696.9685      0.18572789
       4697.9257      0.19319993
       4698.8829      0.16099219
       4699.8401      0.12970735
       4700.7973      0.13771815
       4701.7545      0.15438688
       4702.7117      0.13475996
       4703.6689      0.15860310
       4704.6261      0.16347500
       4705.5833      0.18821030
       4706.5405      0.19567131
       4707.4977      0.15432744
       4708.4549      0.18500129
       4709.4120      0.17112132
       4710.3692      0.16612175
       4711.3264      0.16590267
       4712.2836      0.19897933
       4713.2408      0.17278372
       4714.1980      0.17776318
       4715.1552      0.16057362
       4716.1124      0.18048486
       4717.0696      0.15819161
       4718.0268      0.18721007
       4718.9840      0.19667797
       4719.9412      0.17047424
       4720.8984      0.16555503
       4721.8556      0.13977082
       4722.8127      0.16701635
       4723.7699      0.17297052
       4724.7271      0.14101849
       4725.6843      0.14051627
       4726.6415      0.15319133
       4727.5987      0.17273901
       4728.5559      0.15509815
       4729.5131      0.17865661
       4730.4703      0.20814716
       4731.4275      0.19102205
       4732.3847      0.17261363
       4733.3419      0.14317446
       4734.2991      0.15836980
       4735.2562      0.16936167
       4736.2134      0.18221595
       4737.1706      0.14169336
       4738.1278      0.15486892
       4739.0850      0.17540508
       4740.0422      0.17670793
       4740.9994      0.16160539
       4741.9566      0.16289795
       4742.9138      0.17176292
       4743.8710      0.14721364
       4744.8282      0.16775961
       4745.7854      0.18225850
       4746.7426      0.13513549
       4747.6998      0.12427037
       4748.6569      0.15321676
       4749.6141      0.16511091
       4750.5713      0.16840441
       4751.5285      0.17560983
       4752.4857      0.14749607
       4753.4429      0.16679266
       4754.4001      0.21664080
       4755.3573      0.17991451
       4756.3145      0.15010302
       4757.2717      0.14571154
       4758.2289      0.18804408
       4759.1861      0.18954133
       4760.1433      0.17088181
       4761.1004      0.16926950
       4762.0576      0.15878597
       4763.0148      0.17669294
       4763.9720      0.15355914
       4764.9292      0.16457778
       4765.8864      0.19726389
       4766.8436      0.14332938
       4767.8008      0.17179714
       4768.7580      0.19766710
       4769.7152      0.19304516
       4770.6724      0.17004822
       4771.6296      0.16684952
       4772.5868      0.19867918
       4773.5439      0.19421548
       4774.5011      0.16450936
       4775.4583      0.16389756
       4776.4155      0.18142824
       4777.3727      0.15000958
       4778.3299      0.15227252
       4779.2871      0.15802700
       4780.2443      0.20835210
       4781.2015      0.19637231
       4782.1587      0.18680109
       4783.1159      0.18899745
       4784.0731      0.20310957
       4785.0303      0.21128256
       4785.9875      0.16963112
       4786.9446      0.17866315
       4787.9018      0.17147924
       4788.8590      0.17073073
       4789.8162      0.16404558
       4790.7734      0.16829904
       4791.7306      0.17507211
       4792.6878      0.19060129
       4793.6450      0.19939634
       4794.6022      0.20952158
       4795.5594      0.20728702
       4796.5166      0.18727425
       4797.4738      0.17731904
       4798.4310      0.18800901
       4799.3881      0.20150865
       4800.3453      0.19742795
       4801.3025      0.17621360
       4802.2597      0.17594595
       4803.2169      0.14884476
       4804.1741      0.17927836
       4805.1313      0.17370594
       4806.0885      0.16937249
       4807.0457      0.16355422
       4808.0029      0.16669388
       4808.9601      0.15593272
       4809.9173      0.18680490
       4810.8745      0.15800304
       4811.8316      0.14566648
       4812.7888      0.14232145
       4813.7460      0.14438087
       4814.7032      0.15902736
       4815.6604      0.19206261
       4816.6176      0.19601368
       4817.5748      0.16872886
       4818.5320      0.17750356
       4819.4892      0.16179806
       4820.4464      0.16801715
       4821.4036      0.20244171
       4822.3608      0.20981302
       4823.3180      0.16455773
       4824.2752      0.14948957
       4825.2323      0.15788276
       4826.1895      0.19816331
       4827.1467      0.20309457
       4828.1039      0.15477033
       4829.0611      0.17760595
       4830.0183      0.17636120
       4830.9755      0.15811736
       4831.9327      0.13568782
       4832.8899      0.14876270
       4833.8471      0.10981276
       4834.8043      0.14435350
       4835.7615      0.15164952
       4836.7187      0.19389900
       4837.6758      0.24467528
       4838.6330      0.25290537
       4839.5902      0.29806752
       4840.5474      0.31275939
       4841.5046      0.30620728
       4842.4618      0.34325214
       4843.4190      0.31645548
       4844.3762      0.24573055
       4845.3334      0.20284389
       4846.2906      0.19734213
       4847.2478      0.17893512
       4848.2050      0.14049933
       4849.1622      0.16381073
       4850.1194      0.14263428
       4851.0765      0.17403216
       4852.0337      0.16456776
       4852.9909      0.16314755
       4853.9481      0.13404676
       4854.9053      0.14581061
       4855.8625      0.16907630
       4856.8197      0.17194372
       4857.7769      0.15204155
       4858.7341      0.13110839
       4859.6913      0.15087442
       4860.6485      0.15118755
       4861.6057      0.17207864
       4862.5629      0.16608289
       4863.5200      0.13269210
       4864.4772      0.18305158
       4865.4344      0.15663690
       4866.3916      0.15882181
       4867.3488      0.13986066
       4868.3060      0.17135021
       4869.2632      0.17868117
       4870.2204      0.16853105
       4871.1776      0.14974607
       4872.1348      0.16425419
       4873.0920      0.16872984
       4874.0492      0.19846012
       4875.0064      0.17259417
       4875.9635      0.16381773
       4876.9207      0.17097529
       4877.8779      0.17740658
       4878.8351      0.17274332
       4879.7923      0.15044990
       4880.7495      0.17255877
       4881.7067      0.18699723
       4882.6639      0.16012147
       4883.6211      0.18036142
       4884.5783      0.18908871
       4885.5355      0.17958309
       4886.4927      0.17706825
       4887.4499      0.14557425
       4888.4071      0.15395764
       4889.3642      0.16661042
       4890.3214      0.14322641
       4891.2786      0.17084806
       4892.2358      0.15685545
       4893.1930      0.13161276
       4894.1502      0.18150726
       4895.1074      0.14231636
       4896.0646      0.16704146
       4897.0218      0.17262399
       4897.9790      0.14682254
       4898.9362      0.17018544
       4899.8934      0.16654837
       4900.8506      0.15283752
       4901.8077      0.15647792
       4902.7649      0.16036744
       4903.7221      0.18136251
       4904.6793      0.15113768
       4905.6365      0.14397831
       4906.5937      0.14712168
       4907.5509      0.16442038
       4908.5081      0.16903346
       4909.4653      0.17117027
       4910.4225      0.16368603
       4911.3797      0.14891829
       4912.3369      0.15530932
       4913.2941      0.14757150
       4914.2513      0.14188937
       4915.2084      0.13962921
       4916.1656      0.15276400
       4917.1228      0.15443857
       4918.0800      0.15288883
       4919.0372      0.16399341
       4919.9944      0.15757679
       4920.9516      0.16199430
       4921.9088      0.17668718
       4922.8660      0.14842499
       4923.8232      0.12704237
       4924.7804      0.14473403
       4925.7376      0.17731949
       4926.6948      0.15781620
       4927.6519      0.18658309
       4928.6091      0.17078344
       4929.5663      0.18825738
       4930.5235      0.16981191
       4931.4807      0.16790078
       4932.4379      0.16684339
       4933.3951      0.13777299
       4934.3523      0.14529377
       4935.3095     0.074229020
       4936.2667      0.15415918
       4937.2239      0.21229637
       4938.1811      0.26620901
       4939.1383      0.27363080
       4940.0954      0.32431162
       4941.0526      0.16897048
       4942.0098      0.26848124
       4942.9670      0.40699447
       4943.9242      0.31806939
       4944.8814      0.15435559
       4945.8386      0.23207602
       4946.7958      0.17600040
       4947.7530      0.19990495
       4948.7102      0.19108699
       4949.6674      0.15372077
       4950.6246      0.16702697
       4951.5818      0.20907770
       4952.5390      0.13631605
       4953.4961      0.13872185
       4954.4533      0.13711401
       4955.4105      0.17157183
       4956.3677      0.15248066
       4957.3249      0.15442021
       4958.2821      0.14865215
       4959.2393      0.11918642
       4960.1965      0.12668580
       4961.1537      0.14286865
       4962.1109      0.12282138
       4963.0681      0.10432301
       4964.0253      0.14926792
       4964.9825      0.14633751
       4965.9396      0.12040954
       4966.8968      0.13896674
       4967.8540      0.12596393
       4968.8112      0.12931771
       4969.7684      0.12313865
       4970.7256      0.13286774
       4971.6828      0.15406476
       4972.6400      0.11861075
       4973.5972      0.12811172
       4974.5544      0.11615547
       4975.5116     0.082803807
       4976.4688      0.11613627
       4977.4260      0.13420774
       4978.3832      0.11855981
       4979.3403      0.18047982
       4980.2975      0.22121009
       4981.2547      0.19538140
       4982.2119      0.22039577
       4983.1691      0.21912323
       4984.1263      0.21253970
       4985.0835      0.18386087
       4986.0407      0.17232731
       4986.9979      0.14215390
       4987.9551      0.10852435
       4988.9123      0.12840408
       4989.8695      0.13153525
       4990.8267      0.10579075
       4991.7838     0.099469214
       4992.7410      0.12317816
       4993.6982      0.11212309
       4994.6554     0.094698547
       4995.6126     0.096188496
       4996.5698     0.090919861
       4997.5270      0.10719188
       4998.4842      0.11663364
       4999.4414     0.077004401
       5000.3986     0.070858036
       5001.3558     0.097012795
       5002.3130      0.12113779
       5003.2702      0.12279191
       5004.2273     0.090502222
       5005.1845     0.093906590
       5006.1417     0.078846625
       5007.0989     0.060660364
       5008.0561     0.095631659
       5009.0133     0.073527769
       5009.9705     0.072271776
       5010.9277     0.061547914
       5011.8849     0.095677531
       5012.8421     0.085503379
       5013.7993     0.070435515
       5014.7565     0.079872380
       5015.7137     0.086550211
       5016.6709     0.084980726
       5017.6280     0.071725415
       5018.5852     0.061157880
       5019.5424     0.095976165
       5020.4996     0.052807578
       5021.4568     0.059091289
       5022.4140     0.082822283
       5023.3712      0.10901121
       5024.3284     0.069776129
       5025.2856     0.051415876
       5026.2428     0.070844104
       5027.2000     0.048190570
       5028.1572     0.080483240
       5029.1144     0.087733160
       5030.0715     0.089648202
       5165.9647      0.26394514
       5166.6763      0.28748232
       5167.3878      0.25357167
       5168.0993      0.28991884
       5168.8109      0.22116917
       5169.5224      0.22169982
       5170.2339      0.18102892
       5170.9455      0.19523471
       5171.6570      0.25540992
       5172.3685      0.23194909
       5173.0801      0.29975485
       5173.7916      0.20284299
       5174.5031      0.21622517
       5175.2147      0.25831995
       5175.9262      0.27015727
       5176.6377      0.33773950
       5177.3493      0.37075265
       5178.0608      0.19067538
       5178.7723      0.22838448
       5179.4839      0.26058280
       5180.1954      0.30564406
       5180.9069      0.25014888
       5181.6185      0.26449794
       5182.3300      0.21671717
       5183.0415      0.20346132
       5183.7531      0.27587552
       5184.4646      0.28127954
       5185.1761      0.21693180
       5185.8877      0.15381408
       5186.5992      0.15193234
       5187.3107     0.096834796
       5188.0223      0.26258765
       5188.7338      0.24753485
       5189.4453      0.14554451
       5190.1569      0.22525418
       5190.8684      0.26429904
       5191.5799      0.21102496
       5192.2915      0.20198111
       5193.0030      0.19344843
       5193.7145      0.26007686
       5194.4261      0.24559911
       5195.1376      0.34639573
       5195.8491      0.26196096
       5196.5607      0.16315448
       5197.2722      0.33704253
       5197.9837      0.33159333
       5198.6953      0.24521070
       5199.4068      0.28902593
       5200.1183      0.32740173
       5200.8299      0.27613901
       5201.5414      0.22008779
       5202.2529      0.16058018
       5202.9645      0.26624136
       5203.6760      0.31781883
       5204.3875      0.27674782
       5205.0991      0.22082621
       5205.8106      0.28702093
       5206.5221      0.19857217
       5207.2337      0.24517436
       5207.9452      0.25462192
       5208.6567      0.16770273
       5209.3683      0.29946979
       5210.0798      0.23047742
       5210.7913      0.34673902
       5211.5029      0.21867148
       5212.2144      0.30325829
       5212.9259      0.22453432
       5213.6375      0.28886505
       5214.3490      0.20552116
       5215.0605      0.25840091
       5215.7721      0.25591990
       5216.4836      0.20384969
       5217.1951      0.20336065
       5217.9067      0.23377848
       5218.6182      0.25705112
       5219.3297      0.30734471
       5220.0413      0.28117715
       5220.7528      0.45590273
       5221.4643      0.39817580
       5222.1759      0.24505157
       5222.8874     0.077879511
       5223.5989      0.20727892
       5224.3105      0.36654261
       5225.0220      0.36137775
       5225.7335      0.25380138
       5226.4451      0.30282498
       5227.1566      0.23579035
       5227.8681      0.26146996
       5228.5797      0.27665106
       5229.2912      0.18426728
       5230.0027      0.28002737
       5230.7143      0.32009053
       5231.4258      0.24664338
       5232.1373      0.19096833
       5232.8489      0.21318493
       5233.5604      0.23280737
       5234.2719      0.25759627
       5234.9834      0.19442750
       5235.6950      0.22645370
       5236.4065      0.33404044
       5237.1180      0.20681846
       5237.8296      0.19209702
       5238.5411     0.017571238
       5239.2526      0.11794892
       5239.9642      0.18579978
       5240.6757      0.21525418
       5241.3872      0.33202949
       5242.0988      0.20247723
       5242.8103      0.41513465
       5243.5218      0.47131886
       5244.2334      0.36031013
       5244.9449      0.31191261
       5245.6564      0.21625591
       5246.3680      0.13782018
       5247.0795      0.20660540
       5247.7910      0.35794167
       5248.5026      0.38514180
       5249.2141      0.31798015
       5249.9256      0.38322807
       5250.6372      0.29327835
       5251.3487      0.33079576
       5252.0602      0.26915139
       5252.7718      0.25324956
       5253.4833      0.27977432
       5254.1948      0.33281542
       5254.9064      0.28321809
       5255.6179      0.30835434
       5256.3294      0.40221279
       5257.0410      0.20216704
       5257.7525      0.22282951
       5258.4640      0.46163816
       5259.1756      0.28980633
       5259.8871      0.24934838
       5260.5986      0.25466777
       5261.3102      0.28613364
       5262.0217      0.26516118
       5262.7332      0.30911069
       5263.4448      0.30730721
       5264.1563      0.24735103
       5264.8678      0.27259381
       5265.5794      0.30707925
       5266.2909      0.34075608
       5267.0024      0.34686517
       5267.7140      0.20441229
       5268.4255      0.24246535
       5269.1370      0.17327557
       5269.8486      0.15906856
       5270.5601      0.31837293
       5271.2716      0.27962934
       5271.9832      0.27772672
       5272.6947      0.28341904
       5273.4062      0.27923816
       5274.1178      0.31229376
       5274.8293      0.38683149
       5275.5408      0.37902943
       5276.2524      0.30472606
       5276.9639      0.22694695
       5277.6754      0.33871007
       5278.3870      0.21877370
       5279.0985      0.27806953
       5279.8100      0.37135289
       5280.5216      0.35905804
       5281.2331      0.33321697
       5281.9446      0.36367358
       5282.6562      0.23886413
       5283.3677      0.32386176
       5284.0792      0.38302453
       5284.7908      0.32304944
       5285.5023      0.35505231
       5286.2138      0.34087369
       5286.9254      0.26985307
       5287.6369      0.32182661
       5288.3484      0.31275450
       5289.0600      0.20790394
       5289.7715      0.29693379
       5290.4830      0.21437361
       5291.1946      0.33530046
       5291.9061      0.34395280
       5292.6176      0.31913455
       5293.3292      0.19521107
       5294.0407      0.24000219
       5294.7522      0.33657969
       5295.4638      0.28086514
       5296.1753      0.31416162
       5296.8868      0.33332369
       5297.5984      0.27590562
       5298.3099      0.33222192
       5299.0214      0.34653930
       5299.7330      0.22966733
       5300.4445      0.32499903
       5301.1560      0.36466444
       5301.8676      0.39774929
       5302.5791      0.22407011
       5303.2906      0.27665392
       5304.0021      0.24984730
       5304.7137      0.29483146
       5305.4252      0.40654197
       5306.1367      0.28805846
       5306.8483      0.42899442
       5307.5598      0.32786712
       5308.2713      0.32835457
       5308.9829      0.27938634
       5309.6944      0.31895574
       5310.4059      0.43731537
       5311.1175      0.35773545
       5311.8290      0.34084021
       5312.5405      0.33018118
       5313.2521      0.29500334
       5313.9636      0.22901545
       5314.6751      0.26884859
       5315.3867      0.32512645
       5316.0982      0.31034604
       5316.8097      0.17699684
       5317.5213      0.30407831
       5318.2328      0.41990271
       5318.9443      0.29780511
       5319.6559      0.21705756
       5320.3674      0.25625930
       5321.0789      0.34175731
       5321.7905      0.33774121
       5322.5020      0.32578716
       5323.2135      0.31026420
       5323.9251      0.25459240
       5324.6366      0.38242348
       5325.3481      0.25472798
       5326.0597      0.34836311
       5326.7712      0.30086932
       5327.4827      0.40349762
       5328.1943      0.35394584
       5328.9058      0.30893229
       5329.6173      0.24202897
       5330.3289      0.34465394
       5331.0404      0.21206930
       5331.7519      0.31561933
       5332.4635      0.32113710
       5333.1750      0.30195501
       5333.8865      0.32476202
       5334.5981      0.27980996
       5335.3096      0.23249698
       5336.0211      0.29177516
       5336.7327      0.29564139
       5337.4442      0.25255496
       5338.1557      0.27398640
       5338.8673      0.23970838
       5339.5788      0.28888010
       5340.2903      0.32711763
       5341.0019      0.35414122
       5341.7134      0.31163642
       5342.4249      0.36951329
       5343.1365      0.32934108
       5343.8480      0.20798595
       5344.5595      0.36455456
       5345.2711      0.27817122
       5345.9826      0.20104668
       5346.6941      0.37734334
       5347.4057      0.34725068
       5348.1172      0.30356214
       5348.8287      0.33523336
       5349.5403      0.26713556
       5350.2518      0.31316016
       5350.9633      0.22103334
       5351.6749      0.21234539
       5352.3864      0.32057015
       5353.0979      0.27594853
       5353.8095      0.33985193
       5354.5210      0.28926016
       5355.2325      0.24624576
       5355.9441      0.16490923
       5356.6556      0.23439428
       5357.3671      0.26083880
       5358.0787      0.38305189
       5358.7902      0.21439465
       5359.5017      0.29453505
       5360.2133      0.37596149
       5360.9248      0.25668811
       5361.6363      0.28954652
       5362.3479      0.27437267
       5363.0594      0.29681011
       5363.7709      0.24951064
       5364.4825      0.43507182
       5365.1940      0.25316237
       5365.9055      0.25474725
       5366.6171      0.18557245
       5367.3286      0.32295695
       5368.0401      0.34394729
       5368.7517      0.22780030
       5369.4632      0.46397691
       5370.1747      0.31254801
       5370.8863      0.39351179
       5371.5978      0.23574839
       5372.3093      0.41710127
       5373.0208      0.44249712
       5373.7324      0.38673376
       5374.4439      0.42237149
       5375.1554      0.27297768
       5375.8670      0.24115919
       5376.5785      0.28611600
       5377.2900      0.26545845
       5378.0016      0.41780684
       5378.7131      0.36417383
       5379.4246      0.34870856
       5380.1362      0.19748410
       5380.8477      0.27565390
       5381.5592      0.42126994
       5382.2708      0.38241737
       5382.9823      0.27777150
       5383.6938      0.24511099
       5384.4054      0.25035652
       5385.1169      0.28993053
       5385.8284      0.30833400
       5386.5400      0.40373980
       5387.2515      0.30402110
       5387.9630      0.23303273
       5388.6746      0.21471910
       5389.3861      0.17126103
       5390.0976      0.34176414
       5390.8092      0.29660312
       5391.5207      0.35523622
       5392.2322      0.36497763
       5392.9438      0.31284573
       5393.6553      0.32094923
       5394.3668      0.29603306
       5395.0784      0.36352293
       5395.7899      0.29530059
       5396.5014      0.29111336
       5397.2130      0.26598035
       5397.9245      0.18608414
       5398.6360      0.19908439
       5399.3476      0.48904240
       5400.0591      0.29762650
       5400.7706      0.27409779
       5401.4822      0.29503757
       5402.1937      0.26825077
       5402.9052      0.27636153
       5403.6168      0.38779937
       5404.3283      0.22914979
       5405.0398      0.14217288
       5405.7514      0.28104161
       5406.4629      0.19889953
       5407.1744      0.24267489
       5407.8860      0.26201844
       5408.5975      0.24317743
       5409.3090      0.25766651
       5410.0206      0.17539031
       5410.7321      0.24190282
       5411.4436      0.24283036
       5412.1552      0.37957246
       5412.8667      0.29087957
       5413.5782      0.33222224
       5414.2898      0.27172053
       5415.0013      0.28911235
       5415.7128      0.24903676
       5416.4244      0.13901443
       5417.1359      0.26441889
       5417.8474      0.30127023
       5418.5590      0.25263050
       5419.2705      0.29356916
       5419.9820      0.29363073
       5420.6936      0.30244065
       5421.4051      0.36986117
       5422.1166      0.27597148
       5422.8282      0.21258365
       5423.5397      0.29264533
       5424.2512      0.34215800
       5424.9628      0.22351055
       5425.6743      0.22422408
       5426.3858      0.23404187
       5427.0974      0.37328348
       5427.8089      0.36801682
       5428.5204      0.32571134
       5429.2320      0.32486773
       5429.9435      0.35424686
       5430.6550      0.30577349
       5431.3666      0.22456894
       5432.0781      0.26669068
       5432.7896      0.28156588
       5433.5012      0.31305523
       5434.2127      0.31745433
       5434.9242      0.29695249
       5435.6358      0.35078399
       5436.3473      0.23983509
       5437.0588      0.25145758
       5437.7704      0.22803164
       5438.4819      0.38252190
       5439.1934      0.35651540
       5439.9050      0.29369549
       5440.6165      0.30873380
       5441.3280      0.40053847
       5442.0395      0.32018789
       5442.7511      0.40946863
       5443.4626      0.24885028
       5444.1741      0.38448047
       5444.8857      0.28526594
       5445.5972      0.27468456
       5446.3087      0.38595636
       5447.0203      0.35758640
       5447.7318      0.32675381
       5448.4433      0.29364207
       5449.1549      0.31802310
       5449.8664      0.30751576
       5450.5779      0.40281042
       5451.2895      0.27028686
       5452.0010      0.35561595
       5452.7125      0.37633803
       5453.4241      0.47102767
       5454.1356      0.35466154
       5454.8471      0.24549765
       5455.5587      0.30766571
       5456.2702      0.31818503
       5456.9817      0.38506306
       5457.6933      0.27949040
       5458.4048      0.31580733
       5459.1163      0.25253923
       5459.8279      0.25756111
       5460.5394      0.25182369
       5461.2509      0.29457014
       5461.9625      0.43468013
       5462.6740      0.43369186
       5463.3855      0.35513771
       5464.0971      0.28329606
       5464.8086      0.29745334
       5465.5201      0.29974483
       5466.2317      0.30632839
       5466.9432      0.38948955
       5467.6547      0.22922174
       5468.3663      0.33051943
       5469.0778      0.34146393
       5469.7893      0.25448818
       5470.5009      0.32424832
       5471.2124      0.31836160
       5471.9239      0.36412583
       5472.6355      0.26553706
       5473.3470      0.23975897
       5474.0585      0.32459801
       5474.7701      0.19871924
       5475.4816      0.26617110
       5476.1931      0.36615226
       5476.9047      0.26562289
       5477.6162      0.28056842
       5478.3277      0.30503045
       5479.0393      0.34722922
       5479.7508      0.31765849
       5480.4623      0.25642495
       5481.1739      0.31496910
       5481.8854      0.31289669
       5482.5969      0.24572900
       5483.3085      0.27022313
       5484.0200      0.36702383
       5484.7315      0.26228448
       5485.4431      0.35405105
       5486.1546      0.30592497
       5486.8661     0.094277441
       5487.5777      0.26759352
       5488.2892      0.39217508
       5489.0007      0.31788676
       5489.7123      0.26500801
       5490.4238      0.37075310
       5491.1353      0.31802752
       5491.8469      0.36807512
       5492.5584      0.27009170
       5493.2699      0.21916359
       5493.9815      0.38564056
       5494.6930      0.28195716
       5495.4045      0.38512066
       5496.1161      0.34159036
       5496.8276      0.25843712
       5497.5391      0.35788780
       5498.2507      0.33298700
       5498.9622      0.32585497
       5499.6737      0.32561119
       5500.3853      0.33013821
       5501.0968      0.52702541
       5501.8083      0.53420279
       5502.5199      0.41394416
       5503.2314      0.29652566
       5503.9429      0.35164605
       5504.6545      0.36377232
       5505.3660      0.44397466
       5506.0775      0.38953204
       5506.7891      0.50720887
       5507.5006      0.26040995
       5508.2121      0.33269120
       5508.9237      0.38205927
       5509.6352      0.39504050
       5510.3467      0.38325932
       5511.0582      0.35162322
       5511.7698      0.45857917
       5512.4813      0.38588819
       5513.1928      0.33499134
       5513.9044      0.31223962
       5514.6159      0.53903301
       5515.3274      0.33653932
       5516.0390      0.31966020
       5516.7505      0.51235147
       5517.4620      0.42767055
       5518.1736      0.42809101
       5518.8851      0.53610434
       5519.5966      0.51936713
       5520.3082      0.32162480
       5521.0197      0.43376751
       5521.7312      0.34176129
       5522.4428      0.41323625
       5523.1543      0.39658683
       5523.8658      0.36575739
       5524.5774      0.31944629
       5525.2889      0.45151103
       5526.0004      0.45205701
       5526.7120      0.32548621
       5527.4235      0.22032887
       5528.1350      0.27035518
       5528.8466      0.25730468
       5529.5581      0.40761080
       5530.2696      0.30151253
       5530.9812      0.31095314
       5531.6927      0.29837607
       5532.4042      0.21941683
       5533.1158      0.32161100
       5533.8273      0.36538635
       5534.5388      0.30212981
       5535.2504      0.40546177
       5535.9619      0.35274823
       5536.6734      0.38196908
       5537.3850      0.30945881
       5538.0965      0.34349196
       5538.8080      0.49499027
       5539.5196      0.40830239
       5540.2311      0.25794515
       5540.9426      0.34606682
       5541.6542      0.27834257
       5542.3657      0.59431712
       5543.0772      0.41877380
       5543.7888      0.40085576
       5544.5003      0.37500691
       5545.2118      0.33878486
       5545.9234      0.27470331
       5546.6349      0.42370839
       5547.3464      0.45564715
       5548.0580      0.40079963
       5548.7695      0.40249618
       5549.4810      0.35196647
       5550.1926      0.38249946
       5550.9041      0.34547896
       5551.6156      0.22636003
       5552.3272      0.18560078
       5553.0387      0.33822357
       5553.7502      0.21624075
       5554.4618      0.41194272
       5555.1733      0.29947233
       5555.8848      0.16968492
       5556.5964      0.24623517
       5557.3079      0.27556687
       5558.0194      0.33772802
       5558.7310      0.35252821
       5559.4425      0.36832364
       5560.1540      0.39861220
       5560.8656      0.47621830
       5561.5771      0.35817514
       5562.2886      0.40357166
       5563.0002      0.52121173
       5563.7117      0.27107571
       5564.4232      0.43352834
       5565.1348      0.43640752
       5565.8463      0.48473938
       5566.5578      0.41843362
       5567.2694      0.42566821
       5567.9809      0.39129908
       5568.6924      0.23633423
       5569.4040      0.35877131
       5570.1155      0.37153336
       5570.8270      0.47700998
       5571.5386      0.41410399
       5572.2501      0.48121513
       5572.9616      0.36479897
       5573.6732      0.37724194
       5574.3847      0.24591263
       5575.0962      0.34817981
       5575.8078      0.40780173
       5576.5193      0.40380710
       5577.2308      0.45233365
       5577.9424      0.36403206
       5578.6539      0.33496045
       5579.3654      0.42321504
       5580.0769      0.36070982
       5580.7885      0.35565201
       5581.5000      0.35639264
       5582.2115      0.50619277
       5582.9231      0.45359358
       5583.6346      0.45581317
       5584.3461      0.37029674
       5585.0577      0.40256474
       5585.7692      0.34442778
       5586.4807      0.37637974
       5587.1923      0.30359193
       5587.9038      0.33823155
       5588.6153      0.16379432
       5589.3269      0.33417096
       5590.0384      0.32402056
       5590.7499      0.16495465
       5591.4615      0.14511610
       5592.1730      0.29851323
       5592.8845      0.34513182
       5593.5961      0.40721579
       5594.3076      0.36382788
       5595.0191      0.30247227
       5595.7307      0.34658914
       5596.4422      0.21950070
       5597.1537      0.39013102
       5597.8653      0.38855617
       5598.5768      0.31858113
       5599.2883      0.33333308
       5599.9999      0.40315152
       5600.7114      0.55517954
       5601.4229      0.33963958
       5602.1345      0.27415161
       5602.8460      0.25303259
       5603.5575      0.39659381
       5604.2691      0.30476871
       5604.9806      0.38208839
       5605.6921      0.17783211
       5606.4037    -0.081856654
       5607.1152      0.14674903
       5607.8267     -0.55077190
       5608.5383      0.95544339
       5609.2498       1.0835787
       5609.9613    -0.061565598
       5610.6729      0.57318664
       5611.3844       1.2043445
       5612.0959       1.1139067
       5612.8075       2.4606303
       5613.5190       1.7944182
       5614.2305      0.71707449
       5614.9421      0.47753650
       5615.6536      0.38613567
       5616.3651      0.21799447
       5617.0767      0.36224076
       5617.7882      0.36968907
       5618.4997      0.38752682
       5619.2113      0.52326694
       5619.9228      0.38967029
       5620.6343      0.43235305
       5621.3459      0.29601835
       5622.0574      0.42484510
       5622.7689      0.46794852
       5623.4805      0.39502555
       5624.1920      0.38860247
       5624.9035      0.39582499
       5625.6151      0.37497415
       5626.3266      0.35859270
       5627.0381      0.32315152
       5627.7497      0.38234450
       5628.4612      0.36487104
       5629.1727      0.37596652
       5629.8843      0.11865755
       5630.5958      0.41180076
       5631.3073      0.46192606
       5632.0189      0.43109511
       5632.7304      0.43102464
       5633.4419      0.46917790
       5634.1535      0.37893242
       5634.8650      0.49916465
       5635.5765      0.42120441
       5636.2881      0.45494318
       5636.9996      0.45255163
       5637.7111      0.41496218
       5638.4227      0.35945675
       5639.1342      0.43451579
       5639.8457      0.32545880
       5640.5573      0.29584837
       5641.2688      0.46010734
       5641.9803      0.26394899
       5642.6919      0.41251972
       5643.4034      0.34644302
       5644.1149      0.19812630
       5644.8265      0.23124041
       5645.5380      0.37846882
       5646.2495      0.45759997
       5646.9611      0.39042946
       5647.6726      0.35430913
       5648.3841      0.43747806
       5649.0956      0.34014336
       5649.8072      0.46030378
       5650.5187      0.45997134
       5651.2302      0.42145007
       5651.9418      0.47580773
       5652.6533      0.45088110
       5653.3648      0.39828328
       5654.0764      0.29489551
       5654.7879      0.51057302
       5655.4994      0.54897046
       5656.2110      0.45167401
       5656.9225      0.30197831
       5657.6340      0.35939935
       5658.3456      0.49147166
       5659.0571      0.24282542
       5659.7686      0.29036203
       5660.4802      0.44904210
       5661.1917      0.44113839
       5661.9032      0.32419362
       5662.6148      0.35907212
       5663.3263      0.28419546
       5664.0378      0.29699628
       5664.7494      0.40267174
       5665.4609      0.36232847
       5666.1724      0.31884559
       5666.8840      0.18771505
       5667.5955      0.81693237
       5668.3070      0.78176258
       5669.0186      0.79668054
       5669.7301      0.63028820
       5670.4416      0.35993840
       5671.1532      0.41670929
       5671.8647      0.35680722
       5672.5762      0.30262464
       5673.2878      0.35506302
       5673.9993      0.33908887
       5674.7108      0.26144967
       5675.4224      0.48668831
       5676.1339      0.33467568
       5676.8454      0.30072352
       5677.5570      0.29544833
       5678.2685      0.39497633
       5678.9800      0.42887775
       5679.6916      0.25935514
       5680.4031      0.48169593
       5681.1146      0.51401173
       5681.8262      0.38402142
       5682.5377      0.44892200
       5683.2492      0.37525963
       5683.9608      0.27616496
       5684.6723      0.39265698
       5685.3838      0.34229329
       5686.0954      0.29623372
       5686.8069      0.23429272
       5687.5184      0.27117406
       5688.2300      0.37760713
       5688.9415      0.44315155
       5689.6530      0.32001590
       5690.3646      0.36566450
       5691.0761      0.36491685
       5691.7876      0.42460715
       5692.4992      0.33422358
       5693.2107      0.33235337
       5693.9222      0.41188205
       5694.6338      0.40883109
       5695.3453      0.44790683
       5696.0568      0.39283991
       5696.7684      0.44665409
       5697.4799      0.45652246
       5698.1914      0.36091550
       5698.9030      0.35787673
       5699.6145      0.27253607
       5700.3260      0.37450837
       5701.0376      0.44739374
       5701.7491      0.42628294
       5702.4606      0.41804107
       5703.1722      0.37244579
       5703.8837      0.39399276
       5704.5952      0.27092887
       5705.3068      0.30094888
       5706.0183      0.32249928
       5706.7298      0.46676899
       5707.4414      0.32352095
       5708.1529      0.30412078
       5708.8644      0.19869737
       5709.5760      0.41625516
       5710.2875      0.35113453
       5710.9990      0.31982273
       5711.7106      0.42650771
       5712.4221      0.30657064
       5713.1336      0.39823324
       5713.8452      0.44112016
       5714.5567      0.40880819
       5715.2682      0.27400712
       5715.9798      0.18817263
       5716.6913      0.40390659
       5717.4028      0.34513453
       5718.1143      0.29866710
       5718.8259      0.37331834
       5719.5374      0.47518216
       5720.2489      0.34061480
       5720.9605      0.28856599
       5721.6720      0.38173442
       5722.3835      0.35032406
       5723.0951      0.30033345
       5723.8066      0.40702640
       5724.5181      0.38725864
       5725.2297      0.39008194
       5725.9412      0.25410505
       5726.6527      0.40966460
       5727.3643      0.37604976
       5728.0758      0.48910275
       5728.7873      0.27619529
       5729.4989      0.38912387
       5730.2104      0.35629795
       5730.9219      0.47329807
       5731.6335      0.40036951
       5732.3450      0.43429210
       5733.0565      0.27541081
       5733.7681      0.32390868
       5734.4796      0.38474962
       5735.1911      0.23665798
       5735.9027      0.33835265
       5736.6142      0.43703493
       5737.3257      0.36540736
       5738.0373      0.39499632
       5738.7488      0.38664156
       5739.4603      0.37138148
       5740.1719      0.39593450
       5740.8834      0.38812653
       5741.5949      0.41750155
       5742.3065      0.37154532
       5743.0180      0.37582110
       5743.7295      0.30213623
       5744.4411      0.34338851
       5745.1526      0.45621103
       5745.8641      0.27663984
       5746.5757      0.25666758
       5747.2872      0.35682692
       5747.9987      0.40098980
       5748.7103      0.38271843
       5749.4218      0.38435934
       5750.1333      0.39481115
       5750.8449      0.29970199
       5751.5564      0.46672520
       5752.2679      0.39447103
       5752.9795      0.33600678
       5753.6910      0.27107341
       5754.4025      0.51783798
       5755.1141      0.18758702
       5755.8256      0.34570636
       5756.5371      0.30880903
       5757.2487      0.47290049
       5757.9602      0.32476591
       5758.6717      0.35704120
       5759.3833      0.50232694
       5760.0948      0.40218184
       5760.8063      0.24305449
       5761.5179      0.40920088
       5762.2294      0.38084665
       5762.9409      0.51898534
       5763.6525      0.42790440
       5764.3640      0.34526904
       5765.0755      0.46419819
       5765.7871      0.35098081
       5766.4986      0.36218280
       5767.2101      0.35994913
       5767.9217      0.49206412
       5768.6332      0.31278356
       5769.3447      0.36651596
       5770.0563      0.46647385
       5770.7678      0.47876677
       5771.4793      0.37253589
       5772.1909      0.29710731
       5772.9024      0.41620919
       5773.6139      0.33366429
       5774.3255      0.39124006
       5775.0370      0.41321868
       5775.7485      0.31468648
       5776.4601      0.27925766
       5777.1716      0.38771079
       5777.8831      0.40188651
       5778.5947      0.46882802
       5779.3062      0.39259271
       5780.0177      0.37184678
       5780.7293      0.29872064
       5781.4408      0.37277555
       5782.1523      0.29835118
       5782.8639      0.26384925
       5783.5754      0.30640304
       5784.2869      0.28317849
       5784.9985      0.44971658
       5785.7100      0.26671208
       5786.4215      0.36235395
       5787.1330      0.40687971
       5787.8446      0.31279003
       5788.5561      0.26908559
       5789.2676      0.42233211
       5789.9792      0.51413242
       5790.6907      0.38409088
       5791.4022      0.42360704
       5792.1138      0.46607317
       5792.8253      0.22556173
       5793.5368      0.48395252
       5794.2484      0.52837733
       5794.9599      0.48444848
       5795.6714      0.40225636
       5796.3830      0.37317795
       5797.0945      0.41649345
       5797.8060      0.37546659
       5798.5176      0.38057373
       5799.2291      0.32964227
       5799.9406      0.38478897
       5800.6522      0.44433516
       5801.3637      0.24134459
       5802.0752      0.36141406
       5802.7868      0.36991557
       5803.4983      0.26503525
       5804.2098      0.40577004
       5804.9214      0.43290808
       5805.6329      0.49314558
       5806.3444      0.26741703
       5807.0560      0.33546323
       5807.7675      0.43440694
       5808.4790      0.48420327
       5809.1906      0.38765056
       5809.9021      0.32260959
       5810.6136      0.33603829
       5811.3252      0.38998204
       5812.0367      0.44172888
       5812.7482      0.33795116
       5813.4598      0.43538554
       5814.1713      0.38969098
       5814.8828      0.44142803
       5815.5944      0.53370941
       5816.3059      0.45281198
       5817.0174      0.34435798
       5817.7290      0.29895512
       5818.4405      0.57672685
       5819.1520      0.40108698
       5819.8636      0.40107875
       5820.5751      0.33008178
       5821.2866      0.46748403
       5821.9982      0.42287971
       5822.7097      0.37237797
       5823.4212      0.36428593
       5824.1328      0.36984437
       5824.8443      0.34256260
       5825.5558      0.27353627
       5826.2674      0.51554662
       5826.9789      0.33257141
       5827.6904      0.42391079
       5828.4020      0.44851847
       5829.1135      0.35021608
       5829.8250      0.46414182
       5830.5366      0.43259746
       5831.2481      0.40610620
       5831.9596      0.41379036
       5832.6712      0.41407911
       5833.3827      0.42908810
       5834.0942      0.37259221
       5834.8058      0.46500077
       5835.5173      0.49305300
       5836.2288      0.40098258
       5836.9404      0.41614465
       5837.6519      0.44242952
       5838.3634      0.48134129
       5839.0750      0.45174907
       5839.7865      0.33846675
       5840.4980      0.38914117
       5841.2096      0.29871955
       5841.9211      0.42158075
       5842.6326      0.38908607
       5843.3442      0.40286333
       5844.0557      0.23784016
       5844.7672      0.41547584
       5845.4788      0.40127698
       5846.1903      0.41584376
       5846.9018      0.44744849
       5847.6134      0.40036022
       5848.3249      0.43635822
       5849.0364      0.43048515
       5849.7480      0.35079714
       5850.4595      0.47062004
       5851.1710      0.36031184
       5851.8826      0.42248195
       5852.5941      0.33957187
       5853.3056      0.57373746
       5854.0172      0.39666697
       5854.7287      0.27758248
       5855.4402      0.38665138
       5856.1517      0.47089062
       5856.8633      0.36426518
       5857.5748      0.35366457
       5858.2863      0.42895488
       5858.9979      0.45906000
       5859.7094      0.49331543
       5860.4209      0.33544802
       5861.1325      0.35976858
       5861.8440      0.46284395
       5862.5555      0.32591876
       5863.2671      0.11643504
       5863.9786      0.38273994
       5864.6901      0.27974555
       5865.4017      0.43866973
       5866.1132      0.30782700
       5866.8247      0.34944653
       5867.5363      0.40102546
       5868.2478      0.40000621
       5868.9593      0.26729297
       5869.6709      0.40804690
       5870.3824      0.45090261
       5871.0939      0.35339644
       5871.8055      0.51010981
       5872.5170      0.34560562
       5873.2285      0.43660758
       5873.9401      0.37722157
       5874.6516      0.32851527
       5875.3631      0.50958529
       5876.0747      0.40249215
       5876.7862      0.43737381
       5877.4977      0.43348834
       5878.2093      0.42981847
       5878.9208      0.44957855
       5879.6323      0.46484170
       5880.3439      0.50458685
       5881.0554      0.44760365
       5881.7669      0.44390126
       5882.4785      0.44508901
       5883.1900      0.61347185
       5883.9015      0.46619537
       5884.6131      0.46986878
       5885.3246      0.38764029
       5886.0361      0.55721941
       5886.7477      0.40415135
       5887.4592      0.47019889
       5888.1707      0.49212992
       5888.8823      0.35947668
       5889.5938      0.38143230
       5890.3053      0.47047874
       5891.0169      0.30607019
       5891.7284      0.30921964
       5892.4399      0.39332644
       5893.1515      0.42015060
       5893.8630      0.26302602
       5894.5745      0.35652058
       5895.2861      0.27215386
       5895.9976      0.38148499
       5896.7091      0.31012512
       5897.4207      0.48360704
       5898.1322      0.40712817
       5898.8437      0.32973709
       5899.5553      0.20535800
       5900.2668      0.36126007
       5900.9783      0.31444590
       5901.6899      0.36891877
       5902.4014      0.31307858
       5903.1129      0.39045802
       5903.8245      0.33986651
       5904.5360      0.40550078
       5905.2475      0.39878781
       5905.9591      0.28479155
       5906.6706      0.33174976
       5907.3821      0.22168192
       5908.0937      0.26173727
       5908.8052      0.45075969
       5909.5167      0.35611756
       5910.2283      0.30819087
       5910.9398      0.41101149
       5911.6513      0.38944775
       5912.3629      0.36995568
       5913.0744      0.28307743
       5913.7859      0.38359592
       5914.4975      0.41376248
       5915.2090      0.40837938
       5915.9205      0.46704086
       5916.6321      0.34644257
       5917.3436      0.28846329
       5918.0551      0.28100537
       5918.7667      0.36297151
       5919.4782      0.30722671
       5920.1897      0.34958046
       5920.9013      0.36148797
       5921.6128      0.42712826
       5922.3243      0.37209312
       5923.0359      0.29764260
       5923.7474      0.30999771
       5924.4589      0.34450417
       5925.1704      0.34333632
       5925.8820      0.36271783
       5926.5935      0.42339914
       5927.3050      0.38762899
       5928.0166      0.34526636
       5928.7281      0.37087577
       5929.4396      0.30503089
       5930.1512      0.39661825
       5930.8627      0.31454952
       5931.5742      0.26306979
       5932.2858      0.29882680
       5932.9973      0.48644606
       5933.7088      0.26288495
       5934.4204      0.45880653
       5935.1319      0.32012395
       5935.8434      0.34365348
       5936.5550      0.25433028
       5937.2665      0.34054113
       5937.9780      0.36502702
       5938.6896      0.30880147
       5939.4011      0.41714744
       5940.1126      0.37261216
       5940.8242      0.37007292
       5941.5357      0.31158478
       5942.2472      0.38838962
       5942.9588      0.36660799
       5943.6703      0.33319559
       5944.3818      0.28777099
       5945.0934      0.33457225
       5945.8049      0.36130024
       5946.5164      0.27788048
       5947.2280      0.31658305
       5947.9395      0.37093268
       5948.6510      0.26027711
       5949.3626      0.44141207
       5950.0741      0.34982811
       5950.7856      0.28543205
       5951.4972      0.30883116
       5952.2087      0.35141326
       5952.9202      0.32123620
       5953.6318      0.35519244
       5954.3433      0.40692116
       5955.0548      0.37227302
       5955.7664      0.39248165
       5956.4779      0.45124726
       5957.1894      0.35659620
       5957.9010      0.47849466
       5958.6125      0.28526833
       5959.3240      0.37592815
       5960.0356      0.39798946
       5960.7471      0.28023831
       5961.4586      0.47077128
       5962.1702      0.22018461
       5962.8817      0.43600030
       5963.5932      0.37975327
       5964.3048      0.21513062
       5965.0163      0.49455626
       5965.7278      0.42207060
       5966.4394      0.47043595
       5967.1509      0.36848434
       5967.8624      0.35678038
       5968.5740      0.38964476
       5969.2855      0.26875466
       5969.9970      0.31894622
       5970.7086      0.35454051
       5971.4201      0.37635671
       5972.1316      0.29155872
       5972.8432      0.31917693
       5973.5547      0.43143744
       5974.2662      0.43803474
       5974.9778      0.27000399
       5975.6893      0.34218942
       5976.4008      0.39377550
       5977.1124      0.31837673
       5977.8239      0.38537534
       5978.5354      0.35438300
       5979.2470      0.28181507
       5979.9585      0.36267932
       5980.6700      0.31062705
       5981.3816      0.29417536
       5982.0931      0.32333311
       5982.8046      0.36300609
       5983.5162      0.35802695
       5984.2277      0.36614787
       5984.9392      0.35994629
       5985.6508      0.25611443
       5986.3623      0.27254774
       5987.0738      0.28727295
       5987.7854      0.40760222
       5988.4969      0.41513324
       5989.2084      0.22275795
       5989.9200      0.36391229
       5990.6315      0.41004638
       5991.3430      0.30135838
       5992.0546      0.32587989
       5992.7661      0.33260964
       5993.4776      0.33884058
       5994.1891      0.46583776
       5994.9007      0.41749260
       5995.6122      0.48991206
       5996.3237      0.44849166
       5997.0353      0.27411761
       5997.7468      0.46775831
       5998.4583      0.36913487
       5999.1699      0.38944045
       5999.8814      0.36291915
       6000.5929      0.34511717
       6001.3045      0.39414520
       6002.0160      0.32256567
       6002.7275      0.39378621
       6003.4391      0.42578182
       6004.1506      0.39171978
       6004.8621      0.36218838
       6005.5737      0.38594971
       6006.2852      0.36011797
       6006.9967      0.57095169
       6007.7083      0.26049485
       6008.4198      0.32916370
       6009.1313      0.45186752
       6009.8429      0.20324565
       6010.5544      0.28366904
       6011.2659      0.31086084
       6011.9775      0.39866953
       6012.6890      0.38363676
       6013.4005      0.42934159
       6014.1121      0.35971823
       6014.8236      0.29308091
       6015.5351      0.41455348
       6016.2467      0.41291783
       6016.9582      0.39612479
       6017.6697      0.30415753
       6018.3813      0.43827795
       6019.0928      0.31408165
       6019.8043      0.38956264
       6020.5159      0.44932106
       6021.2274      0.31655366
       6021.9389      0.29788065
       6022.6505      0.33778417
       6023.3620      0.54187359
       6024.0735      0.42851614
       6024.7851      0.36662807
       6025.4966      0.42590127
       6026.2081      0.35185645
       6026.9197      0.41255020
       6027.6312      0.40241511
       6028.3427      0.37501489
       6029.0543      0.50321073
       6029.7658      0.53594007
       6030.4773      0.33052426
       6031.1889      0.28671511
       6031.9004      0.40218106
       6032.6119      0.40400841
       6033.3235      0.33028955
       6034.0350      0.49256594
       6034.7465      0.30176355
       6035.4581      0.43477619
       6036.1696      0.50670370
       6036.8811      0.46615182
       6037.5927      0.36580630
       6038.3042      0.40016973
       6039.0157      0.29890344
       6039.7273      0.45849517
       6040.4388      0.28075476
       6041.1503      0.36747948
       6041.8619      0.40011558
       6042.5734      0.38638786
       6043.2849      0.40283365
       6043.9965      0.43181389
       6044.7080      0.41647654
       6045.4195      0.53500651
       6046.1311      0.32581972
       6046.8426      0.41523083
       6047.5541      0.44287298
       6048.2657      0.34386375
       6048.9772      0.41227885
       6049.6887      0.30931494
       6050.4003      0.51909677
       6051.1118      0.44559408
       6051.8233      0.44111325
       6052.5349      0.28738270
       6053.2464      0.38412444
       6053.9579      0.35871947
       6054.6695      0.38189919
       6055.3810      0.45119688
       6056.0925      0.37077533
       6056.8041      0.26036400
       6057.5156      0.43698540
       6058.2271      0.50096927
       6058.9387      0.30549098
       6059.6502      0.27540686
       6060.3617      0.41289716
       6061.0733      0.30202717
       6061.7848      0.37034862
       6062.4963      0.50865282
       6063.2078      0.37539100
       6063.9194      0.28025006
       6064.6309      0.44316698
       6065.3424      0.45551764
       6066.0540      0.35525501
       6066.7655      0.40699665
       6067.4770      0.30208621
       6068.1886      0.37032084
       6068.9001      0.50975284
       6069.6116      0.44477733
       6070.3232      0.26766454
       6071.0347      0.49388142
       6071.7462      0.51644081
       6072.4578      0.35854758
       6073.1693      0.38152696
       6073.8808      0.32832668
       6074.5924      0.45084145
       6075.3039      0.31392665
       6076.0154      0.33538954
       6076.7270      0.32149585
       6077.4385      0.38422648
       6078.1500      0.13341333
       6078.8616      0.29484694
       6079.5731      0.57084209
       6080.2846      0.32618043
       6080.9962      0.40785129
       6081.7077      0.35971524
       6082.4192      0.51197917
       6083.1308      0.54996953
       6083.8423      0.52037886
       6084.5538      0.50409715
       6085.2654      0.54694040
       6085.9769      0.39245455
       6086.6884      0.51133872
       6087.4000      0.48044425
       6088.1115      0.59158087
       6088.8230      0.45165338
       6089.5346      0.40785477
       6090.2461      0.39203455
       6090.9576      0.44151136
       6091.6692      0.46422358
       6092.3807      0.42862120
       6093.0922      0.47155233
       6093.8038      0.42445283
       6094.5153      0.29889896
       6095.2268      0.38827303
       6095.9384      0.42501019
       6096.6499      0.32403227
       6097.3614      0.54408364
       6098.0730      0.43455565
       6098.7845      0.37699006
       6099.4960      0.40115984
       6100.2076      0.46226013
       6100.9191      0.43617498
       6101.6306      0.39667726
       6102.3422      0.30576488
       6103.0537      0.38530486
       6103.7652      0.41197448
       6104.4768      0.38475216
       6105.1883      0.40881561
       6105.8998      0.40444981
       6106.6114      0.34762402
       6107.3229      0.35293015
       6108.0344      0.35206552
       6108.7460      0.27736698
       6109.4575      0.62352653
       6110.1690      0.59035014
       6110.8806      0.69625542
       6111.5921      0.53172766
       6112.3036      0.58159766
       6113.0152      0.59181232
       6113.7267      0.36176885
       6114.4382      0.38811227
       6115.1498      0.29894636
       6115.8613      0.29322019
       6116.5728      0.29585188
       6117.2844      0.34735105
       6117.9959      0.21218619
       6118.7074      0.27638558
       6119.4190      0.31479920
       6120.1305      0.28198689
       6120.8420      0.35115582
       6121.5536      0.34822288
       6122.2651      0.30637739
       6122.9766      0.30837083
       6123.6882      0.39576805
       6124.3997      0.23686357
       6125.1112      0.29731614
       6125.8228      0.50938925
       6126.5343      0.54134678
       6127.2458      0.25109511
       6127.9574      0.36850229
       6128.6689      0.41164824
       6129.3804      0.32984794
       6130.0920      0.31365194
       6130.8035      0.26614274
       6131.5150      0.31397328
       6132.2265      0.31770291
       6132.9381      0.23120943
       6133.6496      0.37483760
       6134.3611      0.49634243
       6135.0727      0.42833337
       6135.7842      0.38027509
       6136.4957      0.34282861
       6137.2073      0.58443115
       6137.9188      0.47947318
       6138.6303      0.40618676
       6139.3419      0.40350590
       6140.0534      0.39632384
       6140.7649      0.41219122
       6141.4765      0.45231275
       6142.1880      0.44133333
       6142.8995      0.48924085
       6143.6111      0.31110975
       6144.3226      0.51037495
       6145.0341      0.39609454
       6145.7457      0.44614059
       6146.4572      0.42947628
       6147.1687      0.35847456
       6147.8803      0.46302821
       6148.5918      0.36026861
       6149.3033      0.45028934
       6150.0149      0.30690629
       6150.7264      0.33840415
       6151.4379      0.37281347
       6152.1495      0.37691701
       6152.8610      0.31032693
       6153.5725      0.24416033
       6154.2841      0.41042547
       6154.9956      0.49581473
       6155.7071      0.45188093
       6156.4187      0.47382146
       6157.1302      0.51051602
       6157.8417      0.49102841
       6158.5533      0.26593628
       6159.2648      0.35126360
       6159.9763      0.41499173
       6160.6879      0.52271799
       6161.3994      0.52758129
       6162.1109      0.29886278
       6162.8225      0.45272442
       6163.5340      0.43112141
       6164.2455      0.31670810
       6164.9571      0.38021877
       6165.6686      0.36216812
       6166.3801      0.55593428
       6167.0917      0.42992261
       6167.8032      0.45138798
       6168.5147      0.49996863
       6169.2263      0.37923920
       6169.9378      0.46869715
       6170.6493      0.44514846
       6171.3609      0.26258161
       6172.0724      0.40329314
       6172.7839      0.39359361
       6173.4955      0.40535488
       6174.2070      0.28787947
       6174.9185      0.36807525
       6175.6301      0.47007415
       6176.3416      0.47985032
       6177.0531      0.36400576
       6177.7647      0.42867419
       6178.4762      0.40326166
       6179.1877      0.26330298
       6179.8993      0.37376852
       6180.6108      0.30477476
       6181.3223      0.23368605
       6182.0339      0.29714460
       6182.7454      0.35622260
       6183.4569      0.32681165
       6184.1685      0.28349723
       6184.8800      0.38074600
       6185.5915      0.43494071
       6186.3031      0.48012522
       6187.0146      0.30148273
       6187.7261      0.36129467
       6188.4377      0.52017938
       6189.1492      0.49278374
       6189.8607      0.61247434
       6190.5723      0.39968569
       6191.2838      0.32223214
       6191.9953      0.32760982
       6192.7069      0.30747270
       6193.4184      0.51700432
       6194.1299      0.44460700
       6194.8415      0.49817675
       6195.5530      0.54445150
       6196.2645      0.56332549
       6196.9761      0.41620854
       6197.6876      0.45948604
       6198.3991      0.37689919
       6199.1107      0.21921708
       6199.8222      0.37218147
       6200.5337      0.41074117
       6201.2452      0.45272105
       6201.9568      0.40365313
       6202.6683      0.41249655
       6203.3798      0.42456853
       6204.0914      0.36505557
       6204.8029      0.37184400
       6205.5144      0.33680427
       6206.2260      0.50241017
       6206.9375      0.46721873
       6207.6490      0.32212776
       6208.3606      0.35045737
       6209.0721      0.46202514
       6209.7836      0.37612954
       6210.4952      0.39716640
       6211.2067      0.48318288
       6211.9182      0.39053234
       6212.6298      0.33266152
       6213.3413      0.35732509
       6214.0528      0.38212107
       6214.7644      0.48784107
       6215.4759      0.47022428
       6216.1874      0.46087423
       6216.8990      0.38402788
       6217.6105      0.36529863
       6218.3220      0.51896840
       6219.0336      0.47458863
       6219.7451      0.52233530
       6220.4566      0.35318210
       6221.1682      0.35244941
       6221.8797      0.40190170
       6222.5912      0.43166485
       6223.3028      0.43898989
       6224.0143      0.44034246
       6224.7258      0.40913136
       6225.4374      0.39847583
       6226.1489      0.41994457
       6226.8604      0.48068552
       6227.5720      0.36623218
       6228.2835      0.42785408
       6228.9950      0.40462185
       6229.7066      0.39037284
       6230.4181      0.36947786
       6231.1296      0.38468396
       6231.8412      0.33777268
       6232.5527      0.44580260
       6233.2642      0.44197501
       6233.9758      0.27990443
       6234.6873      0.58240853
       6235.3988      0.30061546
       6236.1104      0.40360020
       6236.8219      0.37360700
       6237.5334      0.49117668
       6238.2450      0.47751318
       6238.9565      0.52622384
       6239.6680      0.37883791
       6240.3796      0.26487767
       6241.0911      0.42258794
       6241.8026      0.40660953
       6242.5142      0.40862572
       6243.2257      0.47839882
       6243.9372      0.48009723
       6244.6488      0.36113381
       6245.3603      0.39350409
       6246.0718      0.30866816
       6246.7834      0.45604358
       6247.4949      0.36657678
       6248.2064      0.34120558
       6248.9180      0.48747678
       6249.6295      0.48204360
       6250.3410      0.42016838
       6251.0526      0.49604888
       6251.7641      0.45483877
       6252.4756      0.43212980
       6253.1872      0.40044638
       6253.8987      0.32099896
       6254.6102      0.35122734
       6255.3218      0.40324528
       6256.0333      0.45105587
       6256.7448      0.33167816
       6257.4564      0.46506360
       6258.1679      0.34451329
       6258.8794      0.38062919
       6259.5910      0.38949993
       6260.3025      0.41003883
       6261.0140      0.41293977
       6261.7256      0.42523726
       6262.4371      0.40845965
       6263.1486      0.40689359
       6263.8602      0.37546974
       6264.5717      0.50412200
       6265.2832      0.38838753
       6265.9948      0.45203106
       6266.7063      0.37404325
       6267.4178      0.34023665
       6268.1294      0.46820065
       6268.8409      0.43488367
       6269.5524      0.44209813
       6270.2639      0.39784115
       6270.9755      0.33955275
       6271.6870      0.36726998
       6272.3985      0.57151226
       6273.1101      0.40820221
       6273.8216      0.35283332
       6274.5331      0.38047266
       6275.2447      0.43298165
       6275.9562      0.41113179
       6276.6677      0.45438583
       6277.3793      0.42102855
       6278.0908      0.55945945
       6278.8023      0.36876542
       6279.5139      0.43435572
       6280.2254      0.48989300
       6280.9369      0.48986118
       6281.6485      0.45948748
       6282.3600      0.39589069
       6283.0715      0.34471571
       6283.7831      0.44092091
       6284.4946      0.34953740
       6285.2061      0.30766693
       6285.9177      0.35064615
       6286.6292      0.31195674
       6287.3407      0.41185057
       6288.0523      0.41094230
       6288.7638      0.46658017
       6289.4753      0.50250542
       6290.1869      0.47381861
       6290.8984      0.40789760
       6291.6099      0.35935885
       6292.3215      0.39151621
       6293.0330      0.53231596
       6293.7445      0.45536690
       6294.4561      0.34777608
       6295.1676      0.35065289
       6295.8791      0.38373176
       6296.5907      0.44852221
       6297.3022      0.42680165
       6298.0137      0.49009698
       6298.7253      0.46788004
       6299.4368      0.59280786
       6300.1483      0.52241049
       6300.8599      0.67721444
       6301.5714      0.66630626
       6302.2829      0.50551617
       6302.9945      0.55498307
       6303.7060      0.51119726
       6304.4175      0.36745306
       6305.1291      0.37145507
       6305.8406      0.38843238
       6306.5521      0.52018867
       6307.2637      0.44609817
       6307.9752      0.47268502
       6308.6867      0.42109797
       6309.3983      0.42554510
       6310.1098      0.45651209
       6310.8213      0.52771372
       6311.5329      0.37390132
       6312.2444      0.36009565
       6312.9559      0.45497644
       6313.6675      0.39979491
       6314.3790      0.40450991
       6315.0905      0.26864806
       6315.8021      0.41511187
       6316.5136      0.40800213
       6317.2251      0.43974243
       6317.9367      0.39320185
       6318.6482      0.46310172
       6319.3597      0.46339951
       6320.0713      0.43069086
       6320.7828      0.46313355
       6321.4943      0.30263126
       6322.2059      0.45005650
       6322.9174      0.30880878
       6323.6289      0.32202359
       6324.3405      0.47322054
       6325.0520      0.51335657
       6325.7635      0.38276307
       6326.4751      0.37591467
       6327.1866      0.38673990
       6327.8981      0.43435386
       6328.6097      0.58405615
       6329.3212      0.36754593
       6330.0327      0.40781414
       6330.7443      0.38992243
       6331.4558      0.42836044
       6332.1673      0.40802434
       6332.8789      0.32477584
       6333.5904      0.39251784
       6334.3019      0.40065054
       6335.0135      0.39863945
       6335.7250      0.44133927
       6336.4365      0.41918467
       6337.1481      0.36430613
       6337.8596      0.46888445
       6338.5711      0.56175094
       6339.2826      0.44862654
       6339.9942      0.40260906
       6340.7057      0.41402775
       6341.4172      0.42114630
       6342.1288      0.48475061
       6342.8403      0.41398344
       6343.5518      0.46036583
       6344.2634      0.45200566
       6344.9749      0.36962214
       6345.6864      0.28835401
       6346.3980      0.39300043
       6347.1095      0.36149528
       6347.8210      0.56716520
       6348.5326      0.47266144
       6349.2441      0.44485363
       6349.9556      0.52281543
       6350.6672      0.47578833
       6351.3787      0.38266310
       6352.0902      0.33378942
       6352.8018      0.38498273
       6353.5133      0.37194842
       6354.2248      0.41776033
       6354.9364      0.41555355
       6355.6479      0.29314323
       6356.3594      0.35754025
       6357.0710      0.41502777
       6357.7825      0.31992505
       6358.4940      0.48302562
       6359.2056      0.48732001
       6359.9171      0.56627282
       6360.6286      0.34064618
       6361.3402      0.37293315
       6362.0517      0.41613299
       6362.7632      0.48205595
       6363.4748      0.48522183
       6364.1863      0.54244112
       6364.8978      0.44506916
       6365.6094      0.37973186
       6366.3209      0.44051221
       6367.0324      0.54406747
       6367.7440      0.49646079
       6368.4555      0.44162370
       6369.1670      0.48779054
       6369.8786      0.38692960
       6370.5901      0.29312863
       6371.3016      0.47435551
       6372.0132      0.41029898
       6372.7247      0.49327424
       6373.4362      0.53547371
       6374.1478      0.46971821
       6374.8593      0.51108744
       6375.5708      0.37268752
       6376.2824      0.46246194
       6376.9939      0.43227270
       6377.7054      0.43379500
       6378.4170      0.35715603
       6379.1285      0.37060828
       6379.8400      0.43776111
       6380.5516      0.48215776
       6381.2631      0.34176708
       6381.9746      0.43763487
       6382.6862      0.45307448
       6383.3977      0.38780538
       6384.1092      0.32142915
       6384.8208      0.35248225
       6385.5323      0.23901611
       6386.2438      0.29449031
       6386.9554      0.29325641
       6387.6669      0.31823833
       6388.3784      0.39993657
       6389.0900      0.41663836
       6389.8015      0.32097256
       6390.5130      0.48783578
       6391.2246      0.46293776
       6391.9361      0.44929491
       6392.6476      0.35539019
       6393.3592      0.32777709
       6394.0707      0.38257640
       6394.7822      0.41821063
       6395.4938      0.45845097
       6396.2053      0.35000654
       6396.9168      0.32495568
       6397.6284      0.42785080
       6398.3399      0.36499630
       6399.0514      0.44155336
       6399.7630      0.42017397
       6400.4745      0.34390207
       6401.1860      0.40930050
       6401.8976      0.37007914
       6402.6091      0.28085160
       6403.3206      0.43221601
       6404.0322      0.43182378
       6404.7437      0.34777314
       6405.4552      0.37567611
       6406.1668      0.38371477
       6406.8783      0.39966714
       6407.5898      0.47014421
       6408.3013      0.45760238
       6409.0129      0.44418304
       6409.7244      0.37523386
       6410.4359      0.28322643
       6411.1475      0.42565328
       6411.8590      0.41072391
       6412.5705      0.38626757
       6413.2821      0.41168236
       6413.9936      0.47649667
       6414.7051      0.45620636
       6415.4167      0.39652328
       6416.1282      0.33691716
       6416.8397      0.38952897
       6417.5513      0.44251868
       6418.2628      0.41393891
       6418.9743      0.38088222
       6419.6859      0.42048440
       6420.3974      0.49865319
       6421.1089      0.43534284
       6421.8205      0.49265969
       6422.5320      0.40168172
       6423.2435      0.43846722
       6423.9551      0.42724024
       6424.6666      0.50780791
       6425.3781      0.46143643
       6426.0897      0.45603872
       6426.8012      0.41820913
       6427.5127      0.36747507
       6428.2243      0.45934395
       6428.9358      0.35130675
       6429.6473      0.30340850
       6430.3589      0.30808749
       6431.0704      0.43619660
       6431.7819      0.40605061
       6432.4935      0.50186192
       6433.2050      0.46376732
       6433.9165      0.36149205
       6434.6281      0.42436481
       6435.3396      0.37538291
       6436.0511      0.38514844
       6436.7627      0.45145468
       6437.4742      0.49084127
       6438.1857      0.47919502
       6438.8973      0.43822202
       6439.6088      0.44723197
       6440.3203      0.35633496
       6441.0319      0.19908256
       6441.7434      0.44724469
       6442.4549     0.032512457
       6443.1665      0.34225152
       6443.8780      0.46783121
       6444.5895      0.50875297
       6445.3011      0.34641469
       6446.0126      0.40119524
       6446.7241      0.19836009
       6447.4357      0.59779479
       6448.1472      0.38675377
       6448.8587      0.85241467
       6449.5703      0.48964645
       6450.2818      0.51944022
       6450.9933      0.39000526
       6451.7049      0.42250748
       6452.4164      0.30325147
       6453.1279      0.23614452
       6453.8395      0.39376367
       6454.5510      0.49612057
       6455.2625      0.37588586
       6455.9741      0.40670887
       6456.6856      0.32472406
       6457.3971      0.43055226
       6458.1087      0.57014192
       6458.8202      0.48840694
       6459.5317      0.45634999
       6460.2433      0.39639658
       6460.9548      0.42217488
       6461.6663      0.38948414
       6462.3779      0.43341890
       6463.0894      0.38230997
       6463.8009      0.44989575
       6464.5125      0.40446984
       6465.2240      0.42170657
       6465.9355      0.37476338
       6466.6471      0.46448047
       6467.3586      0.24243377
       6468.0701      0.47608207
       6468.7817      0.51506001
       6469.4932      0.41304568
       6470.2047      0.43829756
       6470.9163      0.34389076
       6471.6278      0.34533570
       6472.3393      0.39671448
       6473.0509      0.39630794
       6473.7624      0.24336114
       6474.4739      0.47890401
       6475.1855      0.35081186
       6475.8970      0.66536374
       6476.6085      0.57813813
       6477.3200      0.31377592
       6478.0316      0.10884609
       6478.7431      0.95992996
       6479.4546      0.92638633
       6480.1662      0.44623601
       6480.8777      0.54683404
       6481.5892      0.48381138
       6482.3008      0.46276683
       6483.0123     0.066905768
       6483.7238      0.61108362
       6484.4354      0.61357863
       6485.1469      0.59889416
       6485.8584      0.71547964
       6486.5700      0.54053663
       6487.2815      0.40991888
       6487.9930      0.32275857
       6488.7046      0.42398378
       6489.4161      0.39900118
       6490.1276      0.45471573
       6490.8392      0.33696604
       6491.5507      0.44665957
       6492.2622      0.43891823
       6492.9738      0.34020359
       6493.6853      0.52207303
       6494.3968      0.33522464
       6495.1084      0.48575397
       6495.8199      0.30676791
       6496.5314      0.51494549
       6497.2430      0.37299455
       6497.9545      0.31567283
       6498.6660      0.36517407
       6499.3776      0.38524021
       6500.0891      0.25407907
       6500.8006      0.51335618
       6501.5122      0.51523422
       6502.2237      0.38475060
       6502.9352      0.47375161
       6503.6468      0.31461106
       6504.3583      0.60406986
       6505.0698      0.41313585
       6505.7814      0.29323810
       6506.4929      0.42323894
       6507.2044      0.32220828
       6507.9160      0.25170838
       6508.6275      0.30740784
       6509.3390      0.35378923
       6510.0506      0.52221183
       6510.7621      0.37226335
       6511.4736      0.50395187
       6512.1852      0.47841165
       6512.8967      0.50014974
       6513.6082      0.59610791
       6514.3198      0.52455634
       6515.0313      0.48097508
       6515.7428      0.51108039
       6516.4544      0.52394008
       6517.1659      0.58893657
       6517.8774      0.49356432
       6518.5890      0.45941774
       6519.3005      0.46294722
       6520.0120      0.38545557
       6520.7236      0.44004031
       6521.4351      0.51248368
       6522.1466      0.34929010
       6522.8582      0.61736834
       6523.5697      0.73800409
       6524.2812      0.65559860
       6524.9928      0.33216630
       6525.7043      0.44592989
       6526.4158      0.60456401
       6527.1274      0.47756621
       6527.8389      0.34950443
       6528.5504      0.45833986
       6529.2620      0.42892033
       6529.9735      0.46293408
       6530.6850      0.58545970
       6531.3966      0.57986688
       6532.1081      0.41876933
       6532.8196      0.62404608
       6533.5312      0.64394172
       6534.2427      0.54009209
       6534.9542    -0.075563844
       6535.6658      0.64210329
       6536.3773      0.83964130
       6537.0888      0.71755398
       6537.8004      0.66404833
       6538.5119      0.49976906
       6539.2234      0.53782818
       6539.9350      0.42302654
       6540.6465      0.33469341
       6541.3580      0.42508128
       6542.0696      0.50394778
       6542.7811      0.37726412
       6543.4926      0.45009831
       6544.2042      0.32615753
       6544.9157      0.41535489
       6545.6272      0.51683943
       6546.3387      0.51927903
       6547.0503      0.72852305
       6547.7618      0.69590042
       6548.4733      0.72044131
       6549.1849      0.64800671
       6549.8964      0.91178507
       6550.6079      0.68317309
       6551.3195      0.66164227
       6552.0310      0.79621698
       6552.7425      0.69086722
       6553.4541      0.55831691
       6554.1656      0.34231845
       6554.8771      0.42020383
       6555.5887      0.39810264
       6556.3002      0.20344013
       6557.0117      0.40168038
       6557.7233     0.040263844
       6558.4348      0.47672508
       6559.1463      0.69510652
       6559.8579      0.91324875
       6560.5694       1.7357523
       6561.2809       2.5317931
       6561.9925       3.8907473
       6562.7040       4.6727931
       6563.4155       4.4241338
       6564.1271       4.1108254
       6564.8386       3.4323232
       6565.5501       2.5996994
       6566.2617       1.7974420
       6566.9732       1.1942924
       6567.6847      0.68544708
       6568.3963      0.55308217
       6569.1078      0.61971462
       6569.8193      0.56063449
       6570.5309      0.42166498
       6571.2424      0.37419974
       6571.9539      0.52882089
       6572.6655      0.41393048
       6573.3770      0.47715164
       6574.0885      0.43387781
       6574.8001      0.35994444
       6575.5116      0.53015605
       6576.2231      0.46408326
       6576.9347      0.59302136
       6577.6462      0.64442508
       6578.3577      0.49556601
       6579.0693      0.54545187
       6579.7808      0.48137226
       6580.4923      0.66790313
       6581.2039      0.88926946
       6581.9154       1.1572299
       6582.6269       1.4234747
       6583.3385       1.5967653
       6584.0500       1.7170250
       6584.7615       1.4344960
       6585.4731       1.3245519
       6586.1846       1.0706895
       6586.8961      0.64196458
       6587.6077      0.51074079
       6588.3192      0.40923395
       6589.0307      0.41612147
       6589.7423      0.61197903
       6590.4538      0.83847232
       6591.1653      0.84513333
       6591.8769      0.43938527
       6592.5884      0.42542041
       6593.2999      0.49644359
       6594.0115      0.50213592
       6594.7230      0.52176113
       6595.4345      0.33874512
       6596.1461      0.49983822
       6596.8576      0.32452202
       6597.5691      0.41152686
       6598.2807      0.41418941
       6598.9922      0.53726814
       6599.7037      0.40263252
       6600.4153      0.57143037
       6601.1268      0.49634124
       6601.8383      0.37065632
       6602.5499      0.50134313
       6603.2614      0.52470918
       6603.9729      0.50483974
       6604.6845      0.49527221
       6605.3960      0.42939206
       6606.1075      0.61746825
       6606.8191      0.42083983
       6607.5306      0.31973641
       6608.2421      0.52853434
       6608.9537      0.54507771
       6609.6652      0.42960764
       6610.3767      0.51976654
       6611.0883      0.50977483
       6611.7998      0.50560078
       6612.5113      0.49077165
       6613.2229      0.51931535
       6613.9344      0.41470027
       6614.6459      0.42918069
       6615.3574      0.56038894
       6616.0690      0.63882833
       6616.7805      0.57457852
       6617.4920      0.48999778
       6618.2036      0.57163568
       6618.9151      0.63362959
       6619.6266      0.53173959
       6620.3382      0.56736765
       6621.0497      0.62279587
       6621.7612      0.66993774
       6622.4728      0.57449138
       6623.1843      0.55024722
       6623.8958      0.78825353
       6624.6074      0.48295055
       6625.3189      0.36037562
       6626.0304      0.56505053
       6626.7420      0.36862940
       6627.4535      0.49385168
       6628.1650      0.59647398
       6628.8766      0.54674507
       6629.5881      0.58849357
       6630.2996      0.59251898
       6631.0112      0.51138573
       6631.7227      0.54491211
       6632.4342      0.60411287
       6633.1458      0.71879977
       6633.8573      0.50023865
       6634.5688      0.40399421
       6635.2804      0.51496673
       6635.9919      0.41466621
       6636.7034      0.50654885
       6637.4150      0.54488135
       6638.1265      0.63931646
       6638.8380      0.46446407
       6639.5496      0.60123377
       6640.2611      0.49187782
       6640.9726      0.43102570
       6641.6842      0.46343609
       6642.3957      0.38960218
       6643.1072      0.48009979
       6643.8188      0.55268364
       6644.5303      0.59187153
       6645.2418      0.40968195
       6645.9534      0.63987133
       6646.6649      0.61279885
       6647.3764      0.51990921
       6648.0880      0.30827252
       6648.7995      0.24311134
       6649.5110      0.49737972
       6650.2226      0.78615142
       6650.9341      0.51942578
       6651.6456      0.55484382
       6652.3572      0.61238082
       6653.0687      0.56023654
       6653.7802      0.49481162
       6654.4918      0.34082958
       6655.2033      0.44490293
       6655.9148      0.40990529
       6656.6264      0.37522681
       6657.3379      0.45055737
       6658.0494      0.42414138
       6658.7610      0.55598790
       6659.4725      0.51672010
       6660.1840      0.63623156
       6660.8956      0.59141307
       6661.6071      0.74416830
       6662.3186      0.76220142
       6663.0302      0.57482080
       6663.7417      0.50449261
       6664.4532      0.53858676
       6665.1648      0.48564609
       6665.8763      0.44325911
       6666.5878      0.51083236
       6667.2994      0.65133402
       6668.0109      0.56540205
       6668.7224      0.63504288
       6669.4340      0.79901858
       6670.1455      0.44395318
       6670.8570      0.45634295
       6671.5686      0.50359116
       6672.2801      0.38105901
       6672.9916      0.48969707
       6673.7032      0.41431317
       6674.4147      0.35559481
       6675.1262      0.36329243
       6675.8378      0.47361825
       6676.5493      0.53128090
       6677.2608      0.50827141
       6677.9724      0.54711339
       6678.6839      0.52427579
       6679.3954      0.54192888
       6680.1070      0.47787595
       6680.8185      0.57408027
       6681.5300      0.53352801
       6682.2416      0.44796770
       6682.9531      0.52728466
       6683.6646      0.43946641
       6684.3761      0.56601023
       6685.0877      0.49579413
       6685.7992      0.43162063
       6686.5107      0.42869936
       6687.2223      0.52643135
       6687.9338      0.53751507
       6688.6453      0.53305519
       6689.3569      0.71822655
       6690.0684      0.58168864
       6690.7799      0.55127968
       6691.4915      0.58504274
       6692.2030      0.50279436
       6692.9145      0.69211431
       6693.6261      0.37213145
       6694.3376      0.12000600
       6695.0491      0.36040177
       6695.7607      0.54093934
       6696.4722      0.37664518
       6697.1837      0.38780046
       6697.8953      0.63150018
       6698.6068      0.87143162
       6699.3183      0.79376716
       6700.0299      0.55293007
       6700.7414      0.51823247
       6701.4529      0.57601028
       6702.1645      0.65591088
       6702.8760      0.50043390
       6703.5875      0.45638761
       6704.2991      0.60673658
       6705.0106      0.54740366
       6705.7221      0.70020948
       6706.4337      0.50291560
       6707.1452      0.51372684
       6707.8567      0.47153898
       6708.5683      0.57035426
       6709.2798      0.48177925
       6709.9913      0.53240537
       6710.7029      0.60645446
       6711.4144      0.55904542
       6712.1259      0.46330131
       6712.8375      0.55271114
       6713.5490      0.69565042
       6714.2605      0.87889533
       6714.9721       1.1889596
       6715.6836       1.4252277
       6716.3951       1.6334153
       6717.1067       1.6558775
       6717.8182       1.3379839
       6718.5297       1.3479715
       6719.2413      0.97061467
       6719.9528      0.69997270
       6720.6643      0.47825668
       6721.3759      0.63281553
       6722.0874      0.55723256
       6722.7989      0.46028398
       6723.5105      0.57030955
       6724.2220      0.44894739
       6724.9335      0.40372184
       6725.6451      0.51739638
       6726.3566      0.57290310
       6727.0681      0.66246273
       6727.7797      0.66251387
       6728.4912      0.81921208
       6729.2027       1.0360267
       6729.9143       1.2341740
       6730.6258       1.3188547
       6731.3373       1.3750552
       6732.0489       1.2401981
       6732.7604       1.0689252
       6733.4719      0.82839524
       6734.1835      0.77684882
       6734.8950      0.63182089
       6735.6065      0.66148790
       6736.3181      0.35796798
       6737.0296      0.44686802
       6737.7411      0.24209814
       6738.4527      0.62514919
       6739.1642      0.40751932
       6739.8757      0.38095814
       6740.5873      0.46265916
       6741.2988      0.33241889
       6742.0103      0.44218277
       6742.7219      0.69252354
       6743.4334      0.74932475
       6744.1449      0.51100022
       6744.8565      0.56985096
       6745.5680      0.51127692
       6746.2795      0.47958565
       6746.9911      0.49002302
       6747.7026      0.48415697
       6748.4141      0.49008462
       6749.1257      0.42964496
       6749.8372      0.39516752
       6750.5487      0.34863839
       6751.2603      0.31183117
       6751.9718      0.51127923
       6752.6833      0.59789699
       6753.3948      0.47552316
       6754.1064      0.59493602
       6754.8179      0.62733813
       6755.5294      0.63435933
       6756.2410      0.62826120
       6756.9525      0.41380798
       6757.6640      0.49121472
       6758.3756      0.55096801
       6759.0871      0.31194651
       6759.7986      0.25637002
       6760.5102      0.36147576
       6761.2217      0.11446450
       6761.9332      0.30287453
       6762.6448      0.27544417
       6763.3563      0.37853772
       6764.0678      0.10578043
       6764.7794      0.22955882
       6765.4909    -0.063125954
       6766.2024      0.19543877
       6766.9140      0.15002387
       6767.6255     0.083495241
       6768.3370             NaN
       6769.0486             NaN
       6769.7601             NaN
       6770.4716             NaN
       6771.1832             NaN
       6771.8947             NaN
       6772.6062             NaN
       6773.3178             NaN
       6774.0293             NaN
       6774.7408             NaN
       6775.4524             NaN
       6776.1639             NaN
       6776.8754             NaN
       6777.5870             NaN
       6778.2985             NaN
       6779.0100             NaN
       6779.7216             NaN
       6780.4331             NaN
       6781.1446             NaN
       6781.8562             NaN
       6782.5677             NaN
       6783.2792             NaN
       6783.9908             NaN
       6784.7023             NaN
       6785.4138             NaN
       6786.1254             NaN
       6786.8369             NaN
       6787.5484             NaN
       6788.2600             NaN
       6788.9715             NaN
       6789.6830             NaN
       6790.3946             NaN
       6791.1061             NaN
       6791.8176             NaN
       6792.5292             NaN
       6793.2407             NaN
       6793.9522             NaN
       6794.6638             NaN
       6795.3753             NaN
       6796.0868             NaN
       6796.7984             NaN
       6797.5099             NaN
       6798.2214             NaN
       6798.9330             NaN
       6799.6445             NaN
       6800.3560             NaN
       6801.0676             NaN
       6801.7791             NaN
       6802.4906             NaN
       6803.2022             NaN
       6803.9137             NaN
       6804.6252             NaN
       6805.3368             NaN
       6806.0483             NaN
       6806.7598             NaN
       6807.4714             NaN
       6808.1829             NaN
       6808.8944             NaN
       6809.6060             NaN
       6810.3175             NaN
       6811.0290             NaN
       6811.7406             NaN
       6812.4521             NaN
       6813.1636             NaN
       6813.8752             NaN
       6814.5867             NaN
       6815.2982             NaN
       6816.0098             NaN
       6816.7213             NaN
       6817.4328             NaN
       6818.1444             NaN
       6818.8559             NaN
       6819.5674             NaN
       6820.2790             NaN
       6820.9905             NaN
       6821.7020             NaN
       6822.4136             NaN
       6823.1251             NaN
       6823.8366             NaN
       6824.5481             NaN
       6825.2597             NaN
       6825.9712             NaN
       6826.6827             NaN
       6827.3943             NaN
       6828.1058             NaN
       6828.8173             NaN
       6829.5289             NaN
       6830.2404             NaN
       6830.9519             NaN
       6831.6635             NaN
       6832.3750             NaN
       6833.0865             NaN
       6833.7981             NaN
       6834.5096             NaN
       6835.2211             NaN
       6835.9327             NaN
       6836.6442             NaN
       6837.3557             NaN
       6838.0673             NaN
       6838.7788             NaN
       6839.4903             NaN
       6840.2019             NaN
       6840.9134             NaN
       6841.6249             NaN
       6842.3365             NaN
       6843.0480             NaN
       6843.7595             NaN
       6844.4711             NaN
       6845.1826             NaN
       6845.8941             NaN
       6846.6057             NaN
       6847.3172             NaN
       6848.0287             NaN
       6848.7403             NaN
       6849.4518             NaN
       6850.1633             NaN
       6850.8749             NaN
       6851.5864             NaN
       6852.2979             NaN
       6853.0095             NaN
       6853.7210             NaN
       6854.4325             NaN
       6855.1441             NaN
       6855.8556             NaN
       6856.5671             NaN
       6857.2787             NaN
       6857.9902             NaN
       6858.7017             NaN
       6859.4133             NaN
       6860.1248             NaN
       6860.8363             NaN
       6861.5479             NaN
       6862.2594             NaN
       6862.9709      0.16552480
       6863.6825      0.63687416
       6864.3940      0.42393787
       6865.1055      0.71613332
       6865.8171      0.78598183
       6866.5286      0.39472732
       6867.2401      0.29057782
       6867.9517      0.79183869
       6868.6632      0.88078096
       6869.3747      0.74097215
       6870.0863      0.57747288
       6870.7978      0.95655340
       6871.5093      0.40784987
       6872.2209      0.54585774
       6872.9324      0.85655279
       6873.6439      0.42187920
       6874.3555      0.50515956
       6875.0670      0.71354021
       6875.7785      0.33059520
       6876.4901      0.53378713
       6877.2016      0.58268427
       6877.9131      0.51581191
       6878.6247      0.46741644
       6879.3362      0.54666680
       6880.0477      0.57122983
       6880.7593      0.55876056
       6881.4708      0.62193954
       6882.1823      0.56099653
       6882.8939      0.53944482
       6883.6054      0.54356789
       6884.3169      0.55360176
       6885.0285      0.57346356
       6885.7400      0.55552711
       6886.4515      0.56687681
       6887.1631      0.53880625
       6887.8746      0.38316612
       6888.5861      0.58945479
       6889.2977      0.56287292
       6890.0092      0.48614779
       6890.7207      0.50980573
       6891.4323      0.42387496
       6892.1438      0.68975734
       6892.8553      0.59175482
       6893.5668      0.54074833
       6894.2784      0.51810483
       6894.9899      0.51618760
       6895.7014      0.64789578
       6896.4130      0.36359220
       6897.1245      0.20249847
       6897.8360      0.43574398
       6898.5476      0.66709390
       6899.2591      0.50174242
       6899.9706      0.40031554
       6900.6822      0.88988760
       6901.3937      0.99249607
       6902.1052      0.82361670
       6902.8168      0.47243158
       6903.5283      0.51825059
       6904.2398      0.38322379
       6904.9514      0.42293171
       6905.6629      0.31010900
       6906.3744      0.18780576
       6907.0860      0.64762173
       6907.7975      0.60028391
       6908.5090      0.34853492
       6909.2206      0.69401346
       6909.9321      0.72631750
       6910.6436      0.72738353
       6911.3552      0.55984204
       6912.0667      0.67029559
       6912.7782      0.64712264
       6913.4898      0.50448428
       6914.2013      0.47453144
       6914.9128      0.60661663
       6915.6244      0.48758041
       6916.3359      0.53036344
       6917.0474      0.66981464
       6917.7590      0.41966714
       6918.4705      0.48548275
       6919.1820      0.35066533
       6919.8936      0.83742126
       6920.6051      0.42551766
       6921.3166      0.62564789
       6922.0282      0.73850905
       6922.7397      0.61774196
       6923.4512      0.69960669
       6924.1628      0.64449126
       6924.8743      0.40992893
       6925.5858      0.55431117
       6926.2974      0.52793741
       6927.0089      0.69322448
       6927.7204      0.74315742
       6928.4320      0.59454129
       6929.1435      0.66484758
       6929.8550      0.34198297
       6930.5666      0.41292424
       6931.2781      0.47260312
       6931.9896      0.42196922
       6932.7012      0.39633829
       6933.4127      0.57388055
       6934.1242      0.49446051
       6934.8358      0.40853821
       6935.5473     0.020845465
       6936.2588      0.10130723
       6936.9704     -0.11607814
       6937.6819      0.46441359
       6938.3934     -0.11027032
       6939.1050      0.24361413
       6939.8165      0.64016140
       6940.5280      0.58354886
       6941.2396      0.61869668
       6941.9511      0.32901708
       6942.6626      0.57418439
       6943.3742      0.59478000
       6944.0857      0.56254659
       6944.7972      0.57149775
       6945.5088      0.65043095
       6946.2203      0.54166337
       6946.9318      0.65106817
       6947.6434      0.63216783
       6948.3549      0.65767872
       6949.0664      0.53211570
       6949.7780      0.43735946
       6950.4895      0.49597046
       6951.2010      0.38969146
       6951.9126      0.47354197
       6952.6241      0.66263751
       6953.3356      0.51658231
       6954.0472      0.68572086
       6954.7587      0.62916766
       6955.4702      0.70092436
       6956.1818      0.58329413
       6956.8933      0.63038883
       6957.6048      0.44056886
       6958.3164      0.67171355
       6959.0279      0.72405535
       6959.7394      0.40228152
       6960.4510    0.0055318109
       6961.1625      0.39867982
       6961.8740      0.39137564
       6962.5855     0.011459431
       6963.2971      0.34399564
       6964.0086      0.29587976
       6964.7201       1.0797886
       6965.4317      0.76399856
       6966.1432      0.50740373
       6966.8547      0.61145935
       6967.5663      0.65595956
       6968.2778      0.52225459
       6968.9893      0.42251053
       6969.7009      0.45171240
       6970.4124      0.44454672
       6971.1239      0.57366524
       6971.8355      0.65397459
       6972.5470      0.60159082
       6973.2585      0.67695053
       6973.9701      0.68556085
       6974.6816      0.56113210
       6975.3931      0.51006976
       6976.1047      0.43444033
       6976.8162      0.41370716
       6977.5277      0.23114434
       6978.2393      0.34384100
       6978.9508      0.32473820
       6979.6623      0.27386599
       6980.3739      0.44172090
       6981.0854      0.31575903
       6981.7969      0.27161481
       6982.5085      0.63650521
       6983.2200      0.67658602
       6983.9315      0.43896362
       6984.6431      0.56213668
       6985.3546      0.41102164
       6986.0661      0.57928959
       6986.7777      0.41608841
       6987.4892      0.84388729
       6988.2007      0.78574491
       6988.9123      0.60883206
       6989.6238      0.54776608
       6990.3353      0.82978420
       6991.0469      0.78472441
       6991.7584      0.54619108
       6992.4699      0.49304952
       6993.1815      0.76671766
       6993.8930      0.75468559
       6994.6045      0.64047271
       6995.3161      0.38655142
       6996.0276      0.41280256
       6996.7391      0.51484182
       6997.4507      0.66785154
       6998.1622      0.40018545
       6998.8737      0.55134886
       6999.5853      0.76558243
       7000.2968      0.78040992
       7001.0083      0.60134637
       7001.7199      0.50161973
       7002.4314      0.44045210
       7003.1429      0.61928955
       7003.8545      0.49746650
       7004.5660      0.73013424
       7005.2775      0.47422521
       7005.9891      0.48003266
       7006.7006      0.66451610
       7007.4121      0.60730765
       7008.1237      0.86382229
       7008.8352      0.88951449
       7009.5467      0.71185968
       7010.2583      0.38516301
       7010.9698      0.28647133
       7011.6813     0.086018913
       7012.3929      0.58552217
       7013.1044      0.79988494
       7013.8159       1.0502931
       7014.5275       1.0100037
       7015.2390      0.85122130
       7015.9505      0.74513619
       7016.6621      0.79074571
       7017.3736      0.63565647
       7018.0851      0.52494053
       7018.7967      0.96401650
       7019.5082      0.91614144
       7020.2197      0.96981016
       7020.9313       1.0691149
       7021.6428       1.0701440
       7022.3543       1.2609102
       7023.0659       1.1036197
       7023.7774      0.80788542
       7024.4889      0.98504238
       7025.2005      0.89861869
       7025.9120       1.0146529
       7026.6235       1.2031616
       7027.3351      0.74271059
       7028.0466      0.54403366
       7028.7581      0.65408494
       7029.4697      0.41902050
       7030.1812      0.56051054
       7030.8927      0.68731654
       7031.6042      0.59566040
       7032.3158      0.49398767
       7033.0273      0.60128969
       7033.7388      0.54256614
       7034.4504      0.51125060
       7035.1619      0.49591588
       7035.8734      0.48260708
       7036.5850      0.44748282
       7037.2965      0.55692090
       7038.0080      0.48969982
       7038.7196      0.50121946
       7039.4311      0.55139448
       7040.1426      0.51642355
       7040.8542      0.49073175
       7041.5657      0.49976962
       7042.2772     0.013641412
       7042.9888      0.16850835
       7043.7003      0.49092005
       7044.4118       1.0404869
       7045.1234      0.11482486
       7045.8349      0.81810826
       7046.5464      0.59464017
       7047.2580      0.47285929
       7047.9695      0.60653192
       7048.6810      0.60285993
       7049.3926      0.32322909
       7050.1041      0.46244400
       7050.8156      0.55959236
       7051.5272      0.87176926
       7052.2387      0.69681654
       7052.9502      0.27737859
       7053.6618      0.84434466
       7054.3733      0.64595935
       7055.0848      0.62327177
       7055.7964      0.52140616
       7056.5079      0.35793433
       7057.2194      0.43209775
       7057.9310      0.40743837
       7058.6425      0.45298499
       7059.3540      0.50832381
       7060.0656      0.35226208
       7060.7771      0.71313709
       7061.4886      0.57614341
       7062.2002      0.38651103
       7062.9117      0.48602490
       7063.6232      0.37375466
       7064.3348      0.59045888
       7065.0463      0.56186520
       7065.7578      0.40277383
       7066.4694      0.51191865
       7067.1809      0.58328282
       7067.8924      0.52444506
       7068.6040      0.49426851
       7069.3155      0.47557191
       7070.0270      0.59734669
       7070.7386      0.50048986
       7071.4501      0.54861392
       7072.1616      0.61313398
       7072.8732      0.39814541
       7073.5847      0.31737305
       7074.2962      0.45032206
       7075.0078      0.46400125
       7075.7193      0.73981051
       7076.4308      0.61991059
       7077.1424      0.50420330
       7077.8539      0.90041258
       7078.5654      0.67746274
       7079.2770      0.67706944
       7079.9885      0.48541605
       7080.7000      0.49073264
       7081.4116      0.57613464
       7082.1231      0.52857263
       7082.8346      0.49564235
       7083.5462      0.32500675
       7084.2577      0.47358477
       7084.9692      0.45517257
       7085.6808      0.31155120
       7086.3923      0.36298173
       7087.1038    -0.049631872
       7087.8154      0.19390313
       7088.5269     0.022430721
       7089.2384      0.30493723
       7089.9500      0.71455368
       7090.6615      0.40095652
       7091.3730      0.88355129
       7092.0846       1.1178835
       7092.7961      0.62387404
       7093.5076      0.47091625
       7094.2192      0.72306706
       7094.9307      0.47983700
       7095.6422      0.45052920
       7096.3538      0.46796451
       7097.0653      0.53972281
       7097.7768      0.57681530
       7098.4884      0.46900109
       7099.1999      0.31790275
       7099.9114      0.49840311
       7100.6229      0.49431223
       7101.3345      0.62472807
       7102.0460      0.52438078
       7102.7575    -0.023952994
       7103.4691      0.34979022
       7104.1806      0.50533359
       7104.8921      0.53410244
       7105.6037      0.33943263
       7106.3152      0.12656753
       7107.0267      0.26404811
       7107.7383      0.29725618
       7108.4498      0.44698957
       7109.1613      0.67187977
       7109.8729      0.66075708
       7110.5844      0.56755547
       7111.2959      0.54120033
       7112.0075      0.50639093
       7112.7190      0.64971188
       7113.4305      0.38375814
       7114.1421      0.41228935
       7114.8536      0.95231693
       7115.5651      0.79593200
       7116.2767      0.93421385
       7116.9882      0.66654475
       7117.6997      0.49059219
       7118.4113      0.99518748
       7119.1228       1.1175706
       7119.8343      0.54427266
       7120.5459      0.46606393
       7121.2574      0.54143659
       7121.9689      0.48497951
       7122.6805      0.37629103
       7123.3920      0.42533189
       7124.1035      0.49927207
       7124.8151      0.60034502
       7125.5266      0.49715481
       7126.2381      0.55312534
       7126.9497      0.62721471
       7127.6612      0.49960590
       7128.3727      0.59094220
       7129.0843      0.70962176
       7129.7958      0.49566018
       7130.5073      0.30962707
       7131.2189      0.41800048
       7131.9304      0.62161480
       7132.6419      0.29032965
       7133.3535      0.26422905
       7134.0650      0.31880924
       7134.7765      0.42545749
       7135.4881      0.15379008
       7136.1996      0.23873306
       7136.9111      0.61155575
       7137.6227      0.50272482
       7138.3342      0.51702825
       7139.0457      0.48075783
       7139.7573      0.47429807
       7140.4688      0.56729856
       7141.1803      0.37207864
       7141.8919      0.50090383
       7142.6034      0.58582131
       7143.3149      0.24571058
       7144.0265      0.75615967
       7144.7380      0.50038502
       7145.4495      0.47744265
       7146.1611      0.29679607
       7146.8726      0.59686708
       7147.5841       1.3134745
       7148.2957       1.2618715
       7149.0072      0.37296476
       7149.7187      0.53355258
       7150.4303      0.53103454
       7151.1418      0.35853131
       7151.8533      0.29641113
       7152.5649      0.39414642
       7153.2764      0.45110433
       7153.9879      0.38687637
       7154.6995      0.40407617
       7155.4110      0.37818808
       7156.1225      0.45518781
       7156.8341      0.42798174
       7157.5456      0.40562873
       7158.2571      0.54572513
       7158.9687      0.66198818
       7159.6802      0.62843606
       7160.3917      0.50488537
       7161.1033      0.38552057
       7161.8148      0.46556307
       7162.5263      0.47449425
       7163.2379      0.39664455
       7163.9494      0.47155876
       7164.6609      0.35026722
       7165.3725      0.42310039
       7166.0840      0.31424347
       7166.7955      0.34739438
       7167.5071      0.35967844
       7168.2186      0.63326217
       7168.9301      0.66250365
       7169.6416      0.47777070
       7170.3532      0.57778230
       7171.0647      0.55587148
       7171.7762      0.55621234
       7172.4878      0.68581364
       7173.1993      0.77450769
       7173.9108      0.58020457
       7174.6224      0.57404595
       7175.3339      0.37375331
       7176.0454      0.73679334
       7176.7570      0.33107159
       7177.4685      0.34127497
       7178.1800      0.47463589
       7178.8916      0.30524477
       7179.6031      0.26354397
       7180.3146      0.91071956
       7181.0262      0.56329178
       7181.7377      0.67333176
       7182.4492      0.86242181
       7183.1608      0.64802756
       7183.8723      0.44023687
       7184.5838      0.55208206
       7185.2954      0.40370918
       7186.0069      0.33678817
       7186.7184      0.46962068
       7187.4300      0.60870657
       7188.1415      0.48508362
       7188.8530      0.40296880
       7189.5646      0.55704706
       7190.2761      0.65282649
       7190.9876      0.57588969
       7191.6992      0.57642064
       7192.4107      0.57777051
       7193.1222      0.53353997
       7193.8338      0.52295736
       7194.5453      0.61647208
       7195.2568      0.48924885
       7195.9684      0.55362481
       7196.6799      0.55996715
       7197.3914      0.67433210
       7198.1030      0.47852824
       7198.8145      0.53504802
       7199.5260      0.52791250
       7200.2376      0.57371847
       7200.9491      0.52992998
       7201.6606      0.48195896
       7202.3722      0.32398201
       7203.0837      0.25728185
       7203.7952      0.55357103
       7204.5068      0.56640433
       7205.2183      0.45770182
       7205.9298      0.77307967
       7206.6414      0.97622289
       7207.3529      0.86459510
       7208.0644       1.0937572
       7208.7760      0.97195470
       7209.4875      0.93883420
       7210.1990      0.69010628
       7210.9106      0.60889904
       7211.6221      0.84922539
       7212.3336      0.69531479
       7213.0452      0.15965843
       7213.7567      0.20650908
       7214.4682      0.44351569
       7215.1798      0.38266520
       7215.8913      0.28887091
       7216.6028      0.51908986
       7217.3144      0.90811787
       7218.0259      0.47678115
       7218.7374      0.42547564
       7219.4490      0.63733145
       7220.1605      0.59554298
       7220.8720      0.61192193
       7221.5836      0.63165770
       7222.2951      0.64155785
       7223.0066      0.54251690
       7223.7182      0.61659872
       7224.4297      0.60712544
       7225.1412      0.57786771
       7225.8528      0.48433826
       7226.5643      0.50872376
       7227.2758      0.49273055
       7227.9874      0.58943311
       7228.6989      0.47198075
       7229.4104      0.57289874
       7230.1220      0.50008222
       7230.8335      0.40930232
       7231.5450      0.43055061
       7232.2566      0.50274832
       7232.9681      0.46955313
       7233.6796      0.47330469
       7234.3912      0.40359599
       7235.1027      0.49315971
       7235.8142      0.51007551
       7236.5258      0.45694728
       7237.2373      0.56631511
       7237.9488      0.37633006
       7238.6603      0.40690480
       7239.3719      0.36109169
       7240.0834      0.38351184
       7240.7949      0.49166011
       7241.5065      0.51287250
       7242.2180      0.53127456
       7242.9295      0.44641997
       7243.6411      0.44511305
       7244.3526      0.46420627
       7245.0641      0.44927340
       7245.7757      0.53818117
       7246.4872      0.52359229
       7247.1987      0.60872200
       7247.9103      0.52818459
       7248.6218      0.63195623
       7249.3333      0.55394656
       7250.0449      0.45922413
       7250.7564      0.39671367
       7251.4679      0.34698971
       7252.1795      0.36072857
       7252.8910      0.29219055
       7253.6025      0.36358710
       7254.3141      0.49843384
       7255.0256      0.52218387
       7255.7371      0.45402609
       7256.4487      0.30378661
       7257.1602      0.51126656
       7257.8717      0.52262551
       7258.5833      0.44511015
       7259.2948      0.50139252
       7260.0063      0.46808643
       7260.7179      0.40777997
       7261.4294      0.46693390
       7262.1409      0.46763461
       7262.8525      0.61664088
       7263.5640      0.42782707
       7264.2755      0.41358325
       7264.9871      0.40112426
       7265.6986      0.46202997
       7266.4101      0.33428656
       7267.1217      0.43571547
       7267.8332      0.35354910
       7268.5447      0.25665069
       7269.2563      0.43318679
       7269.9678      0.37889813
       7270.6793      0.36285879
       7271.3909      0.46053862
       7272.1024      0.52448000
       7272.8139      0.62476016
       7273.5255      0.45926114
       7274.2370      0.50584367
       7274.9485      0.50725520
       7275.6601      0.47917317
       7276.3716      0.39407488
       7277.0831      0.48748983
       7277.7947      0.45551722
       7278.5062      0.54627777
       7279.2177      0.57936383
       7279.9293      0.55302667
       7280.6408      0.37987010
       7281.3523      0.32454840
       7282.0639      0.45459765
       7282.7754      0.37765899
       7283.4869      0.34368449
       7284.1985      0.36326459
       7284.9100      0.32587765
       7285.6215      0.32225812
       7286.3331      0.44628379
       7287.0446      0.47282556
       7287.7561      0.39206379
       7288.4677      0.51195509
       7289.1792      0.49680982
       7289.8907      0.49499033
       7290.6023      0.34685950
       7291.3138      0.28527784
       7292.0253      0.39455411
       7292.7369      0.47504257
       7293.4484      0.54552117
       7294.1599      0.70402986
       7294.8715      0.87227182
       7295.5830      0.18722726
       7296.2945     -0.33701888
